timestamps,TP9,AF7,AF8,TP10,Right AUX,Marker0
1486363968.271,59.082,24.902,28.320,65.430,7.324,0
1486363968.275,52.246,31.738,27.344,62.012,-70.801,0
1486363968.279,58.594,36.133,25.879,62.012,-23.926,0
1486363968.283,58.105,33.203,23.926,62.012,-27.832,0
1486363968.287,52.734,25.391,21.973,69.336,-36.621,0
1486363968.291,52.734,25.391,27.344,74.219,-41.016,0
1486363968.295,50.781,27.344,26.367,62.500,-20.996,0
1486363968.299,51.270,28.320,26.855,47.363,-3.418,0
1486363968.303,46.875,31.738,34.668,56.152,-34.668,0
1486363968.306,48.340,36.133,34.668,64.941,-12.695,0
1486363968.310,55.664,37.109,28.320,70.312,33.691,0
1486363968.314,54.199,29.785,25.391,77.637,38.574,0
1486363968.318,50.293,26.367,29.297,75.684,30.273,0
1486363968.322,52.734,30.273,33.203,77.148,54.688,0
1486363968.326,58.594,28.320,32.715,65.430,36.133,0
1486363968.330,51.758,29.297,31.738,65.918,16.602,0
1486363968.334,56.152,27.832,28.809,87.402,-43.945,0
1486363968.338,60.547,25.879,23.926,87.402,-57.129,0
1486363968.342,56.641,24.902,22.949,67.871,-1.465,0
1486363968.345,50.781,20.508,21.973,60.059,28.320,0
1486363968.349,50.781,20.508,21.484,72.266,24.902,0
1486363968.353,52.246,20.508,28.809,66.895,-19.531,0
1486363968.357,54.688,20.508,31.738,53.711,-26.367,0
1486363968.361,59.082,21.484,27.344,62.012,-2.930,0
1486363968.365,59.570,20.020,26.855,65.430,31.250,0
1486363968.369,60.547,19.043,28.809,58.594,13.184,0
1486363968.373,56.641,20.508,26.367,63.477,4.395,0
1486363968.377,57.617,19.043,26.367,72.266,-21.484,0
1486363968.381,69.336,23.438,28.320,81.055,-58.594,0
1486363968.385,66.895,28.809,28.809,74.219,1.953,0
1486363968.388,46.875,27.832,29.297,62.988,44.434,0
1486363968.392,48.828,32.227,30.762,70.801,24.902,0
1486363968.396,56.152,37.109,26.367,74.707,-9.766,0
1486363968.400,53.223,41.504,24.414,65.918,22.461,0
1486363968.404,58.105,44.922,15.137,56.152,59.082,0
1486363968.408,59.082,42.480,5.859,46.875,20.020,0
1486363968.412,51.758,41.504,12.207,57.617,-7.812,0
1486363968.416,48.340,45.898,18.066,76.172,-29.297,0
1486363968.420,51.758,51.758,14.648,55.176,-38.086,0
1486363968.424,47.852,53.711,15.137,49.805,28.809,0
1486363968.428,46.387,51.270,17.578,49.316,92.773,0
1486363968.431,52.246,49.316,17.090,23.926,46.875,0
1486363968.435,46.387,43.457,11.230,25.879,10.742,0
1486363968.439,41.016,34.668,13.672,35.645,39.062,0
1486363968.443,47.852,32.715,21.484,27.832,51.270,0
1486363968.447,54.199,36.621,21.484,20.020,97.656,0
1486363968.451,62.012,39.551,20.996,5.371,74.707,0
1486363968.455,66.406,36.133,19.531,2.930,-20.020,0
1486363968.459,57.617,32.715,20.996,18.555,4.883,0
1486363968.463,63.477,34.668,19.043,24.902,90.820,0
1486363968.467,60.547,32.715,17.578,29.785,79.590,0
1486363968.470,37.598,31.738,17.090,36.133,51.270,0
1486363968.474,26.855,35.156,20.508,30.762,46.875,0
1486363968.478,40.527,32.715,15.137,20.996,60.059,0
1486363968.482,38.574,30.273,3.418,40.527,29.785,0
1486363968.486,41.504,29.785,12.695,54.199,36.621,0
1486363968.490,52.246,25.391,19.043,37.598,65.918,0
1486363968.494,46.875,20.996,15.625,28.320,37.109,0
1486363968.498,30.762,20.996,20.508,23.926,32.715,0
1486363968.502,22.949,23.926,31.250,34.180,23.926,0
1486363968.506,40.039,22.461,30.762,51.270,75.684,0
1486363968.510,32.227,22.949,26.367,49.805,109.375,0
1486363968.513,6.348,18.066,18.555,41.992,50.781,0
1486363968.517,27.344,16.113,20.996,29.297,22.461,0
1486363968.521,47.363,19.531,26.367,31.250,0.000,1
1486363968.525,45.898,20.996,20.508,56.152,-3.906,0
1486363968.529,41.504,24.902,20.020,53.711,-55.176,0
1486363968.533,21.484,23.438,25.391,38.574,-20.508,0
1486363968.537,23.438,24.414,26.367,40.527,53.711,0
1486363968.541,29.785,27.344,24.902,44.922,34.180,0
1486363968.545,23.438,26.367,20.508,40.039,10.254,0
1486363968.549,21.973,24.414,23.438,29.785,-22.461,0
1486363968.553,30.273,25.391,27.344,36.621,-4.395,0
1486363968.556,21.973,20.996,18.066,54.199,29.785,0
1486363968.560,26.855,12.695,20.996,59.570,16.602,0
1486363968.564,38.574,14.648,28.320,60.547,12.207,0
1486363968.568,43.945,19.043,24.414,49.805,7.324,0
1486363968.572,39.062,15.137,23.438,28.320,-10.742,0
1486363968.576,31.738,13.672,27.344,27.832,-20.996,0
1486363968.580,41.504,18.066,27.832,37.598,-37.598,0
1486363968.584,44.922,19.531,31.250,42.480,-3.418,0
1486363968.588,41.016,17.578,25.391,35.156,-43.457,0
1486363968.592,45.410,19.531,17.578,32.715,-29.297,0
1486363968.595,55.664,21.973,23.438,38.574,39.062,0
1486363968.599,55.176,22.949,24.414,40.039,-5.371,0
1486363968.603,50.781,26.855,18.555,33.203,24.414,0
1486363968.607,46.387,23.926,16.113,39.551,37.598,0
1486363968.611,48.340,20.020,15.137,50.781,30.762,0
1486363968.615,49.316,16.602,14.648,44.434,17.578,0
1486363968.619,45.410,16.113,15.625,34.668,0.977,0
1486363968.623,40.039,20.020,17.090,37.109,37.109,0
1486363968.627,39.062,20.020,16.602,40.039,10.742,0
1486363968.631,42.969,19.043,19.531,38.574,15.625,0
1486363968.635,34.180,22.949,26.367,46.875,18.066,0
1486363968.638,21.973,25.879,27.344,48.340,11.230,0
1486363968.642,27.832,22.461,26.855,42.480,-3.906,0
1486363968.646,40.527,24.414,27.832,41.992,27.832,0
1486363968.650,40.527,26.855,31.250,49.805,39.551,0
1486363968.654,43.945,26.367,32.227,53.223,-31.738,0
1486363968.658,41.504,25.879,30.273,62.500,-34.180,0
1486363968.662,38.086,25.879,28.320,52.734,6.348,0
1486363968.666,39.551,24.902,26.855,59.570,49.805,0
1486363968.670,38.574,23.926,26.367,73.242,34.180,0
1486363968.674,37.109,21.973,21.484,59.570,41.504,0
1486363968.678,41.504,21.973,19.531,42.480,20.508,0
1486363968.681,50.293,26.855,26.367,39.551,3.418,0
1486363968.685,49.316,31.250,27.832,53.223,51.270,0
1486363968.689,40.527,27.344,24.902,65.430,10.254,0
1486363968.693,31.738,15.625,23.438,62.500,-23.438,0
1486363968.697,43.457,18.555,25.391,53.711,-0.488,0
1486363968.701,57.129,27.832,23.926,43.945,26.367,0
1486363968.705,43.945,28.809,14.648,32.227,49.805,0
1486363968.709,36.133,31.250,20.508,29.297,54.199,0
1486363968.713,31.250,30.273,28.320,32.227,43.945,0
1486363968.717,29.785,22.461,13.672,21.484,-14.648,0
1486363968.720,38.086,25.391,8.301,17.578,37.598,0
1486363968.724,41.016,26.367,18.066,28.809,20.508,0
1486363968.728,40.039,21.973,27.832,17.578,-15.625,0
1486363968.732,39.062,26.855,30.273,24.414,12.695,0
1486363968.736,34.180,20.020,9.766,38.086,-6.836,0
1486363968.740,32.227,17.578,11.719,51.270,15.137,0
1486363968.744,39.551,23.438,24.414,52.734,31.250,0
1486363968.748,42.969,20.996,15.137,39.551,41.016,0
1486363968.752,41.504,22.949,23.438,33.203,82.031,0
1486363968.756,33.691,22.461,34.180,37.598,61.035,0
1486363968.760,24.414,15.625,19.531,33.691,-28.320,0
1486363968.763,37.598,20.508,11.719,25.391,-17.578,0
1486363968.767,43.945,33.203,21.484,37.109,19.531,0
1486363968.771,31.738,38.086,27.344,44.434,-20.996,0
1486363968.775,31.738,36.133,32.227,50.781,-25.879,0
1486363968.779,33.203,33.203,24.414,52.734,-24.902,0
1486363968.783,37.598,31.250,22.461,43.945,-2.441,0
1486363968.787,46.387,32.227,27.832,53.711,11.719,0
1486363968.791,53.711,34.180,26.367,60.547,0.977,0
1486363968.795,47.363,33.691,30.762,60.059,3.906,0
1486363968.799,36.621,34.180,27.832,72.266,15.625,0
1486363968.803,42.969,32.227,28.320,69.824,25.391,0
1486363968.806,50.293,26.855,32.715,57.617,-12.207,0
1486363968.810,43.945,27.832,29.297,64.941,14.648,0
1486363968.814,29.785,29.297,24.414,75.195,72.266,0
1486363968.818,31.738,28.320,20.508,73.730,20.020,0
1486363968.822,44.922,30.762,25.879,70.312,28.320,0
1486363968.826,53.223,28.320,31.738,61.035,24.414,0
1486363968.830,44.434,25.391,29.785,58.105,-30.273,0
1486363968.834,23.926,22.461,21.973,57.617,-1.953,0
1486363968.838,26.855,18.066,21.973,64.941,-11.719,0
1486363968.842,49.316,20.508,31.250,70.312,-14.648,0
1486363968.845,42.480,22.949,36.621,81.543,12.695,0
1486363968.849,37.598,26.855,34.180,76.660,8.789,0
1486363968.853,33.203,30.273,33.203,60.059,19.531,0
1486363968.857,32.715,29.785,28.320,72.754,2.930,0
1486363968.861,38.086,23.438,22.461,69.336,2.930,0
1486363968.865,40.527,21.484,25.391,57.129,-2.441,0
1486363968.869,36.133,26.855,26.855,62.988,-30.273,0
1486363968.873,33.203,24.414,26.367,63.477,-46.875,0
1486363968.877,39.062,21.484,22.949,64.453,12.207,0
1486363968.881,34.668,23.926,26.855,76.660,26.855,0
1486363968.885,40.039,28.809,31.738,65.918,10.254,0
1486363968.888,51.270,28.320,25.879,46.875,34.668,0
1486363968.892,53.223,22.461,25.879,52.246,41.016,0
1486363968.896,55.664,21.484,29.785,63.477,45.898,0
1486363968.900,40.039,21.484,27.832,54.199,29.785,0
1486363968.904,25.391,19.043,25.391,40.527,34.180,0
1486363968.908,35.645,18.066,23.926,48.828,24.902,0
1486363968.912,40.039,17.578,21.973,49.805,12.207,0
1486363968.916,38.086,17.578,14.648,31.250,-4.883,0
1486363968.920,35.645,20.996,11.230,17.578,23.926,0
1486363968.924,39.551,25.391,4.883,29.297,43.945,0
1486363968.928,53.223,30.762,7.812,46.387,-18.555,0
1486363968.931,50.781,27.344,16.113,40.039,-8.301,0
1486363968.935,52.734,30.762,20.508,27.344,21.484,0
1486363968.939,56.152,32.715,24.414,32.227,40.039,0
1486363968.943,53.223,26.367,20.996,38.574,42.969,0
1486363968.947,53.711,23.926,20.508,49.805,31.738,0
1486363968.951,44.434,17.578,22.949,47.363,-25.391,0
1486363968.955,42.969,10.742,20.996,40.527,3.906,0
1486363968.959,45.898,15.625,15.625,55.176,64.941,0
1486363968.963,53.711,20.996,18.555,49.805,14.648,0
1486363968.967,59.082,17.090,20.996,46.875,-19.043,0
1486363968.970,44.434,14.648,17.090,55.664,20.508,0
1486363968.974,53.223,13.184,16.113,48.828,41.016,0
1486363968.978,66.895,16.113,16.113,42.969,15.137,0
1486363968.982,70.312,21.973,14.160,42.480,30.273,0
1486363968.986,75.195,22.949,16.113,51.758,18.066,0
1486363968.990,67.871,19.531,17.090,66.895,3.906,0
1486363968.994,62.500,18.555,20.020,68.359,41.504,0
1486363968.998,60.547,20.020,18.555,69.336,72.266,0
1486363969.002,61.523,17.578,17.578,67.871,2.441,0
1486363969.006,62.988,12.695,27.344,63.477,2.441,0
1486363969.010,69.824,20.020,33.203,60.547,62.988,0
1486363969.013,62.012,29.297,28.809,66.895,25.879,0
1486363969.017,48.828,24.414,27.832,79.590,25.879,0
1486363969.021,58.594,21.484,32.227,72.266,55.664,0
1486363969.025,73.242,20.020,24.902,39.551,2.930,0
1486363969.029,51.758,15.625,20.508,35.645,10.742,0
1486363969.033,26.855,17.090,17.090,48.340,29.785,0
1486363969.037,34.668,20.996,20.996,53.223,-1.953,0
1486363969.041,46.875,18.555,26.855,50.781,15.137,0
1486363969.045,29.785,16.602,16.113,44.434,33.691,0
1486363969.049,28.320,19.531,18.555,47.852,37.598,0
1486363969.053,55.176,23.438,26.855,55.664,4.395,0
1486363969.056,63.965,28.809,27.344,57.129,7.324,0
1486363969.060,59.570,31.738,31.250,60.059,21.973,0
1486363969.064,63.477,28.809,33.203,66.406,-4.395,0
1486363969.068,65.918,30.273,34.180,64.453,45.898,0
1486363969.072,62.012,34.668,34.180,67.383,67.383,0
1486363969.076,66.406,34.668,29.785,70.312,41.016,0
1486363969.080,66.406,30.762,28.809,67.383,75.195,0
1486363969.084,61.035,29.297,31.250,63.965,84.961,0
1486363969.088,55.664,29.297,30.273,59.082,28.809,0
1486363969.092,46.387,29.785,28.809,62.988,-22.461,0
1486363969.095,41.992,30.273,30.273,65.430,38.086,0
1486363969.099,49.805,29.297,31.250,48.340,52.246,0
1486363969.103,44.434,31.250,28.809,32.715,22.461,0
1486363969.107,43.945,35.156,27.344,42.480,24.902,0
1486363969.111,46.387,34.180,23.926,53.223,22.461,0
1486363969.115,48.340,34.668,21.484,59.082,14.648,0
1486363969.119,49.805,38.086,22.949,46.875,9.277,0
1486363969.123,55.176,38.086,26.367,46.387,15.625,0
1486363969.127,50.781,36.621,26.367,49.805,20.508,0
1486363969.131,42.969,35.156,26.367,50.781,33.691,0
1486363969.135,48.828,36.621,22.461,62.012,35.156,0
1486363969.138,48.828,37.109,23.438,57.617,-41.504,0
1486363969.142,46.875,33.691,27.832,61.035,-35.645,0
1486363969.146,54.688,29.785,23.438,39.062,36.621,0
1486363969.150,63.965,29.785,30.273,29.297,13.184,0
1486363969.154,62.988,28.809,33.203,53.223,-7.324,0
1486363969.158,63.477,27.832,33.203,53.223,36.621,0
1486363969.162,56.152,23.926,36.621,59.570,34.668,0
1486363969.166,45.410,24.902,36.621,61.035,22.949,0
1486363969.170,54.688,26.367,32.715,46.387,14.648,0
1486363969.174,47.852,23.926,30.762,30.762,29.297,0
1486363969.178,44.434,23.926,33.203,29.785,16.113,0
1486363969.181,57.617,27.344,27.344,38.086,-53.711,0
1486363969.185,49.316,27.344,20.020,41.504,9.766,0
1486363969.189,39.062,25.391,23.926,47.363,41.992,0
1486363969.193,44.922,28.320,26.855,43.457,18.066,0
1486363969.197,53.223,33.203,24.414,54.688,57.129,0
1486363969.201,71.777,34.668,25.391,67.871,-7.812,0
1486363969.205,74.707,32.715,26.855,48.828,-2.930,0
1486363969.209,54.688,33.691,26.855,50.293,29.297,0
1486363969.213,42.969,33.203,20.020,58.594,37.598,0
1486363969.217,52.734,32.227,19.043,61.523,71.777,0
1486363969.220,63.965,32.227,23.926,50.781,-14.648,0
1486363969.224,63.965,29.297,28.809,52.246,-3.418,0
1486363969.228,52.246,25.879,22.461,62.988,37.598,0
1486363969.232,42.969,24.414,15.137,60.059,24.414,0
1486363969.236,40.527,28.320,29.297,61.035,42.480,0
1486363969.240,47.363,31.250,39.062,65.430,36.133,0
1486363969.244,50.293,30.273,34.668,65.430,23.926,0
1486363969.248,51.270,30.762,29.297,67.383,47.363,0
1486363969.252,41.992,30.762,29.785,65.430,81.543,0
1486363969.256,42.480,28.809,28.809,59.082,37.598,0
1486363969.260,57.617,30.273,25.391,63.965,4.883,0
1486363969.263,57.129,30.762,25.391,66.406,29.785,0
1486363969.267,52.734,30.273,26.367,58.594,36.133,0
1486363969.271,60.059,29.297,25.391,47.852,25.879,0
1486363969.275,52.246,23.926,30.273,40.527,15.137,0
1486363969.279,46.387,25.391,34.668,40.039,20.996,0
1486363969.283,48.340,28.320,35.645,32.715,33.691,0
1486363969.287,48.340,22.949,32.715,34.668,-8.301,0
1486363969.291,52.734,18.555,29.297,41.016,-10.254,0
1486363969.295,57.617,18.066,32.227,47.852,40.527,0
1486363969.299,60.059,17.578,32.227,49.805,56.641,0
1486363969.303,54.688,16.602,27.344,40.527,31.738,0
1486363969.306,50.293,20.020,27.832,43.945,30.762,0
1486363969.310,50.293,22.461,26.855,41.504,52.734,0
1486363969.314,49.805,20.020,23.438,39.062,83.496,0
1486363969.318,47.363,22.461,19.531,51.758,75.684,0
1486363969.322,50.781,25.391,20.996,58.105,9.766,0
1486363969.326,61.523,22.461,26.367,56.152,-19.531,0
1486363969.330,64.453,23.438,20.996,61.035,-14.160,0
1486363969.334,57.129,27.832,9.277,61.523,38.574,0
1486363969.338,65.430,30.273,8.301,41.016,79.102,0
1486363969.342,60.547,28.809,14.160,26.855,15.625,0
1486363969.345,49.805,29.297,13.184,26.367,-39.551,0
1486363969.349,70.801,30.762,11.719,33.203,-12.695,0
1486363969.353,76.172,25.391,10.254,48.828,48.340,0
1486363969.357,70.801,26.367,20.996,41.992,47.363,0
1486363969.361,65.430,29.785,21.484,39.551,26.855,0
1486363969.365,59.570,24.902,14.160,46.387,26.855,0
1486363969.369,63.965,26.855,27.832,45.410,1.953,0
1486363969.373,59.082,25.879,29.785,43.457,8.789,0
1486363969.377,57.617,22.461,23.438,41.016,1.953,0
1486363969.381,76.172,25.391,26.367,35.645,-15.625,0
1486363969.385,72.266,26.855,20.508,29.297,13.184,0
1486363969.388,67.871,30.273,16.602,18.066,12.695,0
1486363969.392,70.801,29.785,20.508,22.461,19.043,0
1486363969.396,74.219,29.297,17.578,44.434,63.477,0
1486363969.400,68.848,31.250,23.438,42.969,57.617,0
1486363969.404,55.664,30.762,32.227,21.484,34.668,0
1486363969.408,55.176,27.832,30.762,22.461,21.973,0
1486363969.412,56.152,28.809,28.809,38.086,39.062,0
1486363969.416,52.246,33.203,31.738,41.504,8.789,0
1486363969.420,53.711,33.691,35.156,41.992,-23.926,0
1486363969.424,62.500,37.109,35.645,43.457,5.859,0
1486363969.428,62.012,40.527,33.203,50.781,54.199,0
1486363969.431,62.988,36.133,33.691,58.594,36.621,0
1486363969.435,64.453,37.598,36.133,60.059,54.688,0
1486363969.439,68.848,36.621,32.715,54.199,39.062,0
1486363969.443,74.707,28.809,34.668,56.641,0.977,0
1486363969.447,82.031,30.762,40.039,59.570,9.277,0
1486363969.451,79.590,35.156,38.574,47.363,-37.598,0
1486363969.455,66.895,35.156,33.691,23.926,2.441,0
1486363969.459,53.711,31.738,29.785,33.691,49.316,0
1486363969.463,34.668,29.785,26.855,50.293,27.344,0
1486363969.467,41.504,35.156,20.996,45.898,40.039,0
1486363969.470,56.152,35.645,25.879,47.363,9.766,0
1486363969.474,62.012,34.180,29.785,61.035,23.438,0
1486363969.478,56.152,35.645,22.949,79.590,54.199,0
1486363969.482,49.316,31.250,21.973,100.098,24.902,0
1486363969.486,58.594,29.297,27.344,102.051,22.461,0
1486363969.490,62.500,29.297,26.367,75.684,23.926,0
1486363969.494,69.824,28.809,21.484,58.594,68.359,0
1486363969.498,78.125,32.227,20.996,54.199,56.152,0
1486363969.502,71.777,34.180,18.555,53.711,8.301,0
1486363969.506,61.035,34.180,19.043,67.383,32.227,0
1486363969.510,61.523,30.762,24.902,63.965,87.402,0
1486363969.513,72.266,28.320,23.438,58.594,96.680,0
1486363969.517,68.848,27.344,20.020,49.805,61.035,0
1486363969.521,62.500,25.879,23.438,42.969,44.434,0
1486363969.525,63.965,20.996,25.391,45.898,13.184,0
1486363969.529,65.918,19.531,29.785,41.992,20.020,0
1486363969.533,61.523,19.531,36.133,41.504,35.645,0
1486363969.537,46.387,16.602,37.109,44.434,7.812,0
1486363969.541,40.039,16.113,28.809,48.340,-17.090,0
1486363969.545,39.551,19.531,23.438,58.105,25.879,0
1486363969.549,41.016,28.320,35.645,73.730,44.434,0
1486363969.553,53.223,29.297,38.086,68.359,41.992,0
1486363969.556,59.570,30.762,31.738,50.293,39.062,0
1486363969.560,67.871,38.086,35.645,39.062,-4.883,0
1486363969.564,70.312,37.109,38.086,44.434,21.484,0
1486363969.568,65.430,34.668,35.156,61.035,36.133,0
1486363969.572,74.707,38.574,37.598,66.895,0.488,0
1486363969.576,78.613,39.062,37.598,69.336,46.875,0
1486363969.580,86.426,37.109,39.551,72.266,62.988,0
1486363969.584,87.891,36.133,34.668,64.453,32.227,0
1486363969.588,74.219,33.691,32.715,58.594,19.531,0
1486363969.592,76.172,33.691,34.668,64.453,41.016,0
1486363969.595,74.707,30.273,36.621,72.754,83.984,0
1486363969.599,66.406,23.438,37.598,73.730,83.008,0
1486363969.603,72.266,26.367,35.156,68.359,69.824,0
1486363969.607,75.684,28.320,38.086,59.082,103.516,0
1486363969.611,62.012,25.879,44.922,56.152,116.699,0
1486363969.615,43.945,21.973,46.387,57.129,114.258,0
1486363969.619,40.527,20.996,41.016,37.109,130.859,0
1486363969.623,41.992,23.438,40.527,32.227,136.230,0
1486363969.627,42.969,22.461,41.992,50.781,158.203,0
1486363969.631,37.109,22.949,39.551,49.316,178.711,0
1486363969.635,33.203,26.367,37.598,44.434,174.805,0
1486363969.638,31.250,21.973,36.621,48.828,198.242,0
1486363969.642,29.785,17.090,41.992,59.082,249.023,0
1486363969.646,39.062,22.461,45.410,55.176,256.348,0
1486363969.650,46.875,23.438,43.457,49.805,245.605,0
1486363969.654,53.711,26.367,39.551,57.617,250.977,0
1486363969.658,54.199,30.273,36.621,60.547,250.488,0
1486363969.662,50.293,24.902,34.668,50.781,256.836,0
1486363969.666,51.270,22.949,34.180,37.598,281.250,0
1486363969.670,53.711,24.414,34.668,35.645,321.777,0
1486363969.674,57.129,28.809,33.691,51.758,288.086,0
1486363969.678,59.570,27.344,36.133,59.082,277.832,0
1486363969.681,53.223,23.438,37.109,47.363,330.078,0
1486363969.685,50.293,24.902,32.715,45.410,327.148,0
1486363969.689,45.898,23.438,26.367,37.109,333.496,0
1486363969.693,40.039,18.066,25.879,27.344,383.301,0
1486363969.697,40.039,17.090,28.809,31.738,391.602,0
1486363969.701,34.180,18.066,33.203,27.832,382.324,0
1486363969.705,31.250,13.672,30.762,33.691,400.879,0
1486363969.709,36.133,12.695,30.762,46.387,431.152,0
1486363969.713,36.133,18.066,38.574,54.199,438.477,0
1486363969.717,35.645,22.949,43.457,58.594,398.438,0
1486363969.720,29.785,22.461,43.945,49.316,379.883,0
1486363969.724,28.809,20.996,38.086,45.898,415.527,0
1486363969.728,26.367,20.508,36.133,49.805,430.176,0
1486363969.732,29.297,22.949,36.133,41.504,405.762,0
1486363969.736,40.039,20.996,28.809,31.738,397.461,0
1486363969.740,37.109,17.090,34.180,30.762,413.086,0
1486363969.744,35.156,18.555,40.039,41.504,439.453,0
1486363969.748,37.598,19.531,33.203,42.969,461.914,0
1486363969.752,40.039,20.508,34.668,42.480,430.664,0
1486363969.756,43.457,32.227,37.109,49.316,427.734,0
1486363969.760,42.969,38.574,37.598,60.059,443.848,0
1486363969.763,48.828,34.180,41.504,56.152,419.922,0
1486363969.767,51.758,40.039,41.016,42.480,430.176,0
1486363969.771,44.922,43.945,40.527,36.133,451.660,0
1486363969.775,53.711,38.086,40.527,43.945,468.750,0
1486363969.779,58.105,37.598,41.992,54.199,447.266,2
1486363969.783,56.641,40.039,42.480,55.664,447.754,0
1486363969.787,55.176,36.621,34.180,53.223,489.258,0
1486363969.791,45.898,34.668,30.273,51.758,489.258,0
1486363969.795,49.316,38.086,34.668,43.457,462.891,0
1486363969.799,48.340,33.691,28.809,33.203,497.070,0
1486363969.803,46.387,35.645,24.414,32.715,500.000,0
1486363969.806,46.387,41.016,28.320,38.086,510.742,0
1486363969.810,42.480,34.668,23.926,42.969,516.113,0
1486363969.814,48.340,33.203,24.414,53.711,490.234,0
1486363969.818,46.875,38.086,25.879,45.898,488.281,0
1486363969.822,42.480,40.039,21.484,31.250,479.980,0
1486363969.826,53.223,37.109,20.508,31.738,466.797,0
1486363969.830,50.293,37.109,21.973,38.086,486.328,0
1486363969.834,45.410,37.109,24.902,40.527,493.164,0
1486363969.838,43.945,36.621,28.809,37.598,460.449,0
1486363969.842,52.246,40.039,27.832,45.410,442.383,0
1486363969.845,48.340,38.574,28.809,37.109,483.398,0
1486363969.849,40.527,36.133,31.250,27.344,471.680,0
1486363969.853,44.922,33.203,27.832,27.832,412.109,0
1486363969.857,46.387,27.832,24.902,25.879,437.012,0
1486363969.861,49.805,27.344,21.973,21.484,461.914,0
1486363969.865,45.410,33.691,21.973,20.508,405.762,0
1486363969.869,42.480,39.551,27.344,27.832,358.887,0
1486363969.873,49.805,40.039,26.367,27.832,377.930,0
1486363969.877,52.246,39.551,26.855,39.551,388.672,0
1486363969.881,47.363,35.645,18.555,41.992,388.672,0
1486363969.885,34.180,31.250,17.578,11.719,366.211,0
1486363969.888,32.227,31.250,26.855,-1.465,345.215,0
1486363969.892,30.762,34.668,28.320,3.906,351.074,0
1486363969.896,24.902,35.645,32.227,10.254,341.309,0
1486363969.900,24.414,34.180,34.180,13.672,347.168,0
1486363969.904,28.320,36.133,31.250,24.414,363.770,0
1486363969.908,35.645,32.227,29.297,31.250,408.203,0
1486363969.912,39.062,30.762,25.879,21.484,399.902,0
1486363969.916,36.621,39.062,27.344,16.602,370.117,0
1486363969.920,32.227,41.504,20.508,17.090,357.910,0
1486363969.924,35.156,40.039,8.301,16.113,385.742,0
1486363969.928,38.086,38.086,27.344,35.156,409.668,0
1486363969.931,33.691,40.527,39.551,33.203,381.836,0
1486363969.935,28.320,42.969,28.809,31.250,384.766,0
1486363969.939,23.438,39.062,28.809,36.621,418.945,0
1486363969.943,26.855,34.668,28.320,33.691,399.414,0
1486363969.947,37.109,37.598,26.855,31.738,383.301,0
1486363969.951,42.969,38.574,30.762,24.902,397.949,0
1486363969.955,39.062,34.668,29.785,25.879,390.137,0
1486363969.959,37.598,35.156,28.809,22.949,404.297,0
1486363969.963,52.246,38.574,27.344,22.949,433.105,0
1486363969.967,60.547,40.527,29.297,48.828,426.270,0
1486363969.970,57.129,41.504,35.156,56.641,390.137,0
1486363969.974,63.965,43.945,35.156,59.082,416.016,0
1486363969.978,81.543,44.434,32.227,65.430,438.965,0
1486363969.982,95.215,43.457,31.250,71.777,424.316,0
1486363969.986,101.074,43.457,34.180,84.961,379.395,0
1486363969.990,106.445,39.551,36.133,99.121,379.395,0
1486363969.994,106.934,37.109,32.715,102.539,423.828,0
1486363969.998,112.305,38.086,32.715,95.215,416.504,0
1486363970.002,122.070,41.016,41.504,96.680,400.391,0
1486363970.006,132.812,44.922,48.340,110.840,382.812,0
1486363970.010,138.672,42.969,51.270,113.770,401.855,0
1486363970.013,128.906,37.598,49.316,105.957,442.383,0
1486363970.017,121.582,40.039,48.340,118.652,411.133,0
1486363970.021,126.465,40.039,52.734,131.836,400.391,0
1486363970.025,123.047,38.086,55.176,132.812,419.434,0
1486363970.029,114.746,41.504,52.246,117.188,426.758,0
1486363970.033,113.281,40.527,46.387,95.215,447.754,0
1486363970.037,112.793,36.621,43.945,83.984,418.945,0
1486363970.041,117.188,34.668,45.410,85.938,442.871,0
1486363970.045,120.117,38.574,49.805,105.469,459.961,0
1486363970.049,109.863,37.109,50.293,97.656,440.430,0
1486363970.053,104.004,31.738,50.293,90.820,491.699,0
1486363970.056,98.633,30.762,43.457,91.797,507.324,0
1486363970.060,96.191,36.133,43.457,87.891,486.816,0
1486363970.064,102.051,39.062,46.875,85.938,475.586,0
1486363970.068,102.051,39.551,42.480,84.961,468.750,0
1486363970.072,94.727,38.086,49.805,92.285,458.496,0
1486363970.076,94.238,37.109,50.293,97.656,441.406,0
1486363970.080,104.004,42.969,48.340,103.027,421.387,0
1486363970.084,107.910,43.457,42.969,83.008,406.250,0
1486363970.088,100.098,41.504,43.457,72.266,391.602,0
1486363970.092,92.773,43.457,52.734,68.359,369.141,0
1486363970.095,91.309,38.086,51.270,69.336,363.770,0
1486363970.099,86.426,30.762,44.434,69.824,376.953,0
1486363970.103,84.961,27.832,39.062,61.035,370.117,0
1486363970.107,75.684,29.297,43.945,62.988,310.059,0
1486363970.111,66.406,34.180,44.434,54.688,301.270,0
1486363970.115,74.707,37.109,36.133,44.434,334.473,0
1486363970.119,72.754,33.691,41.992,42.480,281.738,0
1486363970.123,58.105,27.832,47.363,47.363,262.695,0
1486363970.127,54.199,23.438,46.875,54.688,300.781,0
1486363970.131,62.500,24.414,46.387,54.688,304.199,0
1486363970.135,57.617,30.762,45.410,57.129,284.180,0
1486363970.138,58.105,31.250,45.410,56.641,272.949,0
1486363970.142,57.129,27.344,35.645,50.293,296.387,0
1486363970.146,52.246,27.832,31.738,53.711,311.523,0
1486363970.150,48.828,30.273,42.480,67.383,271.973,0
1486363970.154,43.457,33.203,44.922,61.035,258.789,0
1486363970.158,51.758,32.715,41.016,49.805,267.578,0
1486363970.162,52.246,32.227,37.598,47.852,295.410,0
1486363970.166,52.246,33.691,31.738,40.039,283.691,0
1486363970.170,46.387,33.691,25.879,28.809,246.582,0
1486363970.174,40.039,37.598,23.438,48.340,257.812,0
1486363970.178,38.574,41.016,20.508,67.383,262.207,0
1486363970.181,34.668,42.480,29.297,67.871,248.535,0
1486363970.185,40.039,45.898,29.297,61.035,209.473,0
1486363970.189,43.945,46.875,19.043,43.457,215.332,0
1486363970.193,50.293,46.875,17.578,47.852,249.023,0
1486363970.197,60.547,40.039,13.184,48.828,242.676,0
1486363970.201,68.359,40.527,12.207,55.176,220.215,0
1486363970.205,68.848,49.805,9.277,58.594,223.145,0
1486363970.209,63.477,48.340,1.953,56.641,258.301,0
1486363970.213,64.941,44.434,8.301,70.801,233.398,0
1486363970.217,73.242,44.434,16.113,63.965,196.289,0
1486363970.220,82.031,45.898,18.066,51.758,237.305,0
1486363970.224,84.473,44.434,12.695,64.453,242.188,0
1486363970.228,70.312,38.574,8.301,72.266,209.961,0
1486363970.232,61.523,38.086,13.672,75.195,193.359,0
1486363970.236,63.477,41.992,15.137,72.266,192.383,0
1486363970.240,58.105,45.410,11.719,73.242,206.055,0
1486363970.244,58.105,48.828,11.719,87.402,186.523,0
1486363970.248,65.918,52.734,16.113,79.590,191.895,0
1486363970.252,66.895,59.082,20.020,64.453,196.289,0
1486363970.256,59.570,60.547,19.531,71.777,180.664,0
1486363970.260,53.223,55.664,20.020,74.219,179.199,0
1486363970.263,51.758,54.199,17.090,64.453,185.059,0
1486363970.267,43.457,47.852,9.277,70.312,216.309,0
1486363970.271,44.922,43.457,13.184,61.035,189.453,0
1486363970.275,37.109,44.434,17.090,50.293,165.039,0
1486363970.279,33.203,39.062,15.137,55.664,190.918,3
1486363970.283,40.527,37.598,11.719,65.918,161.621,0
1486363970.287,31.738,39.551,14.648,71.289,134.766,0
1486363970.291,41.504,40.039,22.949,65.918,157.715,0
1486363970.295,59.082,40.527,21.484,61.035,179.199,0
1486363970.299,61.523,45.410,20.508,56.641,164.062,0
1486363970.303,57.617,46.387,20.020,39.062,103.516,0
1486363970.306,47.852,43.457,16.113,34.668,91.797,0
1486363970.310,44.434,43.457,14.648,54.688,154.297,0
1486363970.314,51.270,40.039,14.648,61.035,153.320,0
1486363970.318,54.199,42.480,13.672,54.688,97.168,0
1486363970.322,48.340,44.434,11.230,47.852,92.773,0
1486363970.326,50.293,40.039,14.160,46.875,142.090,0
1486363970.330,58.105,39.062,19.043,45.410,152.344,0
1486363970.334,61.035,40.039,21.484,43.457,117.676,0
1486363970.338,53.223,36.621,18.555,41.504,115.234,0
1486363970.342,54.688,36.621,20.996,49.805,148.438,0
1486363970.345,57.129,35.645,25.879,55.176,143.555,0
1486363970.349,40.039,32.227,22.461,54.199,141.602,0
1486363970.353,41.504,31.250,25.391,54.688,125.977,0
1486363970.357,45.898,30.273,32.227,70.801,141.113,0
1486363970.361,35.156,28.320,30.762,76.172,140.137,0
1486363970.365,23.438,25.391,26.855,62.012,97.168,0
1486363970.369,29.297,28.320,29.297,55.176,116.211,0
1486363970.373,52.734,32.227,31.250,45.410,129.883,0
1486363970.377,53.711,29.297,30.273,39.062,121.094,0
1486363970.381,45.410,31.738,32.715,46.387,98.145,0
1486363970.385,45.898,34.668,26.855,55.176,112.793,0
1486363970.388,34.180,30.273,26.367,53.223,119.629,0
1486363970.392,26.855,26.367,33.203,46.875,110.352,0
1486363970.396,26.855,25.879,33.203,45.898,122.070,0
1486363970.400,33.203,23.926,31.250,37.109,123.047,0
1486363970.404,39.062,20.020,29.297,27.344,86.914,0
1486363970.408,45.410,22.461,26.855,37.598,80.078,0
1486363970.412,46.875,28.809,29.785,44.434,90.332,0
1486363970.416,43.457,28.320,26.855,27.344,54.199,0
1486363970.420,43.457,25.879,19.531,14.160,25.879,0
1486363970.424,45.898,25.391,23.926,21.973,9.766,0
1486363970.428,56.152,29.297,26.855,30.762,34.668,0
1486363970.431,52.734,28.320,25.391,31.738,48.340,0
1486363970.435,39.062,24.902,33.203,42.480,4.883,0
1486363970.439,21.484,25.391,40.039,48.340,-34.668,0
1486363970.443,34.180,26.855,40.039,48.828,-20.508,0
1486363970.447,51.758,28.809,35.645,53.711,12.695,0
1486363970.451,46.875,32.715,34.668,51.758,-8.301,0
1486363970.455,37.598,35.645,38.086,50.781,-34.180,0
1486363970.459,36.133,33.203,37.598,60.547,-8.789,0
1486363970.463,38.086,27.344,33.203,55.176,25.879,0
1486363970.467,33.203,22.461,26.367,36.621,-1.953,0
1486363970.470,17.090,24.902,24.414,46.387,-22.461,0
1486363970.474,2.930,30.273,21.973,45.410,10.254,0
1486363970.478,8.789,33.203,19.043,8.301,15.625,0
1486363970.482,25.391,32.227,16.113,-22.461,-39.062,0
1486363970.486,28.809,29.785,12.695,-9.766,-45.898,0
1486363970.490,17.578,24.902,19.531,12.695,-21.484,0
1486363970.494,27.344,21.973,23.926,13.184,-29.785,0
1486363970.498,30.273,24.902,27.344,12.207,-47.852,0
1486363970.502,29.785,28.809,30.762,10.254,-65.430,0
1486363970.506,35.645,27.344,26.855,16.113,-43.945,0
1486363970.510,29.785,28.320,26.367,24.414,-8.301,0
1486363970.513,31.738,24.902,24.414,25.391,-27.832,0
1486363970.517,34.180,23.438,24.902,32.227,-59.082,0
1486363970.521,36.133,23.926,27.832,30.762,-25.391,0
1486363970.525,39.062,23.438,25.879,28.809,-5.371,0
1486363970.529,47.363,23.438,24.902,40.039,-37.109,0
1486363970.533,54.199,22.949,26.367,20.508,-30.273,0
1486363970.537,50.781,25.391,24.902,-1.465,3.418,0
1486363970.541,37.109,23.926,25.879,24.902,-1.953,0
1486363970.545,28.809,27.832,31.738,42.480,-6.836,0
1486363970.549,41.016,32.715,35.156,26.855,-25.879,0
1486363970.553,48.340,29.297,27.344,34.180,2.441,0
1486363970.556,46.875,26.367,28.809,54.199,22.461,0
1486363970.560,46.387,25.391,39.062,39.062,10.742,0
1486363970.564,44.434,28.809,40.527,25.879,68.359,0
1486363970.568,34.180,28.320,40.039,25.879,86.426,0
1486363970.572,31.738,26.855,40.527,39.551,41.992,0
1486363970.576,48.340,22.949,41.992,36.133,80.566,0
1486363970.580,60.059,22.949,48.340,19.043,103.027,0
1486363970.584,36.621,27.344,55.664,28.809,83.984,0
1486363970.588,11.230,29.785,57.129,39.551,56.152,0
1486363970.592,23.438,30.273,53.223,37.598,45.410,0
1486363970.595,31.738,33.203,54.199,44.922,86.914,0
1486363970.599,28.809,31.738,58.594,58.594,42.480,0
1486363970.603,28.320,32.227,58.105,58.105,23.926,0
1486363970.607,41.992,37.598,56.641,52.734,62.012,0
1486363970.611,50.293,37.109,49.805,43.457,68.359,0
1486363970.615,49.316,34.668,40.527,29.297,65.430,0
1486363970.619,52.246,33.203,38.086,23.926,15.137,0
1486363970.623,49.805,30.273,35.156,36.621,1.953,0
1486363970.627,50.781,32.227,37.109,51.270,59.082,0
1486363970.631,55.664,37.598,40.527,59.082,42.969,0
1486363970.635,48.340,41.016,37.598,60.547,-14.648,0
1486363970.638,44.434,42.480,33.203,39.551,17.090,0
1486363970.642,57.617,39.551,30.762,31.250,25.879,0
1486363970.646,56.641,39.551,31.738,32.227,-12.207,0
1486363970.650,62.012,40.039,29.297,28.809,-9.766,0
1486363970.654,67.871,42.480,29.785,38.574,6.836,0
1486363970.658,56.641,43.945,29.785,47.852,-16.602,0
1486363970.662,54.199,43.457,31.738,45.898,-50.293,0
1486363970.666,45.898,43.945,33.691,41.016,-68.359,0
1486363970.670,47.363,50.781,32.715,47.363,-82.031,0
1486363970.674,57.129,52.734,31.250,45.898,-73.730,0
1486363970.678,50.781,46.387,26.855,48.828,-78.613,0
1486363970.681,46.387,42.480,24.902,57.617,-113.281,0
1486363970.685,45.410,44.922,22.949,53.711,-124.023,0
1486363970.689,47.363,47.852,16.113,40.039,-106.934,0
1486363970.693,65.430,47.852,10.254,35.645,-95.703,0
1486363970.697,57.617,47.363,15.137,56.641,-110.840,0
1486363970.701,45.898,45.410,18.555,52.734,-138.672,0
1486363970.705,54.199,44.434,18.555,50.781,-148.926,0
1486363970.709,50.293,46.387,16.113,62.500,-148.438,0
1486363970.713,48.340,45.898,13.184,56.641,-109.863,0
1486363970.717,50.293,41.016,9.766,57.129,-82.031,0
1486363970.720,53.223,41.504,6.348,59.570,-99.121,0
1486363970.724,63.477,41.992,6.836,54.199,-92.285,0
1486363970.728,74.707,41.016,5.371,44.434,-34.668,0
1486363970.732,81.055,48.340,4.883,41.992,-32.227,0
1486363970.736,66.895,54.199,5.859,43.945,-93.262,0
1486363970.740,40.039,50.293,5.859,51.758,-120.605,0
1486363970.744,30.762,46.387,3.418,57.129,-75.684,0
1486363970.748,30.762,45.410,5.859,54.688,-69.336,0
1486363970.752,38.574,40.527,12.695,53.223,-103.516,0
1486363970.756,47.852,39.551,12.207,62.988,-94.727,0
1486363970.760,48.828,41.016,12.207,70.801,-51.758,0
1486363970.763,41.504,36.621,13.672,61.523,-39.551,0
1486363970.767,38.574,38.086,14.648,56.641,-74.707,0
1486363970.771,44.434,39.062,16.602,49.805,-79.102,0
1486363970.775,42.480,36.133,20.020,44.922,-70.801,0
1486363970.779,42.969,36.133,23.926,46.387,-96.680,4
1486363970.783,46.875,32.715,19.043,43.457,-97.656,0
1486363970.787,52.246,32.715,16.602,50.293,-103.516,0
1486363970.791,60.547,30.273,24.902,56.152,-76.660,0
1486363970.795,57.617,27.344,24.902,65.918,-53.223,0
1486363970.799,58.594,34.180,24.902,65.918,-99.121,0
1486363970.803,71.777,36.621,21.973,60.547,-128.906,0
1486363970.806,79.102,36.133,26.367,62.988,-67.383,0
1486363970.810,58.105,30.762,32.715,54.688,-48.828,0
1486363970.814,32.227,25.391,23.438,46.875,-79.102,0
1486363970.818,36.621,27.344,21.484,62.012,-76.172,0
1486363970.822,41.992,23.438,27.832,60.547,-72.266,0
1486363970.826,28.320,18.555,26.367,37.598,-53.711,0
1486363970.830,21.973,17.090,19.531,20.508,-31.738,0
1486363970.834,27.832,17.090,17.090,9.277,-9.277,0
1486363970.838,38.574,18.555,19.043,19.043,33.691,0
1486363970.842,39.062,20.020,20.996,36.133,46.875,0
1486363970.845,32.715,20.996,27.832,47.363,57.617,0
1486363970.849,42.969,22.461,29.785,49.805,83.008,0
1486363970.853,58.105,24.414,26.855,42.480,79.590,0
1486363970.857,48.340,22.461,25.879,44.434,64.941,0
1486363970.861,39.062,19.531,26.367,59.082,93.750,0
1486363970.865,26.855,16.113,26.855,53.711,128.906,0
1486363970.869,25.391,19.531,28.320,27.344,126.953,0
1486363970.873,50.293,28.320,28.809,21.484,107.422,0
1486363970.877,50.293,30.273,26.855,32.715,105.469,0
1486363970.881,45.410,29.297,31.738,47.852,161.133,0
1486363970.885,53.711,26.855,34.180,53.223,180.664,0
1486363970.888,55.664,27.832,26.855,56.152,157.227,0
1486363970.892,41.992,29.297,26.855,65.430,174.316,0
1486363970.896,25.879,26.855,32.227,67.383,201.660,0
1486363970.900,27.832,32.227,25.391,63.965,166.504,0
1486363970.904,21.484,32.227,20.508,67.871,152.344,0
1486363970.908,7.812,25.879,24.902,54.199,198.730,0
1486363970.912,10.742,24.414,20.020,43.945,210.449,0
1486363970.916,27.344,26.855,19.043,41.016,190.430,0
1486363970.920,37.109,28.809,17.090,41.504,167.969,0
1486363970.924,35.156,27.832,14.160,54.688,193.848,0
1486363970.928,45.410,26.855,21.484,50.781,225.098,0
1486363970.931,45.410,24.902,19.043,51.270,182.129,0
1486363970.935,36.133,24.902,18.066,58.594,141.602,0
1486363970.939,38.574,29.785,20.996,54.688,176.270,0
1486363970.943,38.574,28.809,25.879,55.664,172.852,0
1486363970.947,36.621,25.879,27.344,62.012,144.531,0
1486363970.951,34.668,29.785,26.367,57.129,134.766,0
1486363970.955,41.992,28.809,26.855,64.941,132.812,0
1486363970.959,36.621,25.391,29.297,68.359,136.230,0
1486363970.963,25.391,29.785,34.180,62.500,106.934,0
1486363970.967,40.039,31.738,35.156,60.547,71.777,0
1486363970.970,50.293,26.855,29.297,36.133,56.641,0
1486363970.974,39.551,23.438,30.762,31.250,46.387,0
1486363970.978,33.691,22.949,32.715,49.805,4.395,0
1486363970.982,35.156,22.461,30.762,62.988,-9.766,0
1486363970.986,35.645,24.902,33.203,62.500,-39.062,0
1486363970.990,37.109,25.879,33.691,49.805,-70.801,0
1486363970.994,45.898,24.414,34.668,52.734,-64.453,0
1486363970.998,45.410,23.926,38.086,48.828,-74.219,0
1486363971.002,40.039,22.461,39.551,41.504,-93.262,0
1486363971.006,46.387,20.020,37.109,42.969,-122.070,0
1486363971.010,56.641,20.020,33.691,41.504,-124.512,0
1486363971.013,42.969,21.973,38.086,55.176,-91.797,0
1486363971.017,18.555,20.996,41.016,63.965,-101.074,0
1486363971.021,20.996,18.555,45.898,62.500,-122.559,0
1486363971.025,26.855,21.973,46.875,65.918,-86.426,0
1486363971.029,30.273,22.949,40.527,59.082,-20.996,0
1486363971.033,29.297,20.020,39.551,57.617,-14.160,0
1486363971.037,33.691,24.902,37.109,53.223,-29.297,0
1486363971.041,40.527,29.785,38.086,57.617,-35.645,0
1486363971.045,43.945,28.320,37.109,48.828,4.395,0
1486363971.049,41.992,25.391,36.133,46.875,67.871,0
1486363971.053,28.320,22.461,37.109,50.781,59.082,0
1486363971.056,44.922,21.484,41.504,47.363,55.664,0
1486363971.060,54.199,24.902,43.945,54.199,125.977,0
1486363971.064,51.758,26.855,40.527,56.152,188.477,0
1486363971.068,59.570,28.809,39.062,63.965,195.312,0
1486363971.072,47.363,27.832,38.086,66.406,190.918,0
1486363971.076,40.527,28.320,35.156,57.129,235.352,0
1486363971.080,41.504,27.344,32.227,59.570,282.715,0
1486363971.084,47.852,21.973,30.762,62.012,273.438,0
1486363971.088,49.805,24.902,30.273,59.570,295.898,0
1486363971.092,36.621,24.414,35.156,64.453,378.906,0
1486363971.095,34.180,19.531,33.691,58.594,402.344,0
1486363971.099,45.410,21.484,30.762,62.500,359.863,0
1486363971.103,44.434,20.996,33.203,68.848,349.609,0
1486363971.107,26.855,21.484,32.715,62.500,380.371,0
1486363971.111,34.668,23.438,30.762,60.547,400.879,0
1486363971.115,41.504,23.926,30.273,53.223,403.809,0
1486363971.119,41.992,26.855,32.227,43.945,422.852,0
1486363971.123,40.527,27.344,29.297,49.805,432.617,0
1486363971.127,30.762,26.367,23.438,49.805,450.684,0
1486363971.131,28.809,29.297,23.926,48.340,440.430,0
1486363971.135,18.555,26.367,22.949,59.570,431.641,0
1486363971.138,23.926,26.367,20.508,52.734,462.402,0
1486363971.142,32.715,24.902,16.113,50.293,454.102,0
1486363971.146,32.227,20.996,9.277,52.246,437.988,0
1486363971.150,37.109,24.414,12.695,48.828,449.707,0
1486363971.154,32.715,32.715,13.672,64.941,464.355,0
1486363971.158,27.832,38.574,9.277,56.152,467.773,0
1486363971.162,29.297,41.992,8.789,53.711,437.012,0
1486363971.166,46.875,43.945,15.137,72.754,446.289,0
1486363971.170,59.570,43.945,17.578,78.613,392.090,0
1486363971.174,58.105,44.434,16.602,76.172,361.816,0
1486363971.178,54.688,44.922,21.484,75.684,393.066,0
1486363971.181,51.270,42.480,25.879,79.590,358.398,0
1486363971.185,52.734,41.992,22.949,83.008,325.684,0
1486363971.189,49.805,38.086,20.508,76.172,272.949,0
1486363971.193,49.805,38.086,21.484,80.566,275.879,0
1486363971.197,49.316,40.527,18.555,90.820,318.848,0
1486363971.201,54.688,35.156,20.020,86.914,245.117,0
1486363971.205,47.363,34.180,21.484,80.566,183.594,0
1486363971.209,42.969,30.762,17.090,69.336,205.566,0
1486363971.213,42.969,23.926,18.066,62.012,211.914,0
1486363971.217,41.504,22.949,20.020,65.918,208.496,0
1486363971.220,36.621,20.996,18.555,68.848,189.453,0
1486363971.224,34.180,18.555,20.996,61.035,213.867,0
1486363971.228,32.227,16.602,21.973,56.152,273.926,0
1486363971.232,26.855,15.137,21.973,63.477,273.926,0
1486363971.236,40.039,20.996,20.020,62.988,287.598,0
1486363971.240,46.875,19.043,16.602,59.082,389.160,0
1486363971.244,34.668,12.695,21.973,69.336,456.055,0
1486363971.248,27.832,15.625,26.367,69.824,463.867,0
1486363971.252,31.738,11.230,23.438,70.312,460.449,0
1486363971.256,40.527,5.371,21.973,63.477,465.332,0
1486363971.260,44.434,7.324,22.949,52.734,500.488,0
1486363971.263,36.621,9.277,22.461,48.828,553.223,0
1486363971.267,24.902,14.160,23.438,60.059,572.754,0
1486363971.271,29.297,13.184,24.414,66.895,523.438,0
1486363971.275,45.410,11.230,25.391,64.941,516.602,0
1486363971.279,48.340,14.648,27.344,47.363,508.789,5
1486363971.283,38.574,11.719,23.926,43.457,487.305,0
1486363971.287,37.598,8.789,20.996,67.871,470.215,0
1486363971.291,39.551,10.742,23.926,67.383,437.012,0
1486363971.295,45.898,14.160,28.809,58.105,393.555,0
1486363971.299,63.477,15.137,34.180,69.336,370.605,0
1486363971.303,72.754,13.184,38.086,77.637,384.277,0
1486363971.306,75.684,15.625,34.180,75.195,374.023,0
1486363971.310,58.594,17.090,34.668,62.988,367.676,0
1486363971.314,37.109,15.625,37.598,52.734,389.648,0
1486363971.318,35.645,14.160,38.086,58.105,392.578,0
1486363971.322,33.203,17.090,36.133,53.711,393.555,0
1486363971.326,41.016,22.461,42.969,53.711,439.941,0
1486363971.330,52.246,24.414,47.852,67.383,466.309,0
1486363971.334,51.270,20.996,43.457,70.801,463.379,0
1486363971.338,46.387,13.672,42.969,69.336,455.566,0
1486363971.342,48.340,16.113,43.457,70.312,476.074,0
1486363971.345,48.828,21.484,41.016,72.266,502.441,0
1486363971.349,40.527,19.531,40.527,72.754,484.863,0
1486363971.353,48.340,18.555,40.527,67.383,436.523,0
1486363971.357,49.805,20.020,38.574,62.988,442.871,0
1486363971.361,35.645,18.066,37.109,50.293,505.859,0
1486363971.365,28.809,16.602,33.691,50.781,504.883,0
1486363971.369,22.949,16.113,29.785,60.059,475.098,0
1486363971.373,20.508,18.066,36.133,57.129,484.375,0
1486363971.377,21.484,22.949,37.109,60.547,517.578,0
1486363971.381,23.926,22.461,37.109,54.199,541.992,0
1486363971.385,24.414,23.438,38.086,49.805,528.809,0
1486363971.388,35.156,26.367,36.621,54.199,526.367,0
1486363971.392,50.293,26.367,35.645,56.641,557.129,0
1486363971.396,39.551,22.461,33.203,62.500,586.914,0
1486363971.400,34.180,20.508,33.691,65.918,592.285,0
1486363971.404,52.734,23.438,33.691,56.152,637.695,0
1486363971.408,60.059,28.320,31.738,59.570,680.176,0
1486363971.412,71.777,31.250,31.738,73.242,677.246,0
1486363971.416,77.637,33.203,33.691,76.660,716.309,0
1486363971.420,65.430,34.668,32.227,72.266,738.281,0
1486363971.424,75.195,33.203,30.273,78.613,723.145,0
1486363971.428,88.379,28.320,27.832,86.426,734.375,0
1486363971.431,74.219,27.344,29.297,89.355,730.469,0
1486363971.435,63.477,30.762,31.250,85.449,695.801,0
1486363971.439,69.336,34.668,31.250,72.266,688.477,0
1486363971.443,69.336,36.621,32.227,72.754,705.078,0
1486363971.447,66.895,33.203,32.227,71.289,710.449,0
1486363971.451,79.102,32.227,31.250,66.895,741.699,0
1486363971.455,71.289,26.855,32.227,71.777,759.277,0
1486363971.459,61.035,23.438,36.133,78.125,783.691,0
1486363971.463,83.984,24.414,39.551,72.266,813.477,0
1486363971.467,83.496,27.344,39.551,69.336,797.852,0
1486363971.470,55.664,30.273,41.016,81.543,746.582,0
1486363971.474,53.223,32.227,44.922,80.078,742.676,0
1486363971.478,66.406,35.645,46.387,73.730,737.305,0
1486363971.482,66.406,37.109,46.875,81.055,729.492,0
1486363971.486,59.082,39.062,46.875,81.543,707.031,0
1486363971.490,69.824,35.645,45.898,69.336,691.895,0
1486363971.494,67.871,40.039,45.898,64.453,729.004,0
1486363971.498,50.293,41.992,47.363,55.176,706.055,0
1486363971.502,43.457,38.574,47.852,52.246,670.898,0
1486363971.506,47.363,35.645,43.457,58.594,666.504,0
1486363971.510,37.109,30.273,37.109,49.805,663.086,0
1486363971.513,39.551,27.344,32.715,43.945,677.734,0
1486363971.517,43.457,29.785,35.645,51.270,657.227,0
1486363971.521,38.574,35.645,36.133,51.758,639.160,0
1486363971.525,38.086,32.715,35.156,48.828,682.129,0
1486363971.529,42.969,26.855,37.109,50.293,691.895,0
1486363971.533,43.945,26.855,37.109,48.828,652.344,0
1486363971.537,49.316,29.297,38.574,48.828,622.559,0
1486363971.541,49.316,26.855,39.551,47.852,660.156,0
1486363971.545,47.363,25.879,36.133,47.363,687.500,0
1486363971.549,51.270,27.344,35.645,52.246,672.363,0
1486363971.553,37.598,26.855,35.645,51.758,656.250,0
1486363971.556,32.715,27.344,32.715,59.082,649.902,0
1486363971.560,35.156,27.344,33.691,57.617,622.559,0
1486363971.564,36.621,31.738,35.156,46.387,576.172,0
1486363971.568,48.340,37.109,32.227,33.691,584.961,0
1486363971.572,56.641,36.621,30.273,23.438,613.770,0
1486363971.576,71.777,33.203,27.344,20.508,601.074,0
1486363971.580,78.613,32.227,24.902,20.020,584.473,0
1486363971.584,86.914,35.156,19.531,16.602,628.418,0
1486363971.588,98.145,33.203,19.043,18.555,667.969,0
1486363971.592,92.773,35.645,28.320,19.531,655.273,0
1486363971.595,89.355,41.016,32.715,23.438,650.391,0
1486363971.599,103.516,40.039,34.180,36.133,687.012,0
1486363971.603,116.699,37.109,35.156,26.855,696.777,0
1486363971.607,116.211,32.715,29.297,18.555,673.340,0
1486363971.611,121.582,32.715,26.367,28.320,704.102,0
1486363971.615,130.859,37.109,25.879,30.273,745.117,0
1486363971.619,126.465,32.715,22.461,23.438,715.820,0
1486363971.623,122.070,29.297,23.926,17.578,689.453,0
1486363971.627,124.023,34.668,22.949,22.461,681.641,0
1486363971.631,122.070,34.668,20.020,33.691,694.824,0
1486363971.635,132.812,36.133,20.020,37.598,681.152,0
1486363971.638,147.461,41.504,20.020,38.574,659.180,0
1486363971.642,144.043,39.551,16.602,37.598,659.180,0
1486363971.646,139.160,38.086,16.602,33.691,624.512,0
1486363971.650,130.371,32.715,18.555,37.109,574.707,0
1486363971.654,122.070,24.902,18.066,44.922,532.227,0
1486363971.658,126.953,22.461,17.578,33.203,511.230,0
1486363971.662,128.906,26.367,15.625,39.062,501.465,0
1486363971.666,130.859,30.762,16.113,56.152,464.355,0
1486363971.670,122.070,28.320,20.508,53.711,433.105,0
1486363971.674,107.422,22.461,20.508,49.316,420.410,0
1486363971.678,126.953,20.996,22.461,40.039,447.754,0
1486363971.681,141.113,23.926,23.438,49.805,414.062,0
1486363971.685,138.184,24.414,27.832,72.754,358.887,0
1486363971.689,138.672,20.508,33.203,72.266,357.910,0
1486363971.693,136.230,18.066,34.180,68.848,356.445,0
1486363971.697,138.672,17.090,39.551,71.777,295.410,0
1486363971.701,130.859,14.160,40.527,69.336,224.121,0
1486363971.705,132.324,14.160,39.062,73.730,223.633,0
1486363971.709,139.648,14.648,41.504,79.590,208.008,0
1486363971.713,136.719,18.066,46.387,81.055,212.891,0
1486363971.717,143.066,22.949,50.293,89.844,220.215,0
1486363971.720,146.973,23.926,50.293,97.656,195.312,0
1486363971.724,146.484,27.832,52.734,104.004,184.570,0
1486363971.728,141.113,29.785,51.270,109.375,176.270,0
1486363971.732,134.277,24.902,49.316,98.145,159.180,0
1486363971.736,119.629,19.531,49.316,88.867,181.152,0
1486363971.740,114.746,17.578,47.852,87.891,171.875,0
1486363971.744,121.094,18.555,49.316,83.008,162.109,0
1486363971.748,119.629,20.996,48.828,86.426,194.336,0
1486363971.752,122.559,23.438,49.316,87.891,212.891,0
1486363971.756,112.305,20.996,50.293,83.496,195.801,0
1486363971.760,104.004,18.555,48.828,84.473,192.383,0
1486363971.763,103.516,24.414,47.363,87.891,227.051,0
1486363971.767,97.168,28.320,43.457,85.449,255.371,0
1486363971.771,92.285,28.809,41.992,82.520,221.191,0
1486363971.775,86.426,29.297,41.504,83.008,218.262,0
1486363971.779,93.750,33.203,39.551,75.684,245.605,0
1486363971.783,98.145,31.738,41.504,64.941,240.234,0
1486363971.787,94.238,22.461,43.457,77.148,229.004,0
1486363971.791,93.262,23.438,42.480,91.309,256.348,0
1486363971.795,91.797,25.879,39.551,70.801,297.852,0
1486363971.799,88.379,26.367,38.086,60.547,300.293,0
1486363971.803,77.637,29.297,37.598,63.965,283.691,0
1486363971.806,67.871,24.414,34.180,61.523,289.062,0
1486363971.810,74.707,17.090,27.832,57.617,320.312,0
1486363971.814,78.125,21.484,27.344,41.992,355.957,0
1486363971.818,72.266,24.902,27.832,45.898,312.988,0
1486363971.822,66.406,19.043,26.855,51.270,318.848,0
1486363971.826,65.918,18.555,30.762,43.457,353.516,0
1486363971.830,59.082,17.578,35.645,41.992,350.586,0
1486363971.834,52.734,22.461,36.621,42.969,341.797,0
1486363971.838,58.105,29.297,36.133,42.480,338.379,0
1486363971.842,59.082,26.855,37.109,41.992,362.305,0
1486363971.845,49.805,23.438,38.574,33.203,358.887,0
1486363971.849,49.805,20.996,37.598,26.367,362.305,0
1486363971.853,63.477,18.555,37.598,41.016,344.238,0
1486363971.857,61.035,17.578,39.062,41.016,350.586,0
1486363971.861,62.988,19.043,39.062,39.062,372.559,0
1486363971.865,60.059,24.902,37.598,34.668,344.238,0
1486363971.869,49.316,26.855,36.133,30.762,350.586,0
1486363971.873,45.410,21.973,36.621,30.273,388.184,0
1486363971.877,42.480,20.996,37.598,29.297,394.043,0
1486363971.881,45.898,23.438,34.180,26.855,376.465,0
1486363971.885,50.781,23.926,30.273,21.484,381.836,0
1486363971.888,58.105,21.484,35.156,18.066,383.789,0
1486363971.892,67.871,20.508,36.621,11.719,400.391,0
1486363971.896,77.637,22.461,36.621,13.672,452.148,0
1486363971.900,66.895,21.973,39.551,24.902,441.895,0
1486363971.904,46.875,18.066,40.039,27.832,399.414,0
1486363971.908,48.340,17.090,41.016,27.832,405.273,0
1486363971.912,48.828,16.602,41.016,35.156,415.527,0
1486363971.916,54.199,19.043,39.062,39.551,428.711,0
1486363971.920,78.125,22.461,39.551,42.969,429.199,0
1486363971.924,84.961,24.414,39.551,39.062,402.344,0
1486363971.928,73.730,24.414,39.062,41.016,404.785,0
1486363971.931,62.988,23.438,41.992,44.922,433.105,0
1486363971.935,62.012,23.438,41.504,42.480,395.020,0
1486363971.939,48.828,22.461,37.598,39.062,395.508,0
1486363971.943,45.898,20.508,36.133,42.969,412.109,0
1486363971.947,51.270,17.578,37.598,39.551,422.852,0
1486363971.951,53.711,21.973,34.668,33.691,408.691,0
1486363971.955,54.199,29.297,36.133,42.480,392.578,0
1486363971.959,59.570,32.227,39.551,44.922,406.738,0
1486363971.963,64.941,31.738,35.156,44.434,413.574,0
1486363971.967,60.547,30.762,34.180,49.805,401.367,0
1486363971.970,66.895,30.762,37.109,47.852,351.074,0
1486363971.974,62.988,33.691,37.598,45.410,366.211,0
1486363971.978,58.594,31.250,34.180,44.922,397.461,0
1486363971.982,53.711,26.855,33.203,42.480,381.348,0
1486363971.986,54.199,28.809,36.133,45.410,360.840,0
1486363971.990,66.895,33.203,38.574,57.129,367.676,0
1486363971.994,69.824,30.762,38.574,71.777,350.586,0
1486363971.998,68.848,30.762,35.645,75.684,303.711,0
1486363972.002,70.312,33.691,32.715,71.289,318.848,0
1486363972.006,64.941,31.250,33.203,76.660,368.652,0
1486363972.010,66.895,29.785,32.227,77.148,368.164,0
1486363972.013,65.918,30.762,28.809,70.801,357.910,0
1486363972.017,61.035,34.668,26.855,78.125,342.773,0
1486363972.021,50.293,38.086,26.855,81.055,305.176,0
1486363972.025,47.363,41.992,27.832,73.242,295.410,0
1486363972.029,55.664,40.039,27.832,75.195,285.156,0
1486363972.033,53.711,37.598,26.367,66.406,265.137,0
1486363972.037,57.129,37.598,25.879,61.035,258.789,0
1486363972.041,58.594,33.691,23.926,71.289,226.074,0
1486363972.045,48.828,34.668,22.949,75.684,187.500,0
1486363972.049,48.828,38.574,22.461,65.430,182.617,0
1486363972.053,59.082,41.992,18.555,61.035,186.523,0
1486363972.056,67.871,43.457,19.531,71.289,154.297,0
1486363972.060,71.777,40.039,22.461,71.289,148.438,0
1486363972.064,66.406,37.109,21.484,69.824,155.273,0
1486363972.068,70.312,37.598,17.090,77.637,111.328,0
1486363972.072,76.172,42.480,17.578,82.031,60.059,0
1486363972.076,72.754,43.457,18.555,79.590,54.688,0
1486363972.080,62.988,35.645,18.066,54.199,104.980,0
1486363972.084,43.457,32.715,20.020,39.551,84.473,0
1486363972.088,36.133,36.133,19.531,33.691,31.250,0
1486363972.092,40.039,28.809,15.625,18.066,8.301,0
1486363972.095,25.879,20.996,10.254,9.277,28.320,0
1486363972.099,8.789,22.461,4.395,-20.996,33.203,0
1486363972.103,-5.371,23.438,1.465,-18.555,-7.812,0
1486363972.107,-23.438,20.996,1.465,-10.254,2.930,0
1486363972.111,-17.090,20.020,0.977,-20.996,37.109,0
1486363972.115,-3.418,20.996,-0.488,-10.254,31.250,0
1486363972.119,-20.508,20.996,2.441,-11.230,-41.992,0
1486363972.123,-22.461,18.066,5.859,-14.160,-60.547,0
1486363972.127,-10.254,11.719,4.395,-20.996,14.648,0
1486363972.131,-12.695,11.230,0.000,-12.207,-22.461,0
1486363972.135,-7.812,18.066,-0.488,1.465,-65.918,0
1486363972.138,-4.395,20.508,4.395,2.930,-42.480,0
1486363972.142,-4.883,18.066,10.254,4.395,-21.484,0
1486363972.146,1.465,17.090,13.184,9.766,-10.742,0
1486363972.150,14.648,12.695,16.602,20.996,-11.230,0
1486363972.154,21.484,15.137,19.531,32.715,-14.160,0
1486363972.158,24.902,19.531,19.043,47.852,-11.230,0
1486363972.162,22.949,14.648,18.555,52.734,-9.766,0
1486363972.166,19.531,16.602,20.020,39.062,-30.762,0
1486363972.170,22.461,16.602,19.043,40.039,-1.465,0
1486363972.174,31.250,16.602,20.508,48.828,25.391,0
1486363972.178,30.273,18.555,21.973,50.781,20.508,0
1486363972.181,31.250,25.391,21.484,50.781,1.465,0
1486363972.185,38.086,31.250,26.367,43.457,-0.488,0
1486363972.189,24.902,27.344,28.809,36.621,24.902,0
1486363972.193,25.391,25.879,25.879,32.715,41.504,0
1486363972.197,49.316,27.832,29.297,32.227,49.316,0
1486363972.201,54.199,23.926,33.203,39.551,59.570,0
1486363972.205,53.711,20.508,35.645,50.781,66.895,0
1486363972.209,56.152,24.902,38.086,39.062,76.172,0
1486363972.213,50.293,28.320,39.062,32.227,100.098,0
1486363972.217,49.316,30.762,41.016,43.945,116.211,0
1486363972.220,55.176,31.250,40.527,45.898,124.512,0
1486363972.224,52.246,28.320,41.016,41.992,131.348,0
1486363972.228,51.270,25.391,38.086,41.016,158.203,0
1486363972.232,49.316,19.531,34.668,37.598,164.551,0
1486363972.236,50.293,15.625,37.598,34.180,132.324,0
1486363972.240,60.059,16.113,41.016,34.668,146.973,0
1486363972.244,65.430,13.672,39.062,38.574,201.172,0
1486363972.248,67.383,12.207,44.434,42.969,208.008,0
1486363972.252,62.012,12.207,49.316,43.457,165.527,0
1486363972.256,56.641,14.160,45.898,41.016,116.699,0
1486363972.260,58.105,15.625,43.457,42.969,172.852,0
1486363972.263,43.457,14.648,44.434,48.828,224.609,0
1486363972.267,53.711,21.484,45.898,46.875,208.984,0
1486363972.271,63.965,24.902,47.363,46.387,246.094,0
1486363972.275,61.035,22.461,46.875,52.734,238.770,0
1486363972.279,49.805,18.555,40.039,42.969,242.188,0
1486363972.283,28.809,16.602,39.062,38.086,241.699,0
1486363972.287,38.574,22.461,39.062,40.039,227.051,0
1486363972.291,47.852,22.461,38.574,42.969,258.789,0
1486363972.295,32.715,19.043,37.109,47.363,243.652,0
1486363972.299,28.809,27.344,34.668,41.016,225.586,0
1486363972.303,33.691,30.762,31.738,35.156,226.562,0
1486363972.306,40.039,22.949,30.762,32.227,249.023,0
1486363972.310,35.156,19.531,31.738,35.645,277.832,0
1486363972.314,23.926,18.066,31.250,33.691,237.305,0
1486363972.318,30.273,13.672,27.832,38.086,231.934,0
1486363972.322,32.715,15.137,28.809,45.898,251.465,0
1486363972.326,34.668,18.555,31.738,43.945,212.402,0
1486363972.330,45.410,21.973,31.738,41.992,222.656,0
1486363972.334,36.621,25.391,30.273,40.039,262.695,0
1486363972.338,32.227,23.926,22.949,32.227,246.582,0
1486363972.342,45.898,25.391,22.949,27.832,213.867,0
1486363972.345,46.875,30.273,25.391,35.645,206.543,0
1486363972.349,52.246,34.180,22.949,36.621,204.102,0
1486363972.353,56.641,36.133,24.902,40.527,175.781,0
1486363972.357,48.828,34.180,23.438,45.898,177.246,0
1486363972.361,55.176,26.855,20.020,58.105,214.355,0
1486363972.365,52.246,24.902,21.973,59.570,196.777,0
1486363972.369,41.504,26.367,20.996,48.828,160.645,0
1486363972.373,39.062,25.391,19.531,43.945,153.320,0
1486363972.377,49.805,26.855,16.113,29.785,145.996,0
1486363972.381,47.852,29.297,12.207,17.090,142.090,0
1486363972.385,36.621,34.180,16.602,14.648,135.254,0
1486363972.388,37.109,37.109,20.508,12.207,101.074,0
1486363972.392,50.293,39.062,20.020,17.090,80.566,0
1486363972.396,47.363,39.551,21.484,21.973,111.816,0
1486363972.400,45.410,39.551,29.297,19.043,109.375,0
1486363972.404,47.852,41.016,38.086,25.879,62.988,0
1486363972.408,52.734,41.016,38.574,35.156,67.871,0
1486363972.412,56.641,40.039,38.086,35.645,85.449,0
1486363972.416,49.316,37.109,36.133,32.227,66.406,0
1486363972.420,38.574,35.645,31.250,33.691,21.973,0
1486363972.424,46.875,33.203,28.809,36.621,28.809,0
1486363972.428,55.176,29.785,24.414,31.250,53.223,0
1486363972.431,41.504,27.832,21.973,31.250,39.062,0
1486363972.435,44.922,32.227,25.879,33.691,18.066,0
1486363972.439,52.246,33.691,26.367,36.133,15.625,0
1486363972.443,49.316,30.273,27.344,37.109,60.547,0
1486363972.447,52.734,28.809,30.273,43.457,59.570,0
1486363972.451,58.105,30.273,28.320,42.969,18.066,0
1486363972.455,60.059,35.645,27.344,39.062,-1.953,0
1486363972.459,51.758,36.621,28.320,47.852,12.207,0
1486363972.463,50.293,32.715,27.344,41.504,18.555,0
1486363972.467,48.828,33.203,27.832,36.621,-23.438,0
1486363972.470,48.828,34.180,26.367,40.527,-26.855,0
1486363972.474,61.523,29.785,27.832,43.457,-15.625,0
1486363972.478,69.336,30.762,29.297,59.082,-57.129,0
1486363972.482,54.688,34.668,24.902,65.430,-61.523,0
1486363972.486,38.086,29.785,20.508,56.152,-18.555,0
1486363972.490,43.945,27.832,23.926,59.570,-32.227,0
1486363972.494,39.551,29.297,27.344,71.777,-45.410,0
1486363972.498,46.875,30.762,24.414,67.871,-33.203,0
1486363972.502,60.059,27.832,22.461,68.848,-26.367,0
1486363972.506,55.176,27.344,23.926,71.777,-18.555,0
1486363972.510,38.086,30.762,25.879,65.430,2.930,0
1486363972.513,24.902,25.879,27.344,61.523,17.578,0
1486363972.517,37.109,20.996,29.297,64.453,24.414,0
1486363972.521,37.109,20.020,30.762,67.383,4.883,0
1486363972.525,33.203,17.578,29.297,63.477,-6.348,0
1486363972.529,37.598,20.996,28.320,56.152,43.457,0
1486363972.533,35.645,23.926,28.320,50.781,56.152,0
1486363972.537,32.227,23.926,27.344,50.781,57.129,0
1486363972.541,30.762,25.879,28.320,55.176,76.172,0
1486363972.545,28.809,24.902,28.320,50.293,118.164,0
1486363972.549,40.527,20.020,26.367,40.039,139.648,0
1486363972.553,42.480,19.531,21.973,48.828,133.789,0
1486363972.556,37.598,24.414,23.438,53.711,165.527,0
1486363972.560,34.180,23.926,28.809,60.547,207.031,0
1486363972.564,44.434,20.996,31.250,63.965,219.238,0
1486363972.568,54.688,23.438,32.227,49.316,230.957,0
1486363972.572,53.223,29.297,32.715,53.223,278.809,0
1486363972.576,50.293,35.645,34.668,51.270,273.438,0
1486363972.580,51.270,34.668,36.133,48.340,246.582,0
1486363972.584,48.828,31.250,36.133,47.852,228.516,0
1486363972.588,46.387,31.738,33.691,43.945,235.352,0
1486363972.592,46.875,33.203,31.250,48.828,263.672,0
1486363972.595,41.504,31.738,34.180,33.691,258.789,0
1486363972.599,49.805,31.738,31.738,36.133,244.141,0
1486363972.603,41.504,36.133,28.809,45.410,263.672,0
1486363972.607,27.344,34.668,30.273,31.250,302.246,0
1486363972.611,21.484,29.785,31.250,32.715,294.922,0
1486363972.615,23.926,29.297,31.738,29.785,300.293,0
1486363972.619,30.762,30.273,35.156,28.320,302.734,0
1486363972.623,16.113,24.902,35.156,30.762,290.527,0
1486363972.627,20.020,21.973,33.203,17.578,322.754,0
1486363972.631,32.227,18.066,30.273,12.207,323.242,0
1486363972.635,31.250,19.531,27.832,20.020,296.387,0
1486363972.638,20.508,24.902,30.273,27.344,321.777,0
1486363972.642,12.207,22.461,30.762,22.949,319.824,0
1486363972.646,30.762,21.973,26.367,11.719,286.133,0
1486363972.650,41.504,28.320,24.902,15.625,304.199,0
1486363972.654,23.926,29.785,27.832,30.273,329.102,0
1486363972.658,24.902,31.250,28.809,29.785,339.355,0
1486363972.662,35.156,33.691,30.273,35.645,353.516,0
1486363972.666,20.996,31.250,28.809,41.016,364.258,0
1486363972.670,25.391,28.320,27.344,37.598,373.535,0
1486363972.674,36.621,24.902,27.344,31.250,342.285,0
1486363972.678,40.527,29.297,28.809,32.227,330.078,0
1486363972.681,42.969,33.203,28.809,41.992,368.652,0
1486363972.685,23.926,30.273,28.809,45.898,329.590,0
1486363972.689,17.578,28.320,26.855,41.504,284.668,0
1486363972.693,9.277,27.344,24.414,35.156,307.129,0
1486363972.697,3.906,26.367,25.879,28.809,327.148,0
1486363972.701,10.254,25.391,25.391,25.879,315.430,0
1486363972.705,6.836,21.973,19.043,35.645,273.438,0
1486363972.709,-1.465,17.090,16.602,38.086,287.598,0
1486363972.713,-7.812,16.602,19.531,32.227,282.227,0
1486363972.717,-11.719,15.137,17.090,30.273,237.305,0
1486363972.720,-3.906,14.160,16.113,33.203,202.637,0
1486363972.724,1.953,17.578,17.090,31.250,195.312,0
1486363972.728,4.883,17.578,13.184,22.461,215.332,0
1486363972.732,14.160,18.555,8.789,17.578,196.289,0
1486363972.736,25.391,22.949,12.207,26.855,194.336,0
1486363972.740,36.621,20.996,17.578,22.461,193.848,0
1486363972.744,39.062,21.484,20.508,25.391,208.008,0
1486363972.748,33.203,21.973,21.973,41.016,244.141,0
1486363972.752,30.273,20.996,20.020,38.574,214.355,0
1486363972.756,35.156,24.902,23.926,36.621,224.609,0
1486363972.760,42.480,19.531,23.926,31.250,251.465,0
1486363972.763,41.992,12.207,21.484,23.926,219.238,0
1486363972.767,26.367,12.695,24.902,32.227,196.289,0
1486363972.771,28.320,13.184,22.949,43.945,223.145,0
1486363972.775,37.109,11.719,20.508,43.457,220.703,0
1486363972.779,29.297,10.742,22.461,27.344,249.512,0
1486363972.783,39.551,11.719,24.902,24.902,268.555,0
1486363972.787,30.273,10.742,24.414,32.715,234.375,0
1486363972.791,26.855,4.883,24.414,26.367,214.844,0
1486363972.795,28.320,4.883,26.855,32.227,231.934,0
1486363972.799,18.555,7.324,24.902,21.973,269.531,0
1486363972.803,18.066,7.812,23.926,19.043,301.758,0
1486363972.806,25.879,12.207,25.879,15.625,314.453,0
1486363972.810,34.668,11.230,21.973,8.789,304.688,0
1486363972.814,8.301,9.277,20.996,19.043,296.387,0
1486363972.818,-5.859,10.254,24.902,28.809,301.270,0
1486363972.822,11.719,10.742,21.484,18.555,296.387,0
1486363972.826,27.832,10.254,19.531,4.883,290.039,0
1486363972.830,47.363,12.695,22.461,14.648,287.109,0
1486363972.834,43.457,20.996,24.902,24.414,275.879,0
1486363972.838,40.039,22.461,25.879,30.762,239.746,0
1486363972.842,47.363,20.996,28.320,23.926,218.750,0
1486363972.845,46.875,21.484,29.785,18.555,226.074,0
1486363972.849,41.016,19.043,32.227,35.156,236.328,0
1486363972.853,46.875,20.508,37.598,40.527,207.031,0
1486363972.857,59.082,22.461,38.574,24.902,177.734,0
1486363972.861,61.035,24.414,38.086,21.973,194.824,0
1486363972.865,50.293,21.484,38.574,32.227,167.969,0
1486363972.869,48.828,18.066,40.039,35.156,135.742,0
1486363972.873,57.617,21.484,38.086,32.227,131.348,0
1486363972.877,47.852,26.855,38.086,26.855,114.258,0
1486363972.881,31.250,27.344,35.645,25.879,83.496,0
1486363972.885,37.598,27.832,30.273,25.391,49.805,0
1486363972.888,44.434,31.738,30.273,20.020,29.785,0
1486363972.892,41.016,32.227,29.785,22.461,22.461,0
1486363972.896,43.945,28.809,29.297,30.273,32.715,0
1486363972.900,43.457,29.297,30.273,34.180,9.277,0
1486363972.904,47.852,36.621,25.879,45.410,-4.395,0
1486363972.908,47.852,38.574,24.414,43.945,-0.977,0
1486363972.912,38.574,36.133,26.367,29.785,-12.207,0
1486363972.916,39.062,33.203,24.902,26.855,0.000,0
1486363972.920,39.551,28.320,28.320,30.762,0.977,0
1486363972.924,44.434,29.297,33.691,25.879,-29.297,0
1486363972.928,39.551,37.109,28.809,23.438,-34.668,0
1486363972.931,28.320,39.062,29.785,39.551,-34.180,0
1486363972.935,43.457,36.621,35.156,36.621,-7.812,0
1486363972.939,73.730,38.086,32.227,33.203,-9.277,0
1486363972.943,48.828,36.133,31.738,46.387,-57.617,0
1486363972.947,23.926,31.250,28.809,45.898,-54.688,0
1486363972.951,61.523,33.691,23.926,47.852,-16.113,0
1486363972.955,77.148,35.645,19.043,50.781,-33.203,0
1486363972.959,58.594,33.203,15.625,40.039,-55.664,0
1486363972.963,41.992,29.785,17.578,41.992,-10.254,0
1486363972.967,44.434,27.832,19.043,51.270,-0.488,0
1486363972.970,59.570,24.902,20.508,52.246,-34.180,0
1486363972.974,67.383,26.367,22.949,58.594,-49.316,0
1486363972.978,70.312,27.344,24.414,61.035,-38.086,0
1486363972.982,66.895,28.320,27.832,58.105,-9.766,0
1486363972.986,62.012,29.297,29.297,56.641,-27.832,0
1486363972.990,68.359,28.320,24.414,36.621,-57.617,0
1486363972.994,68.359,24.902,25.391,35.156,-60.059,0
1486363972.998,61.523,25.391,30.273,50.293,-47.852,0
1486363973.002,46.387,31.738,31.250,40.527,-83.984,0
1486363973.006,41.992,38.574,27.832,25.391,-149.902,0
1486363973.010,45.410,35.645,20.996,15.625,-146.484,0
1486363973.013,36.621,28.809,14.648,18.066,-161.133,0
1486363973.017,30.762,24.414,11.719,22.949,-209.961,0
1486363973.021,33.203,23.926,19.531,25.879,-270.020,0
1486363973.025,25.879,23.438,22.949,25.391,-285.156,0
1486363973.029,30.762,22.949,22.461,22.461,-292.480,0
1486363973.033,43.945,21.973,21.973,23.926,-371.582,0
1486363973.037,44.434,24.414,24.414,30.762,-426.270,0
1486363973.041,36.621,28.320,29.785,24.902,-447.266,0
1486363973.045,28.320,25.391,29.785,26.367,-474.121,0
1486363973.049,28.320,22.949,28.320,34.668,-528.320,0
1486363973.053,38.086,23.926,26.367,36.621,-561.523,0
1486363973.056,47.852,25.391,23.926,28.320,-559.082,0
1486363973.060,58.594,25.391,24.414,30.762,-592.285,0
1486363973.064,86.426,25.391,23.926,37.598,-613.770,0
1486363973.068,87.891,28.809,24.414,42.969,-599.609,0
1486363973.072,58.105,29.297,31.738,31.738,-631.348,0
1486363973.076,53.223,29.785,32.227,31.250,-662.598,0
1486363973.080,67.871,32.227,29.297,49.805,-674.805,0
1486363973.084,75.684,33.691,27.344,47.363,-663.086,0
1486363973.088,67.383,34.668,27.344,48.340,-630.859,0
1486363973.092,65.430,33.203,28.320,48.340,-662.109,0
1486363973.095,62.988,31.738,28.320,40.527,-676.270,0
1486363973.099,49.805,28.320,26.367,38.086,-643.555,0
1486363973.103,57.617,29.785,27.344,39.062,-627.930,0
1486363973.107,61.035,26.367,29.785,29.785,-612.305,0
1486363973.111,65.918,21.973,25.391,21.973,-594.238,0
1486363973.115,62.012,22.461,25.391,18.066,-574.707,0
1486363973.119,50.781,22.949,32.227,22.461,-572.754,0
1486363973.123,55.176,25.391,30.273,31.250,-555.176,0
1486363973.127,58.594,25.391,28.320,32.715,-540.527,0
1486363973.131,65.430,20.020,29.297,22.949,-511.719,0
1486363973.135,68.848,12.695,28.809,20.996,-464.355,0
1486363973.138,68.848,2.930,28.320,29.785,-468.262,0
1486363973.142,70.312,-5.371,27.832,27.344,-469.238,0
1486363973.146,51.758,-13.672,28.809,37.109,-434.082,0
1486363973.150,43.457,-16.602,29.785,40.039,-421.387,0
1486363973.154,46.387,-11.719,32.227,26.367,-420.410,0
1486363973.158,57.617,-12.695,32.227,27.344,-399.902,0
1486363973.162,60.547,-16.113,31.738,27.832,-359.375,0
1486363973.166,55.176,-11.719,31.738,27.832,-381.836,0
1486363973.170,49.316,-11.230,30.762,33.203,-424.805,0
1486363973.174,44.922,-15.625,24.414,18.555,-402.344,0
1486363973.178,48.828,-11.719,21.973,14.648,-374.512,0
1486363973.181,50.293,-8.789,23.438,26.367,-394.531,0
1486363973.185,60.547,-5.371,26.855,26.855,-406.738,0
1486363973.189,67.383,1.953,29.785,23.926,-413.086,0
1486363973.193,54.199,1.953,27.344,21.484,-401.367,0
1486363973.197,47.852,-0.977,23.926,19.531,-378.418,0
1486363973.201,44.434,-1.465,22.461,19.043,-408.203,0
1486363973.205,31.250,-7.812,20.020,25.391,-445.312,0
1486363973.209,39.551,-9.277,20.508,27.832,-413.086,0
1486363973.213,49.805,-7.812,23.926,20.508,-399.414,0
1486363973.217,52.246,-7.812,26.367,18.066,-408.691,0
1486363973.220,50.293,-9.766,27.832,33.691,-405.273,0
1486363973.224,26.367,-10.254,29.785,42.480,-393.555,0
1486363973.228,24.414,-6.836,29.785,44.434,-381.348,0
1486363973.232,32.715,-8.301,28.320,35.645,-376.465,0
1486363973.236,43.457,-6.348,29.785,46.387,-388.672,0
1486363973.240,45.898,0.488,32.227,48.340,-424.316,0
1486363973.244,41.504,1.465,29.297,42.480,-413.574,0
1486363973.248,42.480,-2.930,22.461,46.387,-374.512,0
1486363973.252,33.203,-5.859,20.020,39.062,-361.328,0
1486363973.256,25.391,-11.719,23.438,35.156,-386.719,0
1486363973.260,33.691,-14.160,24.902,40.527,-410.645,0
1486363973.263,45.410,-10.742,21.484,41.992,-401.855,0
1486363973.267,46.875,-9.766,21.973,41.016,-389.160,0
1486363973.271,49.316,-9.277,23.438,44.434,-369.629,0
1486363973.275,47.852,-6.836,25.879,50.293,-347.656,0
1486363973.279,48.828,-2.930,29.785,59.082,-324.707,0
1486363973.283,62.012,-2.441,26.367,56.152,-328.125,0
1486363973.287,57.129,-2.930,23.438,49.805,-359.375,0
1486363973.291,35.645,-0.488,25.391,65.918,-345.703,0
1486363973.295,40.527,-0.977,26.367,66.406,-298.340,0
1486363973.299,42.480,-2.441,22.949,44.922,-301.758,0
1486363973.303,45.410,-4.883,21.973,45.898,-310.547,0
1486363973.306,49.805,-0.977,24.902,57.617,-311.523,0
1486363973.310,42.969,4.883,24.902,50.293,-319.824,0
1486363973.314,41.016,2.930,23.926,44.922,-312.012,0
1486363973.318,38.086,2.930,23.438,36.621,-296.387,0
1486363973.322,25.879,3.418,23.926,22.949,-298.828,0
1486363973.326,29.297,4.883,23.926,41.016,-303.223,0
1486363973.330,40.527,7.324,26.367,53.711,-289.551,0
1486363973.334,44.434,6.348,29.297,49.316,-310.547,0
1486363973.338,37.598,4.395,24.902,40.039,-304.688,0
1486363973.342,41.992,3.906,25.879,37.598,-231.934,0
1486363973.345,42.480,1.465,27.344,45.898,-247.070,0
1486363973.349,36.621,1.465,26.367,41.992,-261.719,0
1486363973.353,49.805,2.930,28.809,41.504,-253.418,0
1486363973.357,49.805,6.836,31.250,44.434,-263.672,0
1486363973.361,44.434,7.324,30.273,53.711,-272.461,0
1486363973.365,46.387,7.324,26.367,51.270,-272.949,0
1486363973.369,39.062,6.836,23.438,35.645,-218.262,0
1486363973.373,39.551,4.395,25.391,34.668,-222.168,0
1486363973.377,47.363,8.789,25.391,39.551,-236.328,0
1486363973.381,36.133,10.742,25.391,38.086,-251.465,0
1486363973.385,22.949,6.348,23.926,34.668,-268.555,0
1486363973.388,24.902,4.395,24.902,45.410,-260.254,0
1486363973.392,7.812,3.418,28.320,52.246,-257.812,0
1486363973.396,12.207,3.906,27.832,46.875,-269.531,0
1486363973.400,34.668,-0.488,28.320,54.199,-268.066,0
1486363973.404,26.855,-1.953,27.832,46.387,-266.602,0
1486363973.408,13.672,4.883,27.832,35.645,-292.480,0
1486363973.412,22.461,10.254,26.855,38.574,-284.180,0
1486363973.416,44.922,14.160,25.879,36.621,-231.445,0
1486363973.420,39.551,13.184,24.414,33.203,-249.023,0
1486363973.424,16.113,12.695,22.461,38.086,-271.484,0
1486363973.428,29.297,16.113,23.438,42.969,-262.207,0
1486363973.431,45.898,17.090,25.391,39.062,-246.582,0
1486363973.435,42.969,14.160,24.414,40.039,-242.676,0
1486363973.439,50.293,19.043,20.996,55.664,-261.230,0
1486363973.443,51.270,22.461,21.484,59.570,-251.465,0
1486363973.447,35.645,21.973,24.902,59.082,-245.117,0
1486363973.451,21.973,21.484,22.949,60.547,-279.785,0
1486363973.455,20.020,20.020,21.973,57.617,-321.289,0
1486363973.459,18.066,21.484,27.344,62.012,-306.152,0
1486363973.463,14.160,21.484,33.203,51.758,-299.805,0
1486363973.467,12.695,20.508,40.039,38.574,-352.539,0
1486363973.470,18.066,22.461,38.574,47.852,-374.512,0
1486363973.474,36.133,20.020,35.156,42.480,-398.438,0
1486363973.478,37.598,15.625,33.691,28.320,-423.828,0
1486363973.482,25.391,13.184,31.250,30.273,-444.824,0
1486363973.486,24.414,14.648,26.855,28.809,-484.375,0
1486363973.490,21.484,15.625,26.855,18.066,-488.281,0
1486363973.494,16.602,16.113,32.715,22.949,-494.141,0
1486363973.498,19.043,13.672,35.645,10.254,-545.898,0
1486363973.502,11.230,9.766,34.180,-3.906,-592.285,0
1486363973.506,9.277,11.230,34.668,12.695,-581.055,0
1486363973.510,18.555,12.207,38.086,18.066,-563.477,0
1486363973.513,23.438,9.277,35.645,9.277,-592.773,0
1486363973.517,13.672,9.277,31.250,-0.977,-609.375,0
1486363973.521,7.812,13.672,30.762,-8.789,-585.938,0
1486363973.525,11.230,15.137,31.250,-5.859,-594.238,0
1486363973.529,7.324,17.578,32.227,-1.953,-639.160,0
1486363973.533,0.488,19.531,35.156,-2.441,-637.207,0
1486363973.537,5.859,18.555,37.598,2.930,-631.348,0
1486363973.541,-0.488,15.137,32.227,-6.348,-663.086,0
1486363973.545,-0.488,13.184,27.832,-7.324,-684.082,0
1486363973.549,1.953,13.672,26.855,5.371,-660.156,0
1486363973.553,1.953,16.113,26.367,0.488,-646.484,0
1486363973.556,7.324,17.578,28.809,-1.465,-694.336,0
1486363973.560,4.395,19.531,28.809,3.418,-707.520,0
1486363973.564,4.883,21.484,25.879,4.883,-688.965,0
1486363973.568,19.043,26.367,25.391,13.672,-671.387,0
1486363973.572,34.668,27.832,26.855,19.531,-671.387,0
1486363973.576,27.832,23.926,24.414,20.996,-664.062,0
1486363973.580,12.695,29.297,24.414,23.438,-642.578,0
1486363973.584,8.789,31.738,25.391,19.531,-636.230,0
1486363973.588,5.371,24.414,25.879,23.926,-630.859,0
1486363973.592,15.137,22.461,31.738,31.250,-614.746,0
1486363973.595,19.531,23.926,32.715,32.715,-586.914,0
1486363973.599,18.066,21.973,33.691,34.180,-556.152,0
1486363973.603,22.949,21.484,35.645,25.879,-561.035,0
1486363973.607,18.555,24.414,32.227,28.320,-531.250,0
1486363973.611,24.414,24.902,34.668,40.527,-453.613,0
1486363973.615,29.297,23.438,35.645,38.086,-447.266,0
1486363973.619,18.555,24.902,35.645,32.715,-437.012,0
1486363973.623,19.531,26.367,33.691,33.203,-389.160,0
1486363973.627,24.414,24.414,31.250,40.039,-363.770,0
1486363973.631,32.227,25.391,30.762,37.109,-338.379,0
1486363973.635,40.527,25.879,27.344,34.180,-313.965,0
1486363973.638,45.898,23.926,25.391,39.551,-288.574,0
1486363973.642,44.434,22.949,24.414,46.875,-268.555,0
1486363973.646,38.574,28.809,22.949,59.082,-260.742,0
1486363973.650,46.875,32.715,28.809,73.242,-238.281,0
1486363973.654,55.664,26.855,31.250,81.055,-194.824,0
1486363973.658,70.312,25.391,30.762,85.449,-166.016,0
1486363973.662,67.383,27.832,30.273,81.055,-161.621,0
1486363973.666,62.500,32.715,26.855,81.543,-136.230,0
1486363973.670,89.844,40.527,28.809,99.609,-117.188,0
1486363973.674,96.191,41.504,33.203,108.887,-123.047,0
1486363973.678,102.539,38.086,34.180,111.328,-123.535,0
1486363973.681,102.539,40.527,37.109,115.234,-100.586,0
1486363973.685,95.215,43.457,41.992,121.094,-86.914,0
1486363973.689,98.145,39.062,44.922,122.070,-91.797,0
1486363973.693,94.238,33.691,47.852,128.418,-90.332,0
1486363973.697,102.539,33.691,46.387,138.672,-65.430,0
1486363973.701,111.816,35.156,41.992,142.090,-33.203,0
1486363973.705,107.422,37.598,42.480,135.254,-52.734,0
1486363973.709,96.191,40.527,41.016,123.047,-66.406,0
1486363973.713,98.145,42.969,36.621,126.953,-51.270,0
1486363973.717,98.145,42.969,34.180,117.676,-31.738,0
1486363973.720,97.168,41.992,35.156,115.234,-42.969,0
1486363973.724,98.145,41.992,31.738,114.258,-49.805,0
1486363973.728,101.562,42.969,31.250,112.793,0.000,0
1486363973.732,110.840,43.945,35.645,98.633,-2.441,0
1486363973.736,109.863,44.434,36.621,95.215,-43.945,0
1486363973.740,97.168,41.992,36.133,108.887,-20.020,0
1486363973.744,100.098,36.621,35.156,101.074,20.996,0
1486363973.748,119.629,36.621,36.621,99.609,69.336,0
1486363973.752,117.676,40.039,34.180,99.121,73.242,0
1486363973.756,110.840,36.133,25.391,91.309,81.543,0
1486363973.760,99.121,29.297,26.855,91.797,171.875,0
1486363973.763,68.359,25.391,28.320,87.402,199.707,0
1486363973.767,61.523,26.855,25.879,91.797,202.148,0
1486363973.771,71.289,30.273,25.879,91.797,218.750,0
1486363973.775,87.402,33.691,29.297,81.055,207.031,0
1486363973.779,81.055,32.715,32.227,83.984,256.836,0
1486363973.783,76.172,33.691,32.715,89.355,243.164,0
1486363973.787,94.238,35.156,34.180,78.613,179.688,0
1486363973.791,102.051,36.621,34.668,75.684,196.777,0
1486363973.795,108.398,32.715,31.250,77.637,175.781,0
1486363973.799,93.262,29.785,31.250,75.195,165.039,0
1486363973.803,86.914,32.715,37.109,71.777,162.109,0
1486363973.806,98.145,26.855,36.621,78.125,133.789,0
1486363973.810,77.637,21.973,36.621,81.055,104.492,0
1486363973.814,67.871,21.484,37.598,74.707,66.406,0
1486363973.818,77.637,26.367,37.598,75.195,57.129,0
1486363973.822,69.336,29.785,39.551,74.219,34.180,0
1486363973.826,69.336,22.949,39.551,77.637,-0.977,0
1486363973.830,82.520,23.926,35.156,75.684,-33.203,0
1486363973.834,86.426,29.297,30.762,62.500,-37.598,0
1486363973.838,87.402,29.785,29.297,55.176,-28.809,0
1486363973.842,80.566,28.809,24.414,51.758,-78.613,0
1486363973.845,79.590,28.809,19.043,59.082,-84.961,0
1486363973.849,79.102,26.855,20.020,56.152,-58.105,0
1486363973.853,78.125,30.273,24.902,50.781,-30.762,0
1486363973.857,71.777,33.203,28.809,46.875,-21.973,0
1486363973.861,72.266,29.297,29.297,40.527,-14.160,0
1486363973.865,69.336,26.855,30.762,43.457,39.551,0
1486363973.869,59.082,24.902,33.691,50.293,57.617,0
1486363973.873,56.641,16.113,32.715,49.805,83.984,0
1486363973.877,61.035,11.719,31.738,47.852,141.113,0
1486363973.881,57.129,13.184,31.738,46.875,208.008,0
1486363973.885,57.129,20.020,35.156,46.387,219.238,0
1486363973.888,69.824,23.438,38.574,48.340,211.426,0
1486363973.892,64.453,24.414,37.598,48.340,243.164,0
1486363973.896,49.316,26.367,35.645,54.199,302.246,0
1486363973.900,43.945,24.414,34.668,60.547,330.078,0
1486363973.904,41.992,30.273,35.645,46.387,307.617,0
1486363973.908,46.387,36.621,37.109,55.176,309.570,0
1486363973.912,47.852,36.133,35.156,69.336,334.961,0
1486363973.916,50.781,30.273,29.785,57.617,318.848,0
1486363973.920,43.945,29.785,27.344,49.316,291.504,0
1486363973.924,41.016,35.645,27.832,42.969,309.082,0
1486363973.928,54.688,37.109,24.414,49.805,296.387,0
1486363973.931,41.504,37.598,22.949,58.594,263.672,0
1486363973.935,40.527,36.621,25.879,54.688,207.031,0
1486363973.939,52.734,40.527,27.344,51.270,186.523,0
1486363973.943,43.457,37.598,27.832,51.270,200.195,0
1486363973.947,36.133,26.855,27.344,61.523,172.363,0
1486363973.951,42.969,28.809,29.297,63.965,151.855,0
1486363973.955,36.621,27.832,32.227,55.664,141.602,0
1486363973.959,31.250,22.461,30.762,43.945,93.750,0
1486363973.963,41.992,28.809,35.156,48.828,86.914,0
1486363973.967,42.480,31.250,37.109,55.176,87.402,0
1486363973.970,46.387,29.785,33.691,50.781,71.289,0
1486363973.974,39.062,28.320,38.574,60.059,81.055,0
1486363973.978,24.414,25.879,42.480,57.617,99.121,0
1486363973.982,16.602,28.809,39.062,57.129,139.160,0
1486363973.986,20.508,29.785,34.668,51.270,171.387,0
1486363973.990,15.137,27.344,33.203,40.039,180.664,0
1486363973.994,8.789,24.902,34.668,44.434,162.598,0
1486363973.998,36.133,29.785,33.203,56.152,191.895,0
1486363974.002,29.297,33.691,27.832,58.105,264.648,0
1486363974.006,12.207,29.297,25.879,50.781,236.816,0
1486363974.010,21.973,26.855,24.902,42.480,193.848,0
1486363974.013,31.250,24.902,22.949,38.574,233.398,0
1486363974.017,17.090,21.973,20.508,41.992,285.645,0
1486363974.021,9.277,19.043,21.484,43.457,259.277,0
1486363974.025,10.254,21.484,25.391,47.363,218.262,0
1486363974.029,11.230,22.461,26.367,51.758,250.488,0
1486363974.033,18.066,18.066,26.855,46.387,273.438,0
1486363974.037,19.531,15.625,29.297,52.246,263.672,0
1486363974.041,24.902,18.066,29.785,58.105,249.512,0
1486363974.045,33.203,26.367,29.785,62.988,295.898,0
1486363974.049,28.809,29.785,31.250,57.129,307.617,0
1486363974.053,35.645,30.273,32.715,45.898,256.348,0
1486363974.056,39.551,30.762,35.156,57.617,247.559,0
1486363974.060,30.273,25.879,33.691,62.500,261.230,0
1486363974.064,30.762,18.066,27.344,56.152,283.691,0
1486363974.068,22.461,19.531,25.391,48.828,251.465,0
1486363974.072,21.973,21.973,30.273,46.875,229.004,0
1486363974.076,20.020,21.484,32.227,57.129,256.836,0
1486363974.080,19.043,20.020,32.227,50.781,272.949,0
1486363974.084,26.855,20.996,29.785,54.199,265.625,0
1486363974.088,23.926,22.949,28.809,55.176,265.137,0
1486363974.092,24.414,20.020,31.250,46.875,290.527,0
1486363974.095,21.484,17.578,28.809,39.551,306.152,0
1486363974.099,16.602,18.066,27.344,44.434,318.359,0
1486363974.103,12.207,20.996,28.320,42.969,344.238,0
1486363974.107,5.371,22.461,22.949,26.855,405.762,0
1486363974.111,-4.395,22.461,22.461,23.926,434.570,0
1486363974.115,6.348,22.949,23.926,30.762,426.270,0
1486363974.119,4.395,27.344,19.531,29.785,499.023,0
1486363974.123,0.977,28.809,17.578,37.109,585.449,0
1486363974.127,7.324,27.344,15.137,42.480,590.332,0
1486363974.131,-14.648,28.320,15.137,30.273,602.051,0
1486363974.135,-22.949,26.855,12.207,26.367,646.973,0
1486363974.138,-10.254,26.367,8.301,32.715,657.227,0
1486363974.142,-13.184,31.250,11.230,33.691,657.227,0
1486363974.146,-9.277,34.668,13.184,37.109,691.895,0
1486363974.150,6.348,39.551,12.695,38.086,661.621,0
1486363974.154,5.859,37.598,9.766,36.133,606.934,0
1486363974.158,6.348,31.738,9.766,31.250,568.848,0
1486363974.162,5.371,28.809,8.789,34.668,563.965,0
1486363974.166,12.207,23.438,9.766,41.504,591.797,0
1486363974.170,27.344,20.508,14.648,39.062,586.914,0
1486363974.174,28.809,20.020,18.555,48.340,528.320,0
1486363974.178,16.113,20.508,19.043,43.945,539.551,0
1486363974.181,4.883,20.020,20.996,40.527,573.242,0
1486363974.185,-5.371,19.531,26.855,43.945,537.109,0
1486363974.189,-2.441,18.066,27.832,31.738,496.094,0
1486363974.193,6.348,21.484,22.461,35.156,488.281,0
1486363974.197,15.625,27.344,20.020,44.434,512.695,0
1486363974.201,26.367,25.879,19.043,32.227,488.281,0
1486363974.205,27.344,27.344,19.531,40.527,446.289,0
1486363974.209,26.367,32.227,22.461,53.223,465.820,0
1486363974.213,29.785,33.691,26.855,49.316,483.398,0
1486363974.217,28.320,32.227,29.785,47.852,467.285,0
1486363974.220,27.832,30.762,28.809,50.781,450.684,0
1486363974.224,37.598,32.227,28.320,47.363,489.258,0
1486363974.228,24.414,30.273,27.344,39.551,489.258,0
1486363974.232,3.418,27.832,30.762,41.504,457.520,0
1486363974.236,11.230,23.926,34.668,41.504,469.238,0
1486363974.240,15.625,20.996,34.668,42.480,480.957,0
1486363974.244,19.531,16.113,40.039,49.805,468.262,0
1486363974.248,5.371,19.043,46.387,48.828,455.078,0
1486363974.252,13.184,24.902,44.922,44.922,458.496,0
1486363974.256,38.574,24.902,43.945,45.410,500.488,0
1486363974.260,34.668,31.738,43.457,42.480,527.344,0
1486363974.263,14.160,33.203,39.551,42.480,528.320,0
1486363974.267,-2.930,29.785,41.504,42.480,527.344,0
1486363974.271,4.883,37.109,41.016,38.086,538.086,0
1486363974.275,3.906,38.574,34.180,29.785,564.941,0
1486363974.279,16.602,28.320,29.297,27.832,576.660,0
1486363974.283,17.578,20.996,26.367,28.320,574.707,0
1486363974.287,12.695,19.043,28.809,33.691,583.008,0
1486363974.291,27.832,22.949,36.133,53.223,582.520,0
1486363974.295,32.227,31.250,36.621,63.965,539.062,0
1486363974.299,34.668,37.109,35.156,58.594,552.246,0
1486363974.303,29.297,32.715,33.691,61.035,577.637,0
1486363974.306,39.551,25.879,29.785,67.871,554.688,0
1486363974.310,42.969,31.250,33.203,61.523,569.336,0
1486363974.314,33.691,36.133,34.668,47.363,560.547,0
1486363974.318,28.320,32.227,29.785,40.527,550.781,0
1486363974.322,25.391,34.668,30.273,42.969,555.176,0
1486363974.326,30.273,40.039,34.180,47.852,548.828,0
1486363974.330,23.438,41.504,38.086,38.086,591.797,0
1486363974.334,29.785,43.457,42.969,33.203,602.051,0
1486363974.338,42.480,44.434,43.457,34.668,553.223,0
1486363974.342,39.551,40.527,39.551,34.668,536.133,0
1486363974.345,26.367,36.133,38.086,30.762,568.359,0
1486363974.349,13.184,36.133,39.062,21.484,584.961,0
1486363974.353,14.160,34.180,35.645,25.879,561.035,0
1486363974.357,10.254,32.715,36.621,31.250,551.758,0
1486363974.361,5.371,36.133,41.504,31.250,535.645,0
1486363974.365,5.859,39.062,42.480,36.621,524.414,0
1486363974.369,0.488,40.527,42.480,37.109,555.176,0
1486363974.373,-9.277,41.992,42.969,35.156,542.969,0
1486363974.377,-2.441,41.992,37.109,32.715,509.766,0
1486363974.381,5.859,42.480,33.691,28.809,500.488,0
1486363974.385,-15.137,47.363,38.574,29.785,511.230,0
1486363974.388,-31.738,50.781,38.086,27.832,521.484,0
1486363974.392,-49.316,47.852,33.691,34.180,523.926,0
1486363974.396,-71.777,41.992,33.203,35.156,519.531,0
1486363974.400,-62.500,41.504,28.809,23.438,513.672,0
1486363974.404,-51.758,42.480,26.855,32.227,519.531,0
1486363974.408,-50.293,36.133,30.273,36.133,543.457,0
1486363974.412,-56.641,32.227,35.645,34.668,515.137,0
1486363974.416,-86.426,28.320,34.668,46.875,518.066,0
1486363974.420,-87.402,27.832,31.250,52.734,602.051,0
1486363974.424,-81.543,34.668,32.227,44.434,616.211,0
1486363974.428,-76.660,34.668,33.691,37.109,611.816,0
1486363974.431,-76.660,30.273,31.250,42.480,658.203,0
1486363974.435,-77.637,29.297,26.367,39.551,667.969,0
1486363974.439,-69.336,26.367,25.879,38.574,678.223,0
1486363974.443,-90.332,23.926,27.344,47.852,695.312,0
1486363974.447,-98.145,29.297,21.973,47.852,731.934,0
1486363974.451,-98.633,33.691,20.996,42.969,756.348,0
1486363974.455,-109.375,32.715,22.949,42.969,728.027,0
1486363974.459,-99.609,32.227,20.508,46.387,741.699,0
1486363974.463,-79.102,27.832,23.926,47.363,771.973,0
1486363974.467,-104.492,26.367,22.461,24.902,781.738,0
1486363974.470,-129.883,28.320,14.648,1.465,760.254,0
1486363974.474,-130.371,26.855,11.719,2.930,774.902,0
1486363974.478,-132.812,27.344,12.207,-9.277,810.547,0
1486363974.482,-140.137,27.832,7.812,-36.621,825.684,0
1486363974.486,-150.391,35.156,5.371,-37.109,839.844,0
1486363974.490,-159.180,37.598,9.277,-43.945,815.430,0
1486363974.494,-160.645,37.109,10.742,-57.617,833.496,0
1486363974.498,-156.250,36.133,16.602,-68.359,865.723,0
1486363974.502,-179.688,28.320,17.578,-73.242,803.711,0
1486363974.506,-195.801,21.973,10.254,-84.961,753.418,0
1486363974.510,-191.406,23.438,6.348,-100.586,758.789,0
1486363974.513,-190.918,19.531,2.930,-111.328,729.980,0
1486363974.517,-204.590,18.066,1.465,-111.816,688.965,0
1486363974.521,-209.961,18.066,5.859,-99.121,680.176,0
1486363974.525,-194.824,11.719,1.465,-88.867,665.039,0
1486363974.529,-203.125,2.930,-4.395,-91.309,641.113,0
1486363974.533,-208.984,4.395,1.465,-100.098,620.605,0
1486363974.537,-191.895,9.277,4.395,-102.051,630.859,0
1486363974.541,-185.059,9.766,6.348,-94.727,678.711,0
1486363974.545,-200.684,13.672,11.230,-77.637,696.289,0
1486363974.549,-193.848,16.113,17.578,-71.289,692.383,0
1486363974.553,-185.059,15.625,20.508,-64.941,709.473,0
1486363974.556,-182.129,14.648,21.484,-44.434,726.562,0
1486363974.560,-174.316,10.742,25.391,-34.668,755.371,0
1486363974.564,-173.828,10.742,25.391,-37.598,821.289,0
1486363974.568,-177.734,16.113,23.438,-23.438,869.629,0
1486363974.572,-187.988,18.555,24.414,-5.859,919.434,0
1486363974.576,-184.082,17.090,23.926,-3.906,978.027,0
1486363974.580,-183.594,16.113,20.508,3.906,987.305,0
1486363974.584,-189.941,17.578,18.555,23.438,994.629,0
1486363974.588,-193.359,17.090,20.020,36.133,-993.164,0
1486363974.592,-199.707,19.531,19.043,21.973,969.238,0
1486363974.595,-201.172,21.973,22.949,22.949,949.707,0
1486363974.599,-193.848,22.461,27.344,48.340,-999.512,0
1486363974.603,-174.316,28.320,30.273,64.941,972.656,0
1486363974.607,-166.016,31.250,32.227,51.758,931.152,0
1486363974.611,-181.641,27.832,35.156,46.875,948.730,0
1486363974.615,-189.941,24.414,37.598,52.734,955.566,0
1486363974.619,-186.035,20.996,31.250,46.875,953.613,0
1486363974.623,-176.270,25.879,28.320,53.223,932.617,0
1486363974.627,-185.059,24.902,29.785,53.223,922.852,0
1486363974.631,-176.270,22.461,31.738,47.852,951.660,0
1486363974.635,-167.969,32.227,36.133,44.434,928.711,0
1486363974.638,-173.828,35.645,34.180,49.805,895.020,0
1486363974.642,-180.176,32.227,35.156,53.711,905.273,0
1486363974.646,-197.754,32.227,34.668,37.598,904.297,0
1486363974.650,-192.383,34.668,35.156,49.805,876.953,0
1486363974.654,-216.309,28.320,37.598,54.199,838.379,0
1486363974.658,-232.910,23.926,35.156,49.316,806.641,0
1486363974.662,-225.098,32.227,37.109,48.340,785.645,0
1486363974.666,-235.840,28.320,40.039,49.805,767.578,0
1486363974.670,-247.070,20.996,37.109,25.879,724.609,0
1486363974.674,-250.977,21.484,37.109,8.789,709.961,0
1486363974.678,-263.672,22.461,39.062,22.461,721.680,0
1486363974.681,-291.504,20.020,40.527,20.508,679.688,0
1486363974.685,-303.711,15.625,38.574,16.602,635.254,0
1486363974.689,-304.199,14.648,36.621,22.949,633.301,0
1486363974.693,-293.457,17.090,40.039,21.484,604.004,0
1486363974.697,-276.367,20.020,39.551,13.672,566.406,0
1486363974.701,-280.762,23.438,36.133,30.762,535.645,0
1486363974.705,-283.691,23.926,39.062,35.156,499.023,0
1486363974.709,-301.270,17.090,39.551,25.879,504.395,0
1486363974.713,-303.223,13.672,37.598,24.414,507.812,0
1486363974.717,-270.508,20.020,38.086,20.996,490.723,0
1486363974.720,-258.301,20.020,39.551,28.809,467.773,0
1486363974.724,-262.207,17.578,39.062,34.180,491.699,0
1486363974.728,-263.672,17.090,41.016,39.062,472.168,0
1486363974.732,-268.555,15.625,42.480,35.645,483.887,0
1486363974.736,-270.020,17.578,41.992,13.672,534.180,0
1486363974.740,-241.699,17.090,44.922,31.738,506.348,0
1486363974.744,-225.098,19.531,46.875,40.039,483.398,0
1486363974.748,-233.887,20.996,47.852,39.062,504.395,0
1486363974.752,-231.445,22.461,50.293,43.945,523.438,0
1486363974.756,-222.656,20.020,46.387,41.992,509.277,0
1486363974.760,-217.773,16.113,48.340,54.688,505.371,0
1486363974.763,-215.332,24.902,51.758,53.223,509.277,0
1486363974.767,-211.426,30.762,48.828,50.293,485.840,0
1486363974.771,-208.008,25.879,44.434,51.270,436.035,0
1486363974.775,-219.727,24.902,39.062,57.129,419.434,0
1486363974.779,-241.699,22.461,37.109,52.246,440.430,0
1486363974.783,-242.676,20.508,41.016,52.246,445.801,0
1486363974.787,-223.633,24.902,43.945,81.055,383.789,0
1486363974.791,-209.961,25.391,41.016,82.031,332.031,0
1486363974.795,-197.754,26.855,37.109,68.359,375.000,0
1486363974.799,-202.148,24.902,36.133,73.242,376.465,0
1486363974.803,-219.238,22.949,34.180,82.031,333.984,0
1486363974.806,-226.074,20.508,33.691,87.891,343.262,0
1486363974.810,-211.426,21.484,34.668,75.684,370.117,0
1486363974.814,-193.359,24.902,28.809,66.406,380.371,0
1486363974.818,-190.918,24.902,29.785,62.012,377.441,0
1486363974.822,-167.480,25.391,32.227,60.059,413.574,0
1486363974.826,-151.367,25.391,27.344,72.754,505.859,0
1486363974.830,-175.293,27.344,27.344,64.453,517.090,0
1486363974.834,-202.148,21.973,28.809,62.988,471.191,0
1486363974.838,-191.406,18.066,27.344,71.777,432.129,0
1486363974.842,-169.434,20.996,31.250,65.430,438.477,0
1486363974.845,-166.992,15.137,27.344,63.965,446.289,0
1486363974.849,-164.062,12.207,20.020,68.848,426.758,0
1486363974.853,-163.574,11.230,23.438,61.035,421.387,0
1486363974.857,-145.996,10.254,25.879,59.082,436.523,0
1486363974.861,-146.484,10.254,26.855,60.547,424.805,0
1486363974.865,-140.625,13.672,25.879,60.547,372.559,0
1486363974.869,-125.488,16.113,26.367,62.012,361.816,0
1486363974.873,-129.883,15.625,25.391,54.199,372.070,0
1486363974.877,-129.883,16.113,28.320,62.012,316.406,0
1486363974.881,-132.324,17.578,33.203,66.895,271.973,0
1486363974.885,-110.840,23.438,27.344,52.246,272.949,0
1486363974.888,-102.051,29.785,22.949,59.570,218.262,0
1486363974.892,-110.352,26.855,21.973,63.965,156.250,0
1486363974.896,-124.023,20.020,22.949,53.223,143.555,0
1486363974.900,-126.953,18.555,24.414,41.992,130.859,0
1486363974.904,-110.840,29.297,21.973,40.039,82.520,0
1486363974.908,-92.285,37.598,21.973,62.988,23.438,0
1486363974.912,-83.984,33.203,24.414,71.289,-10.254,0
1486363974.916,-94.238,28.320,9.766,66.895,-0.488,0
1486363974.920,-76.660,28.809,-21.484,63.477,-16.602,0
1486363974.924,-50.781,28.809,2.441,69.336,-75.684,0
1486363974.928,-48.340,27.344,11.230,76.172,-104.492,0
1486363974.931,-55.176,28.809,7.812,70.312,-96.680,0
1486363974.935,-65.430,22.461,46.875,63.965,-126.465,0
1486363974.939,-61.523,24.414,54.199,60.547,-180.664,0
1486363974.943,-60.059,30.762,8.301,66.895,-184.082,0
1486363974.947,-52.734,20.020,-22.949,69.336,-186.523,0
1486363974.951,-50.293,14.648,26.855,56.152,-210.938,0
1486363974.955,-53.223,31.738,-2.441,35.156,-261.719,0
1486363974.959,-27.344,36.621,-10.254,53.223,-246.582,0
1486363974.963,-20.508,40.527,76.660,63.477,-217.773,0
1486363974.967,-22.949,29.297,84.961,63.477,-251.465,0
1486363974.970,-20.996,21.484,50.293,64.453,-284.668,0
1486363974.974,-66.406,34.180,52.246,59.570,-352.539,0
1486363974.978,-77.148,21.484,62.500,49.316,-375.000,0
1486363974.982,-37.598,14.160,55.664,50.781,-406.250,0
1486363974.986,-44.434,10.254,56.641,53.711,-467.773,0
1486363974.990,-39.551,0.000,35.156,51.758,-509.277,0
1486363974.994,-23.438,-3.906,3.418,67.383,-563.477,0
1486363974.998,-45.410,-0.977,38.086,61.035,-583.984,0
1486363975.002,-47.363,22.949,61.035,62.012,-585.449,0
1486363975.006,-68.848,40.527,49.316,69.824,-542.480,0
1486363975.010,-103.516,25.879,40.527,71.289,-514.160,0
1486363975.013,-57.129,7.812,21.973,56.641,-509.277,0
1486363975.017,-14.160,-17.090,-31.250,59.570,-507.324,0
1486363975.021,0.488,-7.324,-30.762,66.895,-496.094,0
1486363975.025,1.465,36.133,59.082,61.035,-476.562,0
1486363975.029,5.859,20.020,70.312,54.199,-471.191,0
1486363975.033,33.203,-20.020,31.738,58.594,-481.934,0
1486363975.037,34.668,-8.301,24.902,84.473,-478.516,0
1486363975.041,38.574,-10.254,32.227,77.637,-500.488,0
1486363975.045,29.785,3.418,43.945,58.594,-528.320,0
1486363975.049,19.531,35.156,19.043,50.781,-470.215,0
1486363975.053,38.574,-16.602,-26.367,42.480,-437.500,0
1486363975.056,58.105,-47.363,22.949,57.617,-488.770,0
1486363975.060,79.590,8.301,64.941,58.594,-470.703,0
1486363975.064,93.262,52.246,9.766,9.277,-431.152,0
1486363975.068,108.398,-20.508,-31.738,-19.531,-446.289,0
1486363975.072,76.660,-105.469,-71.289,0.488,-455.566,0
1486363975.076,-14.648,-192.871,-80.078,11.230,-452.148,0
1486363975.080,-36.621,-134.277,-13.672,23.438,-406.250,0
1486363975.084,-7.324,121.582,-1.953,0.000,-393.555,0
1486363975.088,-25.391,20.996,-64.453,-27.344,-347.656,0
1486363975.092,-51.270,-193.359,-30.273,-27.832,-289.551,0
1486363975.095,-7.812,-132.324,-11.230,26.367,-216.309,0
1486363975.099,0.977,58.594,18.555,47.852,-65.918,0
1486363975.103,-83.984,99.121,78.613,-30.273,64.453,0
1486363975.107,-147.949,-26.855,3.906,-93.750,255.371,0
1486363975.111,-148.438,-29.297,-20.508,-119.141,502.930,0
1486363975.115,-193.848,124.023,49.805,-165.527,746.582,0
1486363975.119,-180.176,196.289,19.043,-144.043,946.289,0
1486363975.123,-109.375,182.617,7.812,-91.797,-999.512,0
1486363975.127,-157.227,2.930,89.355,-167.480,995.117,0
1486363975.131,-140.137,-47.363,125.000,-173.828,999.512,0
1486363975.135,-139.160,62.988,23.438,-174.805,999.512,0
1486363975.138,-169.922,-110.840,-67.871,-182.129,999.512,0
1486363975.142,-99.609,-106.934,-130.371,-141.113,999.512,0
1486363975.146,-82.031,160.156,-145.996,-143.555,999.512,0
1486363975.150,-111.328,248.535,70.312,-166.504,999.512,0
1486363975.154,-108.398,188.477,196.289,-186.523,999.512,0
1486363975.158,-89.844,118.652,65.918,-173.340,999.512,0
1486363975.162,7.324,83.496,-115.234,-83.496,999.512,0
1486363975.166,-41.992,34.668,11.719,-141.113,999.512,0
1486363975.170,-125.488,7.324,113.281,-230.957,999.512,0
1486363975.174,-87.891,102.051,16.113,-189.453,999.512,0
1486363975.178,-51.758,108.887,-84.961,-126.953,999.512,0
1486363975.181,-46.875,141.602,-25.391,-129.395,999.512,0
1486363975.185,-10.742,23.438,92.285,-96.680,999.512,0
1486363975.189,87.402,37.109,164.062,13.184,999.512,0
1486363975.193,104.004,226.562,-6.348,16.113,999.512,0
1486363975.197,65.918,169.434,-108.887,-56.641,999.512,0
1486363975.201,48.340,124.023,47.852,-104.980,999.512,0
1486363975.205,54.688,-80.566,11.719,-55.664,999.512,0
1486363975.209,98.633,-71.777,17.090,5.859,999.512,0
1486363975.213,92.285,180.664,16.602,21.973,999.512,0
1486363975.217,152.344,116.699,-185.059,53.711,999.512,0
1486363975.220,250.488,-62.988,-51.758,92.285,999.512,0
1486363975.224,252.441,187.988,141.602,122.559,999.512,0
1486363975.228,175.293,315.430,189.941,83.496,999.512,0
1486363975.232,53.711,75.684,164.062,15.137,999.512,0
1486363975.236,92.773,75.684,83.496,-16.602,999.512,0
1486363975.240,132.812,60.059,-13.672,-11.230,999.512,0
1486363975.244,121.582,106.934,-121.094,53.711,999.512,0
1486363975.248,96.191,117.676,34.668,93.262,999.512,0
1486363975.252,124.512,3.906,116.699,96.680,999.512,0
1486363975.256,178.711,-0.977,35.645,93.750,999.512,0
1486363975.260,204.590,176.270,-21.973,90.332,999.512,0
1486363975.263,189.453,260.742,78.125,87.402,999.512,0
1486363975.267,164.062,20.508,129.883,110.840,999.512,0
1486363975.271,183.105,58.105,67.383,126.465,999.512,0
1486363975.275,143.555,257.812,-88.867,77.148,999.512,0
1486363975.279,133.789,142.090,-102.051,90.332,999.512,0
1486363975.283,115.234,91.797,179.199,103.027,999.512,0
1486363975.287,89.355,90.820,194.824,63.477,999.512,0
1486363975.291,122.070,68.359,67.871,63.477,999.512,0
1486363975.295,144.043,158.203,39.551,58.594,999.512,0
1486363975.299,143.555,176.758,49.805,88.379,999.512,0
1486363975.303,152.832,131.836,75.195,140.137,999.512,0
1486363975.306,134.766,85.449,83.496,68.848,999.512,0
1486363975.310,119.141,-7.324,58.105,35.645,999.512,0
1486363975.314,155.762,60.059,74.219,100.098,999.512,0
1486363975.318,176.758,207.520,67.871,134.277,999.512,0
1486363975.322,90.820,208.496,51.758,62.500,999.512,0
1486363975.326,62.012,80.566,105.957,23.438,999.512,0
1486363975.330,112.305,46.387,136.230,67.871,999.512,0
1486363975.334,135.742,106.445,88.379,73.242,999.512,0
1486363975.338,149.902,73.242,32.715,77.637,999.512,0
1486363975.342,149.902,125.977,102.539,74.707,999.512,0
1486363975.345,142.578,128.906,135.254,101.074,999.512,0
1486363975.349,146.973,44.434,104.004,105.957,999.512,0
1486363975.353,133.789,116.699,0.977,89.355,999.512,0
1486363975.357,98.145,149.414,-73.242,83.008,999.512,0
1486363975.361,82.031,87.402,73.242,62.500,999.512,0
1486363975.365,99.121,126.953,200.684,58.105,999.512,0
1486363975.369,102.051,152.344,147.949,72.266,999.512,0
1486363975.373,89.844,67.383,121.094,78.125,999.512,0
1486363975.377,87.402,21.484,87.402,71.777,999.512,0
1486363975.381,89.844,88.867,101.074,65.430,999.512,0
1486363975.385,88.379,161.133,166.504,76.172,999.512,0
1486363975.388,92.773,150.879,69.336,102.539,999.512,0
1486363975.392,93.750,116.699,-41.504,76.172,999.512,0
1486363975.396,91.309,89.355,108.398,52.246,999.512,0
1486363975.400,96.680,73.242,169.922,57.617,999.512,0
1486363975.404,79.590,115.234,122.559,68.359,999.512,0
1486363975.408,53.711,95.215,99.609,62.988,999.512,0
1486363975.412,86.426,41.992,67.383,71.289,999.512,0
1486363975.416,112.305,104.980,60.059,81.055,999.512,0
1486363975.420,65.918,120.605,65.430,40.527,996.582,0
1486363975.424,53.711,92.773,73.242,47.852,-999.023,0
1486363975.428,75.195,68.848,100.586,73.242,981.934,0
1486363975.431,56.152,50.781,69.336,57.617,894.043,0
1486363975.435,42.480,105.957,66.895,50.781,791.504,0
1486363975.439,64.453,48.340,66.895,58.594,693.848,0
1486363975.443,84.473,22.461,36.621,61.035,620.605,0
1486363975.447,82.520,82.031,53.711,72.266,543.945,0
1486363975.451,65.430,117.676,105.957,76.172,455.078,0
1486363975.455,65.430,90.332,107.910,53.711,378.906,0
1486363975.459,48.828,77.148,81.055,43.457,325.684,0
1486363975.463,35.645,69.824,59.082,39.551,233.887,0
1486363975.467,42.480,35.156,40.039,26.367,110.352,0
1486363975.470,50.293,-9.766,23.438,33.203,42.969,0
1486363975.474,52.734,-14.648,32.227,54.688,-3.418,0
1486363975.478,49.805,67.871,27.832,27.344,-123.047,0
1486363975.482,77.148,30.273,31.738,7.324,-229.492,0
1486363975.486,83.008,40.039,35.156,25.879,-310.547,0
1486363975.490,24.414,103.516,-60.547,37.109,-436.523,0
1486363975.494,-22.461,25.879,-24.902,59.570,-591.797,0
1486363975.498,-15.625,-59.082,124.023,51.270,-750.977,0
1486363975.502,28.320,31.250,125.000,37.109,-859.863,0
1486363975.506,29.785,123.535,68.848,14.160,-940.918,0
1486363975.510,26.855,71.289,38.574,1.465,-969.238,0
1486363975.513,65.430,63.477,35.645,15.137,-964.355,0
1486363975.517,52.246,79.102,41.504,21.973,-967.285,0
1486363975.521,26.367,59.570,43.945,3.906,-966.797,0
1486363975.525,-12.695,58.594,58.105,-5.371,-966.797,0
1486363975.529,-62.988,24.414,42.969,-7.812,-966.797,0
1486363975.533,-14.648,-48.828,-22.949,31.738,-966.797,0
1486363975.537,-3.906,0.977,24.902,44.922,-966.797,0
1486363975.541,-52.246,40.527,100.098,-22.461,-966.797,0
1486363975.545,-40.039,14.160,66.406,-13.672,-966.797,0
1486363975.549,-51.758,113.770,9.766,4.395,-966.797,0
1486363975.553,-49.316,74.707,-17.578,-21.973,-966.797,0
1486363975.556,-0.977,-30.273,34.180,-25.391,-966.797,0
1486363975.560,3.418,-7.324,57.617,-7.324,-967.285,0
1486363975.564,10.254,10.742,45.410,28.320,-967.285,0
1486363975.568,25.879,10.254,5.371,28.320,-966.797,0
1486363975.572,30.762,37.598,36.133,5.371,-966.797,0
1486363975.576,29.785,3.418,62.500,28.809,-966.797,0
1486363975.580,17.090,59.570,5.371,23.926,-966.797,0
1486363975.584,20.020,100.586,-3.418,33.691,-966.797,0
1486363975.588,51.270,52.734,46.387,40.039,-966.797,0
1486363975.592,56.152,18.066,63.477,37.109,-966.797,0
1486363975.595,38.086,75.195,20.996,14.160,-966.797,0
1486363975.599,35.156,87.402,16.602,8.301,-966.797,0
1486363975.603,25.879,3.906,23.438,0.977,-966.797,0
1486363975.607,29.297,13.672,40.527,12.207,-966.797,0
1486363975.611,48.828,55.664,-38.574,47.852,-966.797,0
1486363975.615,70.801,56.152,-106.445,59.570,-966.797,0
1486363975.619,59.570,46.875,82.031,62.500,-967.285,0
1486363975.623,39.062,-51.270,125.000,38.574,-965.332,0
1486363975.627,57.617,-4.883,65.918,38.086,-969.727,0
1486363975.631,55.176,112.793,65.918,37.109,-950.195,0
1486363975.635,58.105,12.207,51.758,41.016,-903.809,0
1486363975.638,63.965,18.066,49.805,36.133,-887.695,0
1486363975.642,43.945,108.887,14.160,44.922,-859.863,0
1486363975.646,64.453,34.180,50.293,69.824,-812.988,0
1486363975.650,66.406,-18.555,18.066,73.730,-795.898,0
1486363975.654,63.477,52.734,24.902,69.824,-763.672,0
1486363975.658,82.520,41.504,125.488,47.363,-801.270,0
1486363975.662,80.566,29.785,100.586,60.547,-808.594,0
1486363975.666,76.660,104.492,24.414,70.801,-739.746,0
1486363975.670,69.336,91.797,-10.254,49.316,-758.789,0
1486363975.674,67.383,58.105,77.148,47.852,-772.461,0
1486363975.678,71.777,61.035,66.406,40.527,-765.137,0
1486363975.681,41.504,15.137,-36.133,40.039,-812.988,0
1486363975.685,59.082,28.320,-56.152,91.309,-856.445,0
1486363975.689,88.867,112.305,64.941,99.121,-876.465,0
1486363975.693,60.059,8.789,88.867,42.480,-902.344,0
1486363975.697,48.340,-25.879,63.477,60.547,-909.668,0
1486363975.701,43.457,115.234,90.332,59.082,-920.410,0
1486363975.705,58.594,-18.555,-12.695,53.223,-965.332,0
1486363975.709,70.801,-94.727,-46.875,75.684,-967.773,0
1486363975.713,55.176,125.977,58.594,66.406,-965.332,0
1486363975.717,58.105,70.312,64.941,66.895,-967.285,0
1486363975.720,118.164,-13.184,80.078,82.031,-966.797,0
1486363975.724,107.422,143.555,122.559,85.938,-966.797,0
1486363975.728,20.020,110.352,132.324,23.926,-966.797,0
1486363975.732,43.945,19.043,13.672,25.391,-966.797,0
1486363975.736,100.586,35.156,-37.109,80.078,-966.797,0
1486363975.740,69.336,72.266,-8.789,40.527,-966.797,0
1486363975.744,56.152,56.152,12.207,37.598,-966.797,0
1486363975.748,62.500,-18.066,125.977,42.480,-966.797,0
1486363975.752,76.172,-64.941,157.715,67.871,-964.355,0
1486363975.756,119.629,38.086,18.066,105.469,-971.680,0
1486363975.760,114.258,139.160,-116.699,111.816,-930.664,0
1486363975.763,135.742,-36.621,-100.098,117.188,-869.141,0
1486363975.767,161.133,-96.680,129.883,123.535,-831.543,0
1486363975.771,185.059,127.441,145.996,145.508,-805.664,0
1486363975.775,176.270,124.512,42.480,178.711,-799.316,0
1486363975.779,80.078,124.023,185.547,113.770,-772.949,0
1486363975.783,-6.348,55.176,176.270,-10.742,-783.203,0
1486363975.787,89.355,-49.805,26.855,32.227,-795.898,0
1486363975.791,138.672,80.078,21.484,90.820,-782.227,0
1486363975.795,-5.371,145.020,173.340,24.414,-762.207,0
1486363975.799,10.742,51.270,114.258,74.219,-671.875,0
1486363975.803,176.758,20.996,-34.180,179.199,-652.344,0
1486363975.806,229.980,51.758,-10.254,197.754,-705.078,0
1486363975.810,145.020,15.625,143.066,119.141,-699.707,0
1486363975.814,56.641,245.605,275.879,40.039,-613.770,0
1486363975.818,58.105,157.715,25.391,50.781,-518.066,0
1486363975.822,175.293,-83.984,7.324,159.180,-513.184,0
1486363975.826,172.852,62.500,263.672,158.691,-501.953,0
1486363975.830,73.730,8.301,113.281,38.574,-411.133,0
1486363975.834,66.406,78.125,-54.688,43.457,-373.047,0
1486363975.838,194.824,249.512,135.742,217.285,-351.562,0
1486363975.842,237.793,194.824,343.262,285.645,-335.449,0
1486363975.845,-5.371,158.691,169.434,21.973,-297.852,0
1486363975.849,-63.477,117.676,138.672,-59.082,-216.309,0
1486363975.853,-12.207,0.488,151.855,2.930,-213.867,0
1486363975.857,43.457,-41.504,40.039,73.242,-194.824,0
1486363975.861,190.430,84.961,-20.020,201.172,-157.715,0
1486363975.865,171.875,44.922,3.418,171.387,-109.863,0
1486363975.869,269.043,145.508,112.793,262.695,-63.965,0
1486363975.873,213.379,317.871,411.133,235.840,-40.039,0
1486363975.877,-4.395,128.906,299.316,20.996,11.719,0
1486363975.881,91.309,-6.836,124.023,89.355,77.148,0
1486363975.885,174.805,24.902,270.020,182.617,100.586,0
1486363975.888,139.648,202.637,223.633,161.133,142.090,0
1486363975.892,51.758,294.922,145.996,81.543,222.168,0
1486363975.896,84.473,111.816,50.781,112.793,263.672,0
1486363975.900,145.020,-20.508,13.184,187.012,291.016,0
1486363975.904,134.766,179.199,166.992,183.105,359.375,0
1486363975.908,191.406,228.516,137.695,198.242,458.008,0
1486363975.912,160.645,52.246,206.543,145.020,531.738,0
1486363975.916,172.363,117.188,238.770,179.199,621.582,0
1486363975.920,216.797,208.984,218.262,225.098,703.125,0
1486363975.924,127.930,144.043,105.469,171.387,749.512,0
1486363975.928,222.168,91.797,-19.531,235.840,817.383,0
1486363975.931,231.445,193.359,268.066,227.051,928.223,0
1486363975.935,24.902,130.859,453.125,52.734,-996.094,0
1486363975.939,7.324,4.395,188.477,40.527,996.582,0
1486363975.943,175.293,225.586,198.242,186.523,998.047,0
1486363975.947,195.312,270.508,268.555,178.223,999.512,0
1486363975.951,165.039,129.883,27.832,176.270,999.512,0
1486363975.955,134.277,-30.273,11.719,121.582,999.512,0
1486363975.959,135.742,50.293,177.246,99.121,999.512,0
1486363975.963,180.664,264.648,249.023,119.141,999.512,0
1486363975.967,120.117,250.488,104.980,102.539,999.512,0
1486363975.970,125.488,110.840,101.074,154.785,999.512,0
1486363975.974,126.953,20.508,292.480,128.906,999.512,0
1486363975.978,95.703,223.633,184.570,129.883,999.512,0
1486363975.982,92.773,213.867,171.875,121.094,999.512,0
1486363975.986,56.641,125.000,122.070,57.617,999.512,0
1486363975.990,70.801,-11.230,111.816,96.680,999.512,0
1486363975.994,151.855,56.152,145.996,156.250,999.512,0
1486363975.998,98.633,375.977,120.117,89.844,999.512,0
1486363976.002,135.254,38.574,115.234,155.273,999.512,0
1486363976.006,141.602,13.672,109.863,174.316,999.512,0
1486363976.010,1.465,287.109,271.973,21.973,999.512,0
1486363976.013,54.688,186.035,249.512,64.453,999.512,0
1486363976.017,97.656,75.195,95.215,114.258,999.512,0
1486363976.021,75.195,133.789,106.934,105.957,999.512,0
1486363976.025,80.078,192.871,208.496,80.078,999.512,0
1486363976.029,99.609,-19.043,139.648,80.078,999.512,0
1486363976.033,99.609,17.578,126.953,103.516,999.512,0
1486363976.037,108.887,277.832,113.281,122.070,999.512,0
1486363976.041,165.527,213.867,70.801,134.766,999.512,0
1486363976.045,46.387,32.715,175.293,25.391,999.512,0
1486363976.049,-15.625,-36.133,163.574,45.898,999.512,0
1486363976.053,105.957,124.023,160.645,179.688,999.512,0
1486363976.056,93.262,175.293,180.176,116.211,996.094,0
1486363976.060,-62.988,82.520,140.625,-36.133,-998.047,0
1486363976.064,-35.645,125.488,104.004,43.457,976.074,0
1486363976.068,44.434,-10.742,83.984,127.441,868.652,0
1486363976.072,8.789,-5.371,81.055,45.410,753.418,0
1486363976.076,20.508,154.785,117.676,35.156,658.691,0
1486363976.080,18.555,150.391,94.238,53.223,585.938,0
1486363976.084,31.250,80.566,28.320,62.988,549.316,0
1486363976.088,23.926,86.914,208.008,62.988,471.680,0
1486363976.092,-39.062,154.785,230.957,5.371,389.648,0
1486363976.095,-47.363,44.922,69.824,10.254,341.797,0
1486363976.099,19.043,29.297,65.918,73.730,286.621,0
1486363976.103,31.250,117.188,74.707,44.434,216.309,0
1486363976.107,10.254,81.055,2.441,9.766,123.535,0
1486363976.111,16.113,57.129,183.105,58.594,103.516,0
1486363976.115,65.918,85.449,97.656,95.703,106.934,0
1486363976.119,18.555,123.047,-69.336,55.664,58.105,0
1486363976.123,-95.703,87.891,157.227,-12.695,16.113,0
1486363976.127,-56.641,-40.039,207.520,12.207,8.301,0
1486363976.131,33.691,-15.625,100.586,74.707,46.387,0
1486363976.135,-18.066,183.594,47.363,27.344,41.992,0
1486363976.138,-66.895,71.289,97.656,-18.555,-17.578,0
1486363976.142,-16.602,-45.410,47.363,5.371,-21.973,0
1486363976.146,-52.734,143.555,-70.801,-10.254,5.859,0
1486363976.150,-52.246,160.645,48.828,-20.996,-11.719,0
1486363976.154,-38.574,4.883,162.598,7.324,-59.082,0
1486363976.158,-24.902,-30.762,77.148,32.227,-99.121,0
1486363976.162,-13.672,105.957,27.832,7.812,-91.797,0
1486363976.166,-12.207,64.941,129.883,16.113,-104.004,0
1486363976.170,77.637,-8.301,64.941,114.746,-151.367,0
1486363976.174,67.871,90.820,-40.039,104.980,-139.648,0
1486363976.178,-45.898,152.832,29.785,23.926,-144.531,0
1486363976.181,-8.789,107.422,118.652,54.688,-196.289,0
1486363976.185,-20.996,63.477,90.332,-16.602,-264.160,0
1486363976.189,-12.207,38.574,-3.906,-23.926,-293.945,0
1486363976.193,43.457,47.363,115.723,50.781,-307.617,0
1486363976.197,-57.129,20.508,79.590,-46.875,-337.891,0
1486363976.201,-63.477,8.301,105.469,-67.383,-378.906,0
1486363976.205,38.086,21.484,144.043,11.719,-422.363,0
1486363976.209,-10.742,117.188,9.277,6.348,-451.172,0
1486363976.213,-97.656,45.898,66.406,-40.039,-437.988,0
1486363976.217,-57.617,109.375,88.379,-38.574,-409.180,0
1486363976.220,-30.273,110.840,-17.090,-10.742,-429.199,0
1486363976.224,23.438,-23.926,-39.062,41.504,-442.383,0
1486363976.228,-12.207,44.434,114.258,28.320,-502.441,0
1486363976.232,-5.859,83.984,39.062,5.371,-528.320,0
1486363976.236,47.852,64.453,-19.043,11.719,-512.207,0
1486363976.240,27.344,121.094,164.062,10.742,-549.316,0
1486363976.244,-18.066,147.949,121.582,10.742,-556.152,0
1486363976.248,-22.461,57.617,-37.109,-6.836,-541.992,0
1486363976.252,31.250,-44.434,41.504,31.250,-530.273,0
1486363976.256,10.254,59.570,121.582,16.602,-532.715,0
1486363976.260,-35.645,147.949,107.910,-17.090,-500.488,0
1486363976.263,-33.203,155.273,109.375,5.859,-445.801,0
1486363976.267,-2.930,151.855,-22.461,44.434,-385.742,0
1486363976.271,65.918,84.961,-61.523,90.332,-332.031,0
1486363976.275,56.641,57.129,157.227,67.383,-332.520,0
1486363976.279,-27.344,51.758,168.945,-2.441,-252.441,0
1486363976.283,0.000,44.434,97.656,26.855,-130.371,0
1486363976.287,56.641,42.480,45.898,30.762,-109.863,0
1486363976.291,-1.953,76.172,-40.527,-43.457,-82.031,0
1486363976.295,-53.223,109.863,20.996,-38.086,26.367,0
1486363976.299,-25.879,106.445,72.754,-5.859,111.328,0
1486363976.303,-18.066,27.832,93.262,-28.320,153.809,0
1486363976.306,15.625,-0.488,30.762,10.742,160.645,0
1486363976.310,29.785,56.152,15.625,17.090,181.641,0
1486363976.314,-2.930,108.887,13.672,-10.742,229.980,0
1486363976.318,56.152,63.965,40.527,50.781,234.375,0
1486363976.322,77.637,-7.324,122.559,53.711,213.379,0
1486363976.326,-15.625,59.082,-16.602,-20.020,252.930,0
1486363976.330,-27.832,143.066,-18.066,-30.273,264.648,0
1486363976.334,16.602,126.465,100.586,20.508,233.398,0
1486363976.338,13.672,86.914,57.129,11.230,236.816,0
1486363976.342,-12.207,126.953,61.035,-30.273,214.355,0
1486363976.345,-23.438,85.449,103.027,-4.395,187.988,0
1486363976.349,-13.184,20.508,-12.207,25.879,174.316,0
1486363976.353,71.777,12.207,-17.090,54.199,146.484,0
1486363976.357,84.473,23.926,36.133,66.895,74.707,0
1486363976.361,-20.996,6.836,76.660,-22.461,11.230,0
1486363976.365,23.926,97.656,107.422,7.324,-15.137,0
1486363976.369,83.496,181.641,77.148,98.145,-49.316,0
1486363976.373,43.457,47.852,13.672,39.551,-105.469,0
1486363976.377,-2.930,33.203,23.438,-5.859,-177.734,0
1486363976.381,-25.391,94.238,49.316,-50.781,-233.887,0
1486363976.385,-42.969,45.898,49.805,-78.125,-236.328,0
1486363976.388,-26.367,16.113,88.379,-38.086,-275.879,0
1486363976.392,2.930,-1.953,-73.242,-20.020,-363.770,0
1486363976.396,6.836,64.941,-82.031,-5.859,-415.527,0
1486363976.400,-0.488,106.934,114.258,-14.160,-444.824,0
1486363976.404,38.086,48.828,50.293,13.672,-492.188,0
1486363976.408,44.434,34.180,39.551,-10.742,-538.086,0
1486363976.412,24.902,56.641,99.609,-20.020,-558.594,0
1486363976.416,56.641,67.871,28.809,48.340,-555.664,0
1486363976.420,90.332,19.043,6.348,84.473,-567.871,0
1486363976.424,52.246,96.191,17.090,21.484,-601.562,0
1486363976.428,-11.719,74.707,-48.340,-42.480,-612.305,0
1486363976.431,17.090,17.090,4.883,50.293,-595.703,0
1486363976.435,73.730,76.660,148.926,95.215,-628.906,0
1486363976.439,-0.977,123.535,56.152,-0.977,-641.602,0
1486363976.443,11.719,56.641,42.969,7.812,-609.375,0
1486363976.447,40.039,87.402,50.293,36.133,-596.191,0
1486363976.451,35.156,165.039,29.297,36.133,-595.703,0
1486363976.455,6.836,46.875,106.445,8.789,-625.977,0
1486363976.459,-18.555,8.301,58.594,-33.203,-626.953,0
1486363976.463,17.578,99.121,23.926,-0.977,-589.355,0
1486363976.467,27.344,62.012,-7.812,40.527,-592.773,0
1486363976.470,33.691,10.254,-74.707,54.688,-599.609,0
1486363976.474,83.008,66.895,15.137,108.887,-579.590,0
1486363976.478,58.594,140.137,110.840,66.406,-578.125,0
1486363976.482,-9.277,85.938,19.531,-7.812,-590.332,0
1486363976.486,0.977,15.625,101.562,32.715,-579.102,0
1486363976.490,39.062,82.520,118.652,64.941,-589.355,0
1486363976.494,32.715,93.750,41.992,33.203,-621.094,0
1486363976.498,-1.953,32.227,70.801,-15.625,-632.812,0
1486363976.502,-9.766,10.254,-53.711,28.809,-642.578,0
1486363976.506,22.949,27.344,-117.188,79.102,-632.324,0
1486363976.510,38.574,122.070,96.191,20.508,-637.695,0
1486363976.513,50.781,73.242,96.191,2.930,-658.691,0
1486363976.517,124.512,-42.480,99.121,83.008,-674.316,0
1486363976.521,111.328,4.395,123.047,103.516,-676.270,0
1486363976.525,37.598,125.000,36.133,22.949,-675.781,0
1486363976.529,-14.648,101.074,-43.457,-23.438,-705.078,0
1486363976.533,-45.410,73.242,-14.648,-15.625,-715.820,0
1486363976.537,12.695,0.488,123.535,3.906,-691.406,0
1486363976.541,81.543,-1.953,1.953,42.969,-728.516,0
1486363976.545,62.012,106.445,-25.879,17.090,-767.578,0
1486363976.549,20.996,38.574,95.703,-22.461,-744.141,0
1486363976.553,62.500,-25.391,-31.738,40.527,-723.633,0
1486363976.556,62.500,70.312,-76.660,57.129,-720.215,0
1486363976.560,40.039,95.215,97.656,27.832,-710.449,0
1486363976.564,55.176,36.621,179.199,48.828,-687.012,0
1486363976.568,32.715,99.121,29.785,13.184,-681.641,0
1486363976.572,14.160,48.340,18.066,2.441,-706.055,0
1486363976.576,-10.742,45.898,116.699,-32.715,-692.871,0
1486363976.580,19.043,53.223,33.691,-22.949,-674.316,0
1486363976.584,48.828,-17.090,-31.250,21.484,-666.504,0
1486363976.588,86.426,-4.883,0.977,52.734,-681.152,0
1486363976.592,103.027,78.613,18.555,77.148,-695.801,0
1486363976.595,56.641,150.391,15.137,52.246,-656.738,0
1486363976.599,33.203,108.398,138.184,23.926,-645.020,0
1486363976.603,-11.719,59.082,129.883,-17.578,-680.176,0
1486363976.607,-2.441,38.574,32.715,-10.254,-694.336,0
1486363976.611,38.086,32.227,12.695,9.766,-643.555,0
1486363976.615,18.555,64.941,41.504,0.488,-629.883,0
1486363976.619,24.902,-31.738,52.734,5.371,-627.930,0
1486363976.623,56.152,-63.965,-52.734,35.156,-643.066,0
1486363976.627,73.242,130.371,-90.820,44.434,-644.043,0
1486363976.631,49.805,105.957,44.434,22.949,-640.625,0
1486363976.635,28.809,82.520,77.148,16.113,-653.320,0
1486363976.638,46.387,96.191,57.129,15.625,-623.047,0
1486363976.642,53.711,16.113,91.797,27.344,-640.625,0
1486363976.646,12.207,-36.621,9.766,19.043,-642.090,0
1486363976.650,24.902,29.785,-6.836,33.203,-632.324,0
1486363976.654,60.547,109.375,83.008,40.527,-641.602,0
1486363976.658,62.012,57.129,112.793,27.832,-622.559,0
1486363976.662,21.484,-37.109,-3.906,10.742,-646.484,0
1486363976.666,39.062,43.457,22.461,20.020,-630.859,0
1486363976.670,29.297,129.883,-46.387,6.836,-580.566,0
1486363976.674,48.828,70.801,-103.516,28.809,-619.141,0
1486363976.678,76.660,67.871,99.121,33.203,-639.160,0
1486363976.681,64.453,73.242,127.930,12.695,-616.699,0
1486363976.685,52.734,-5.859,36.133,32.715,-616.211,0
1486363976.689,70.801,-16.602,33.691,82.031,-618.652,0
1486363976.693,75.195,110.352,84.961,81.055,-623.535,0
1486363976.697,31.250,113.770,65.430,5.859,-647.949,0
1486363976.701,34.180,48.828,25.391,15.137,-619.629,0
1486363976.705,51.758,24.902,-62.500,38.574,-591.797,0
1486363976.709,85.449,12.695,-7.324,51.270,-598.633,0
1486363976.713,100.586,46.875,110.352,103.027,-603.516,0
1486363976.717,66.406,25.391,55.664,93.262,-603.027,0
1486363976.720,23.438,8.789,7.324,73.730,-628.418,0
1486363976.724,16.113,23.438,44.434,44.922,-643.066,0
1486363976.728,67.383,-18.066,66.895,68.848,-635.742,0
1486363976.732,98.145,34.180,43.457,99.609,-645.020,0
1486363976.736,69.336,119.141,-19.043,62.500,-648.926,0
1486363976.740,65.918,36.133,24.414,53.711,-667.480,0
1486363976.744,68.848,15.625,47.852,46.387,-643.066,0
1486363976.748,75.195,54.688,-0.488,53.223,-634.277,0
1486363976.752,69.336,69.336,-2.441,50.781,-703.613,0
1486363976.756,42.969,51.758,-37.109,51.758,-728.027,0
1486363976.760,35.645,16.602,-18.555,43.945,-687.988,0
1486363976.763,40.527,84.961,71.777,35.645,-673.828,0
1486363976.767,52.246,54.688,100.586,35.645,-708.496,0
1486363976.771,58.594,33.203,72.266,55.664,-746.094,0
1486363976.775,42.969,99.121,17.578,40.039,-767.578,0
1486363976.779,42.480,45.898,55.664,17.090,-775.391,0
1486363976.783,44.434,-63.477,31.250,51.270,-818.848,0
1486363976.787,53.711,-42.480,-26.367,71.777,-852.051,0
1486363976.791,77.148,83.496,52.734,63.477,-826.172,0
1486363976.795,65.918,91.309,25.391,35.645,-826.660,0
1486363976.799,39.551,-16.113,-9.277,8.789,-821.777,0
1486363976.803,22.949,11.230,-11.719,25.391,-814.941,0
1486363976.806,16.602,95.215,-24.902,28.320,-843.262,0
1486363976.810,40.527,2.441,35.156,31.738,-863.281,0
1486363976.814,71.289,21.484,67.871,87.402,-868.652,0
1486363976.818,36.133,57.129,104.004,52.246,-860.840,0
1486363976.822,7.324,-36.133,53.711,-13.184,-875.488,0
1486363976.826,31.738,67.871,19.531,-17.578,-906.250,0
1486363976.830,36.133,112.793,7.324,13.184,-945.801,0
1486363976.834,31.738,18.555,18.066,16.602,-967.773,0
1486363976.838,30.273,8.789,-21.484,16.113,-965.820,0
1486363976.842,19.531,18.555,-31.738,34.668,-966.797,0
1486363976.845,6.836,-9.277,79.590,0.977,-967.285,0
1486363976.849,7.324,10.742,57.617,-14.160,-966.797,0
1486363976.853,19.531,0.488,32.227,8.789,-966.797,0
1486363976.857,9.766,-6.836,48.828,14.648,-966.797,0
1486363976.861,17.090,31.250,-12.207,15.625,-966.797,0
1486363976.865,46.387,31.250,-53.223,12.695,-966.797,0
1486363976.869,37.109,-0.488,15.137,4.883,-966.797,0
1486363976.873,4.395,13.184,30.273,17.578,-966.797,0
1486363976.877,0.488,26.855,27.344,22.461,-966.797,0
1486363976.881,-33.203,6.348,5.859,7.324,-966.797,0
1486363976.885,-47.363,17.578,-3.418,4.395,-966.797,0
1486363976.888,-17.578,-1.953,14.648,-6.836,-967.285,0
1486363976.892,-25.879,-0.488,9.766,-8.789,-966.797,0
1486363976.896,-22.461,12.695,6.836,16.602,-966.797,0
1486363976.900,-31.738,3.418,-7.812,3.418,-966.797,0
1486363976.904,-65.430,-7.812,-34.180,-29.785,-966.797,0
1486363976.908,-75.195,-7.812,-34.668,-47.363,-966.797,0
1486363976.912,-84.473,-4.395,-34.668,-77.148,-966.797,0
1486363976.916,-91.797,-13.184,-50.781,-101.562,-966.797,0
1486363976.920,-92.773,-21.484,-50.781,-105.957,-966.797,0
1486363976.924,-99.609,-33.691,-51.270,-111.328,-966.797,0
1486363976.928,-137.207,-40.039,-62.500,-127.930,-967.285,0
1486363976.931,-166.016,-47.363,-60.547,-154.297,-967.285,0
1486363976.935,-133.789,-39.551,-61.523,-166.504,-966.797,0
1486363976.939,-144.043,-29.785,-62.012,-174.316,-966.797,0
1486363976.943,-181.641,-36.133,-60.547,-193.848,-966.797,0
1486363976.947,-201.660,-41.504,-68.359,-208.496,-966.797,0
1486363976.951,-212.402,-41.992,-70.801,-217.773,-966.797,0
1486363976.955,-229.980,-52.734,-61.035,-227.051,-966.797,0
1486363976.959,-261.719,-55.664,-46.387,-246.094,-966.797,0
1486363976.963,-255.859,-62.500,-41.504,-245.117,-966.797,0
1486363976.967,-249.023,-77.637,-39.551,-240.723,-966.797,0
1486363976.970,-251.465,-81.543,-33.691,-234.863,-966.797,0
1486363976.974,-234.375,-76.660,-32.715,-204.102,-966.797,0
1486363976.978,-223.145,-71.289,-28.809,-192.871,-966.797,0
1486363976.982,-228.027,-93.262,-25.391,-201.660,-966.797,0
1486363976.986,-216.797,-100.586,-24.414,-180.176,-966.797,0
1486363976.990,-208.984,-80.566,-16.113,-168.457,-966.797,0
1486363976.994,-188.477,-87.402,-14.648,-162.598,-966.797,0
1486363976.998,-158.691,-89.844,-18.066,-129.395,-966.797,0
1486363977.002,-151.367,-122.559,-31.250,-117.676,-966.797,0
1486363977.006,-145.508,-229.004,-29.785,-104.492,-966.797,0
1486363977.010,-112.305,-288.574,-20.508,-89.355,-966.797,0
1486363977.013,-78.613,-280.762,-22.949,-63.965,-966.797,0
1486363977.017,-54.199,-264.648,-6.348,-28.320,-966.797,0
1486363977.021,-27.832,-243.652,5.371,-11.719,-966.797,0
