timestamps,TP9,AF7,AF8,TP10,Right AUX,Marker0
1486276396.453,61.035,34.668,32.227,29.785,53.223,0
1486276396.457,61.523,28.320,25.879,23.926,63.477,0
1486276396.461,62.988,27.832,38.574,33.203,36.621,0
1486276396.465,55.664,29.297,46.387,35.645,61.035,0
1486276396.469,51.270,27.344,45.410,25.391,50.293,0
1486276396.473,58.105,26.367,35.645,31.250,28.320,0
1486276396.476,57.617,25.879,29.785,40.039,28.320,0
1486276396.480,54.688,25.879,33.691,38.574,5.371,0
1486276396.484,52.734,29.785,38.574,41.016,42.969,0
1486276396.488,63.477,31.738,37.598,46.875,29.297,0
1486276396.492,75.195,35.645,43.945,43.945,-23.926,0
1486276396.496,63.965,41.016,53.711,47.363,1.465,0
1486276396.500,55.664,31.250,48.828,51.270,21.484,0
1486276396.504,61.035,26.367,46.875,48.340,28.320,0
1486276396.508,55.664,30.273,50.781,39.551,43.945,0
1486276396.512,47.363,32.715,44.434,35.645,62.988,0
1486276396.516,47.363,34.668,39.062,45.898,27.344,0
1486276396.519,45.898,33.203,46.875,48.340,-44.434,0
1486276396.523,51.270,35.156,52.734,47.852,-15.625,0
1486276396.527,55.176,36.621,49.316,47.852,33.203,0
1486276396.531,51.758,32.227,35.645,38.086,49.805,0
1486276396.535,48.340,29.297,31.250,34.668,-17.578,0
1486276396.539,42.480,32.715,42.969,36.133,-54.688,0
1486276396.543,37.598,36.621,38.574,31.738,64.941,0
1486276396.547,39.551,34.668,26.367,24.902,67.871,0
1486276396.551,45.898,31.738,26.367,21.484,38.574,0
1486276396.555,43.457,33.691,22.461,23.926,62.988,0
1486276396.559,41.992,31.738,13.184,26.367,-1.465,0
1486276396.562,41.016,28.320,17.090,22.461,15.625,0
1486276396.566,37.109,29.297,27.344,20.020,47.363,0
1486276396.570,35.645,32.227,33.203,25.391,-2.441,0
1486276396.574,35.156,27.832,38.574,29.785,30.762,0
1486276396.578,43.945,18.555,49.805,28.320,43.945,0
1486276396.582,54.199,26.367,48.828,27.832,-1.465,0
1486276396.586,57.617,30.273,37.598,33.203,-25.879,0
1486276396.590,53.223,21.484,32.227,36.621,34.668,0
1486276396.594,53.711,19.531,29.785,34.180,93.262,0
1486276396.598,61.035,21.973,33.203,24.902,18.066,0
1486276396.601,62.500,28.320,28.809,23.438,23.438,0
1486276396.605,64.941,29.785,34.180,29.785,37.598,0
1486276396.609,59.082,27.344,41.016,27.832,7.812,0
1486276396.613,47.852,27.344,29.297,29.297,27.832,0
1486276396.617,40.039,27.344,30.762,27.832,20.996,0
1486276396.621,49.805,28.809,42.480,29.785,-5.371,0
1486276396.625,60.059,29.785,43.945,33.203,-20.996,0
1486276396.629,54.199,31.738,40.039,30.273,-29.297,0
1486276396.633,55.664,35.156,33.691,31.250,23.926,0
1486276396.637,63.965,38.086,29.297,37.598,12.207,0
1486276396.641,58.594,35.156,34.180,37.109,-18.555,0
1486276396.644,51.270,31.738,39.551,34.668,0.000,0
1486276396.648,52.734,30.273,41.504,31.738,51.270,0
1486276396.652,50.781,22.949,38.086,21.973,58.105,0
1486276396.656,51.758,19.531,30.762,17.578,11.719,0
1486276396.660,52.734,22.461,34.180,20.508,-0.977,0
1486276396.664,49.316,23.438,28.320,23.926,10.742,0
1486276396.668,50.293,22.949,18.555,27.832,99.121,0
1486276396.672,52.246,23.438,26.367,33.203,94.238,0
1486276396.676,56.641,23.438,35.645,33.691,15.137,0
1486276396.680,55.664,20.020,32.715,31.738,70.801,0
1486276396.684,46.875,20.508,24.414,31.738,70.312,0
1486276396.687,51.758,24.414,23.438,34.668,34.180,0
1486276396.691,53.711,26.367,32.715,39.551,33.203,0
1486276396.695,49.316,26.367,41.016,33.691,10.742,0
1486276396.699,64.941,30.273,36.621,29.785,15.137,0
1486276396.703,71.777,33.203,38.574,39.062,27.832,0
1486276396.707,58.594,34.180,41.992,37.109,15.625,0
1486276396.711,52.246,32.227,35.645,31.250,23.926,0
1486276396.715,58.105,28.320,40.039,29.297,58.594,0
1486276396.719,57.129,30.762,32.715,33.203,51.270,0
1486276396.723,49.316,39.551,25.879,39.551,13.672,0
1486276396.726,52.734,35.156,46.875,45.410,11.230,0
1486276396.730,53.711,24.902,57.617,42.480,12.695,0
1486276396.734,51.758,28.809,45.410,38.086,43.457,0
1486276396.738,51.270,32.227,31.250,39.062,36.133,0
1486276396.742,49.805,29.297,35.156,34.668,9.766,0
1486276396.746,55.176,31.250,48.828,40.527,21.973,0
1486276396.750,55.176,39.062,52.246,47.852,71.289,0
1486276396.754,48.340,40.039,49.805,34.668,82.031,0
1486276396.758,41.016,35.156,48.340,26.367,-9.766,0
1486276396.762,43.457,33.691,46.387,25.391,-21.484,0
1486276396.766,53.223,30.273,36.133,20.996,12.695,0
1486276396.769,54.688,26.855,32.227,24.414,0.977,0
1486276396.773,60.059,27.832,28.809,35.645,29.297,0
1486276396.777,62.988,33.691,35.156,41.504,16.113,0
1486276396.781,53.711,36.621,54.688,33.691,-25.879,0
1486276396.785,62.988,23.438,57.129,23.438,9.277,0
1486276396.789,70.801,24.414,51.758,26.855,56.152,0
1486276396.793,63.965,34.180,49.316,39.551,32.715,0
1486276396.797,58.105,34.180,49.316,44.922,28.809,0
1486276396.801,54.688,32.227,49.316,44.434,74.707,0
1486276396.805,59.570,31.250,51.758,41.992,73.242,0
1486276396.809,65.918,35.156,57.617,40.527,12.207,0
1486276396.812,60.059,37.109,55.176,42.480,20.996,0
1486276396.816,62.988,37.598,48.828,49.316,78.125,0
1486276396.820,68.359,37.598,47.852,42.480,42.969,0
1486276396.824,67.383,42.969,38.574,33.203,3.418,0
1486276396.828,64.941,46.875,44.434,32.227,17.578,0
1486276396.832,59.570,39.551,61.035,31.738,61.035,0
1486276396.836,66.895,42.480,63.477,33.691,6.348,0
1486276396.840,68.848,48.340,70.312,30.762,8.301,0
1486276396.844,62.988,54.199,80.078,35.645,88.867,0
1486276396.848,60.059,52.734,82.520,51.270,61.035,0
1486276396.851,45.898,38.574,71.289,46.387,43.457,0
1486276396.855,37.598,34.668,66.895,40.039,26.367,0
1486276396.859,41.016,38.086,68.359,43.457,32.227,0
1486276396.863,55.176,41.992,72.266,45.898,47.852,0
1486276396.867,60.547,43.457,68.359,41.992,0.488,0
1486276396.871,50.293,41.504,54.688,38.086,-35.156,0
1486276396.875,59.082,42.969,51.758,43.457,15.137,0
1486276396.879,66.406,45.898,49.805,51.270,8.301,0
1486276396.883,64.453,45.410,52.246,45.898,5.859,0
1486276396.887,61.523,41.992,56.152,39.062,20.508,0
1486276396.891,53.223,41.504,52.246,46.387,-16.113,0
1486276396.894,49.316,43.945,46.387,47.363,68.359,0
1486276396.898,53.711,41.992,50.293,44.434,59.570,0
1486276396.902,55.664,40.039,56.152,48.828,32.715,0
1486276396.906,46.875,37.109,47.852,46.875,42.480,0
1486276396.910,46.387,31.738,40.527,41.016,32.715,0
1486276396.914,54.199,32.227,38.574,41.504,23.926,0
1486276396.918,48.828,38.086,25.879,44.922,51.758,0
1486276396.922,38.086,38.086,16.602,43.945,59.570,0
1486276396.926,46.875,35.645,17.090,39.062,41.992,0
1486276396.930,56.641,39.062,27.832,30.762,67.383,0
1486276396.934,62.988,40.527,42.969,29.297,70.801,0
1486276396.937,66.895,39.551,38.086,35.156,57.617,0
1486276396.941,60.547,41.016,30.762,36.621,27.344,1
1486276396.945,51.758,39.551,29.785,36.133,-14.160,0
1486276396.949,49.316,37.598,31.250,35.645,-25.879,0
1486276396.953,45.898,33.203,33.691,33.691,12.695,0
1486276396.957,44.434,28.320,35.645,25.391,7.324,0
1486276396.961,47.852,28.809,33.203,19.043,-12.207,0
1486276396.965,50.293,31.250,44.434,25.879,12.695,0
1486276396.969,59.082,35.156,58.594,35.156,86.914,0
1486276396.973,62.500,38.574,41.992,35.156,58.594,0
1486276396.976,58.105,40.527,22.949,33.203,-18.555,0
1486276396.980,54.688,36.621,33.691,34.180,6.836,0
1486276396.984,50.781,35.645,42.969,25.879,-16.602,0
1486276396.988,48.828,30.762,42.969,13.184,-36.621,0
1486276396.992,45.898,32.715,34.668,18.555,20.996,0
1486276396.996,49.805,36.621,32.227,30.273,6.836,0
1486276397.000,60.547,33.203,38.574,38.086,-22.949,0
1486276397.004,55.176,32.715,35.645,36.133,46.875,0
1486276397.008,53.711,28.809,31.738,28.809,104.492,0
1486276397.012,54.199,26.855,33.203,28.320,85.449,0
1486276397.016,39.062,23.926,35.645,26.367,40.527,0
1486276397.019,35.156,23.438,39.062,27.344,36.133,0
1486276397.023,44.434,26.367,39.551,25.879,8.789,0
1486276397.027,43.945,25.391,32.715,32.227,23.438,0
1486276397.031,38.574,28.809,27.344,38.086,38.574,0
1486276397.035,38.574,25.879,41.016,33.691,63.477,0
1486276397.039,35.645,16.602,43.945,32.715,52.734,0
1486276397.043,37.598,23.438,40.527,34.180,2.441,0
1486276397.047,51.758,30.762,47.852,34.668,29.785,0
1486276397.051,48.340,32.227,45.410,35.156,2.930,0
1486276397.055,45.898,30.762,40.039,32.715,2.930,0
1486276397.059,52.246,31.738,46.387,33.203,53.711,0
1486276397.062,59.082,33.203,58.594,37.109,45.410,0
1486276397.066,66.406,28.809,59.082,40.527,62.500,0
1486276397.070,67.871,36.133,49.316,43.457,37.109,0
1486276397.074,58.105,41.992,44.434,42.969,7.812,0
1486276397.078,56.641,38.574,52.734,42.480,54.688,0
1486276397.082,58.105,45.898,41.504,41.016,24.902,0
1486276397.086,62.012,49.805,25.879,42.969,39.062,0
1486276397.090,62.012,33.691,27.344,39.551,68.359,0
1486276397.094,49.316,25.391,34.180,33.203,13.184,0
1486276397.098,38.574,27.832,45.898,27.344,44.922,0
1486276397.101,34.180,25.391,42.969,24.414,54.688,0
1486276397.105,39.062,23.926,41.016,19.043,13.672,0
1486276397.109,50.781,28.320,45.898,17.090,22.949,0
1486276397.113,50.781,27.344,41.992,16.113,67.383,0
1486276397.117,45.898,24.902,29.785,17.090,12.207,0
1486276397.121,51.270,33.203,25.391,17.578,0.000,0
1486276397.125,53.711,42.480,32.715,13.184,41.504,0
1486276397.129,51.270,38.574,35.156,8.789,29.785,0
1486276397.133,46.875,39.062,26.367,10.742,-5.859,0
1486276397.137,41.016,35.645,26.855,17.578,19.531,0
1486276397.141,39.551,26.367,36.621,23.926,47.852,0
1486276397.144,37.109,34.180,30.762,16.602,16.602,0
1486276397.148,34.668,38.086,28.809,0.488,17.090,0
1486276397.152,39.062,32.227,41.504,6.836,7.812,0
1486276397.156,39.062,28.320,45.898,7.812,-31.738,0
1486276397.160,32.715,26.367,43.945,-2.441,29.297,0
1486276397.164,29.297,23.926,41.504,6.836,33.203,0
1486276397.168,30.762,20.996,36.133,12.695,11.230,0
1486276397.172,35.645,25.879,35.645,10.742,61.523,0
1486276397.176,30.762,28.320,45.410,1.953,33.691,0
1486276397.180,22.949,23.926,51.270,0.977,36.621,0
1486276397.184,21.484,22.949,50.293,0.977,17.090,0
1486276397.187,16.113,25.879,34.668,-1.465,-38.086,0
1486276397.191,13.184,30.273,34.180,4.395,-10.742,0
1486276397.195,25.391,29.297,46.387,10.742,51.270,0
1486276397.199,33.691,24.902,36.621,8.789,86.426,0
1486276397.203,29.785,25.879,36.133,2.930,60.547,0
1486276397.207,25.879,28.320,41.992,1.953,47.852,0
1486276397.211,31.738,30.273,36.621,2.930,62.012,0
1486276397.215,34.180,31.250,35.645,5.859,50.293,0
1486276397.219,39.062,26.855,40.039,12.695,59.570,0
1486276397.223,39.062,30.273,42.480,19.043,62.500,0
1486276397.226,45.410,43.945,45.898,21.484,78.125,0
1486276397.230,36.133,26.855,31.250,5.371,74.707,0
1486276397.234,7.324,-3.418,14.648,-19.531,12.207,0
1486276397.238,9.766,2.930,15.137,-21.484,5.859,0
1486276397.242,23.926,12.207,1.465,-15.625,15.625,0
1486276397.246,24.414,11.719,8.301,-13.184,-12.695,0
1486276397.250,26.855,12.695,25.879,-4.883,27.832,0
1486276397.254,30.273,10.742,16.113,-2.930,34.180,0
1486276397.258,31.738,10.254,18.066,2.441,32.715,0
1486276397.262,27.344,12.695,34.180,7.812,86.426,0
1486276397.266,16.602,5.371,23.926,0.488,136.230,0
1486276397.269,6.348,-9.766,-4.883,-4.395,51.270,0
1486276397.273,-5.371,-16.113,-6.836,-12.207,21.484,0
1486276397.277,-12.695,-9.766,0.977,-10.742,103.516,0
1486276397.281,-6.836,-10.742,-2.441,0.977,67.383,0
1486276397.285,3.418,-9.766,7.324,-2.930,21.484,0
1486276397.289,7.324,0.000,14.648,-6.836,41.992,0
1486276397.293,9.277,6.836,13.672,4.395,41.016,0
1486276397.297,10.254,11.230,19.531,11.230,20.508,0
1486276397.301,13.672,7.324,18.555,5.371,-3.906,0
1486276397.305,18.066,6.348,24.414,1.465,33.203,0
1486276397.309,24.414,14.648,26.367,0.488,39.551,0
1486276397.312,20.996,16.113,20.996,9.766,37.598,0
1486276397.316,19.043,18.555,33.691,16.602,51.758,0
1486276397.320,27.832,23.926,37.109,27.832,9.766,0
1486276397.324,28.809,21.973,26.367,32.715,37.109,0
1486276397.328,25.391,13.672,19.043,16.113,26.855,0
1486276397.332,22.949,10.742,19.531,10.742,9.766,0
1486276397.336,23.926,18.555,24.902,20.996,70.801,0
1486276397.340,18.555,20.508,27.832,20.020,69.336,0
1486276397.344,24.414,14.160,33.203,15.137,46.387,0
1486276397.348,33.691,18.066,31.738,16.113,15.137,0
1486276397.351,32.715,21.484,23.438,14.160,6.836,0
1486276397.355,36.133,21.484,25.391,17.578,48.340,0
1486276397.359,42.480,23.438,20.508,23.438,20.508,0
1486276397.363,54.199,24.902,22.949,14.648,-12.207,0
1486276397.367,53.223,24.902,26.367,16.602,28.809,0
1486276397.371,46.875,27.344,19.043,23.438,-17.090,0
1486276397.375,41.992,27.832,35.645,22.949,-28.809,0
1486276397.379,38.574,26.855,44.434,28.809,51.758,0
1486276397.383,36.133,29.785,29.297,22.461,50.293,0
1486276397.387,28.809,26.367,18.066,17.578,22.949,0
1486276397.391,33.203,20.996,20.508,18.555,47.363,0
1486276397.394,40.527,26.367,25.879,18.066,45.410,0
1486276397.398,40.039,31.250,25.391,20.996,47.363,0
1486276397.402,35.156,28.809,24.414,28.320,63.477,0
1486276397.406,41.016,30.762,28.320,32.715,22.461,0
1486276397.410,46.875,31.738,35.156,32.227,34.668,0
1486276397.414,50.293,27.344,27.344,30.273,30.273,0
1486276397.418,53.223,28.320,16.602,32.227,29.297,0
1486276397.422,49.805,25.879,28.809,27.344,-1.953,0
1486276397.426,46.387,21.973,45.410,28.320,-29.785,0
1486276397.430,53.223,24.902,44.922,31.738,-18.066,0
1486276397.434,61.523,28.809,40.527,32.227,-69.336,0
1486276397.437,50.781,27.344,41.504,38.574,-49.316,0
1486276397.441,34.668,22.461,38.574,31.738,29.785,0
1486276397.445,38.086,23.926,29.785,30.762,24.902,0
1486276397.449,48.828,26.855,25.879,28.809,-13.672,0
1486276397.453,49.805,22.949,34.180,21.973,28.809,0
1486276397.457,44.922,21.484,41.016,29.297,59.570,0
1486276397.461,42.480,24.902,31.250,32.715,4.395,0
1486276397.465,46.387,28.320,32.227,30.762,20.996,0
1486276397.469,52.734,35.645,42.969,29.785,67.871,0
1486276397.473,51.758,37.109,44.922,30.273,53.711,0
1486276397.476,47.363,34.180,41.016,38.574,47.852,0
1486276397.480,47.363,32.715,25.879,32.715,31.738,0
1486276397.484,42.969,29.785,22.949,24.902,29.297,0
1486276397.488,35.645,27.344,24.902,18.066,31.738,0
1486276397.492,33.691,20.508,16.602,15.625,41.992,0
1486276397.496,42.969,19.531,14.648,20.996,51.758,0
1486276397.500,47.852,25.391,25.879,25.879,23.926,0
1486276397.504,43.457,24.414,33.691,18.066,8.301,0
1486276397.508,40.527,19.531,24.902,10.254,47.852,0
1486276397.512,46.875,20.020,26.367,15.137,26.855,0
1486276397.516,49.316,22.949,34.180,17.578,7.324,0
1486276397.519,36.621,23.926,23.438,16.113,8.301,0
1486276397.523,26.367,20.020,20.996,10.254,54.688,0
1486276397.527,29.297,19.531,27.344,7.812,40.527,0
1486276397.531,28.809,23.438,20.508,7.812,19.043,0
1486276397.535,35.645,20.996,8.789,9.277,76.172,0
1486276397.539,38.574,16.113,13.672,4.883,43.945,0
1486276397.543,40.039,24.414,26.367,4.883,72.266,0
1486276397.547,44.922,32.715,33.203,10.254,68.848,0
1486276397.551,32.227,28.809,29.785,8.789,39.062,0
1486276397.555,26.855,25.391,26.855,12.207,80.078,0
1486276397.559,43.457,24.902,28.809,6.836,62.500,0
1486276397.562,46.875,24.902,29.785,3.906,5.859,0
1486276397.566,46.875,22.461,35.156,10.742,17.090,0
1486276397.570,57.617,20.996,34.180,14.160,36.621,0
1486276397.574,51.758,28.320,33.203,18.555,44.922,0
1486276397.578,38.574,31.738,33.203,24.414,44.922,0
1486276397.582,40.527,30.273,35.645,21.973,10.254,0
1486276397.586,48.340,28.809,43.457,16.602,21.973,0
1486276397.590,46.387,32.715,43.457,16.113,-9.766,0
1486276397.594,63.477,36.133,53.711,23.926,-8.301,0
1486276397.598,72.754,32.227,61.523,29.297,51.758,0
1486276397.601,62.012,37.109,60.059,31.250,20.996,0
1486276397.605,57.129,41.504,66.406,33.203,9.766,0
1486276397.609,56.152,35.645,71.777,31.738,35.156,0
1486276397.613,62.012,35.645,73.242,25.879,42.969,0
1486276397.617,66.406,37.598,70.801,24.414,31.250,0
1486276397.621,58.594,33.203,61.035,25.391,-17.090,0
1486276397.625,49.805,35.645,60.547,20.508,-40.039,0
1486276397.629,52.734,38.574,66.895,17.578,-30.273,0
1486276397.633,60.547,37.598,57.129,19.043,-23.926,0
1486276397.637,62.500,41.992,61.523,27.344,-10.254,0
1486276397.641,55.664,42.969,69.824,25.879,65.918,0
1486276397.644,53.223,40.527,59.570,20.508,83.008,0
1486276397.648,52.246,41.504,55.664,21.973,21.973,0
1486276397.652,52.734,41.992,61.523,30.762,8.789,0
1486276397.656,56.641,44.922,67.871,36.621,39.062,0
1486276397.660,57.617,45.410,66.895,34.668,34.668,0
1486276397.664,57.617,40.527,53.711,34.180,28.809,0
1486276397.668,43.945,36.621,39.551,29.297,0.977,0
1486276397.672,41.504,36.621,41.016,24.414,-16.602,0
1486276397.676,46.875,41.504,51.270,34.180,18.555,0
1486276397.680,41.992,40.527,56.641,37.109,29.785,0
1486276397.684,41.992,40.039,52.246,37.598,49.805,0
1486276397.687,49.316,40.039,52.734,39.062,62.012,0
1486276397.691,47.852,35.156,50.293,36.133,38.086,0
1486276397.695,44.922,35.645,44.434,43.457,36.133,0
1486276397.699,46.387,38.086,40.527,46.387,55.664,0
1486276397.703,50.781,42.969,37.598,37.598,36.133,0
1486276397.707,61.035,42.969,37.598,39.062,16.113,0
1486276397.711,56.152,43.945,44.922,47.852,17.578,0
1486276397.715,52.734,47.363,41.992,43.945,52.734,0
1486276397.719,56.152,39.062,46.875,38.574,68.359,0
1486276397.723,66.406,34.180,52.734,47.363,14.160,0
1486276397.726,70.801,35.645,41.504,55.176,-7.324,0
1486276397.730,62.500,43.945,42.480,55.664,14.160,0
1486276397.734,63.477,44.434,31.250,47.363,20.020,0
1486276397.738,60.059,36.133,24.414,47.852,11.719,0
1486276397.742,60.059,40.039,41.504,45.410,38.086,0
1486276397.746,55.176,41.016,50.293,28.809,44.922,0
1486276397.750,47.852,37.598,49.805,31.738,21.484,0
1486276397.754,54.688,40.527,53.223,38.086,36.133,0
1486276397.758,57.129,44.434,53.711,42.480,16.602,0
1486276397.762,60.059,43.945,49.805,43.945,8.301,0
1486276397.766,68.848,44.434,57.129,41.992,15.625,0
1486276397.769,73.730,47.852,62.988,45.898,15.625,0
1486276397.773,77.637,48.340,57.617,50.293,-4.883,0
1486276397.777,74.707,47.852,47.363,55.664,-46.875,0
1486276397.781,75.684,47.363,45.410,49.805,-15.137,0
1486276397.785,69.824,39.062,64.453,47.852,-0.977,0
1486276397.789,63.477,38.574,84.473,56.641,30.273,0
1486276397.793,68.848,46.387,83.008,58.105,39.551,0
1486276397.797,65.430,34.668,78.125,52.246,-8.301,0
1486276397.801,56.641,36.133,67.383,52.734,-20.996,0
1486276397.805,57.129,44.434,57.129,57.129,-16.602,0
1486276397.809,55.176,38.574,65.918,50.293,29.785,0
1486276397.812,54.199,40.039,72.754,39.551,67.871,0
1486276397.816,59.082,41.992,71.777,39.062,29.785,0
1486276397.820,55.176,41.016,69.336,44.922,21.484,0
1486276397.824,56.641,44.434,67.871,50.293,49.805,0
1486276397.828,63.477,43.945,71.777,45.410,26.855,0
1486276397.832,53.711,41.504,70.312,42.480,38.086,0
1486276397.836,44.922,40.527,63.965,43.457,53.223,0
1486276397.840,55.176,39.062,53.711,41.504,-9.277,0
1486276397.844,59.082,45.898,58.105,44.434,-15.625,0
1486276397.848,50.293,47.363,67.871,56.641,-22.949,0
1486276397.851,41.504,38.086,64.453,55.176,-32.715,0
1486276397.855,35.645,38.574,58.105,42.969,30.762,0
1486276397.859,43.457,40.527,57.129,49.805,73.242,0
1486276397.863,46.387,37.109,53.711,56.152,71.777,0
1486276397.867,41.992,37.109,54.688,50.781,51.270,0
1486276397.871,43.457,37.109,66.895,50.293,73.730,0
1486276397.875,48.340,39.062,67.871,48.340,62.500,0
1486276397.879,51.270,35.156,71.289,48.340,-3.418,0
1486276397.883,54.688,34.668,78.125,59.082,-22.949,0
1486276397.887,54.688,36.133,64.453,61.035,13.672,0
1486276397.891,53.711,34.668,54.199,59.082,35.645,0
1486276397.894,57.617,40.039,64.941,62.012,27.832,0
1486276397.898,61.523,41.016,65.430,61.523,49.316,0
1486276397.902,58.105,40.039,57.617,54.688,37.598,0
1486276397.906,60.059,41.992,61.523,52.246,-40.039,0
1486276397.910,58.594,40.039,59.082,59.082,-40.039,0
1486276397.914,58.105,36.621,49.316,59.570,43.945,0
1486276397.918,62.012,38.086,47.363,54.688,23.926,0
1486276397.922,63.965,41.992,42.969,50.293,22.949,0
1486276397.926,63.477,37.109,27.832,48.828,27.832,0
1486276397.930,66.895,37.598,14.160,46.875,-0.488,0
1486276397.934,71.777,40.039,31.250,45.410,-10.742,0
1486276397.937,69.336,36.133,44.922,42.480,-18.555,0
1486276397.941,66.895,39.062,36.133,37.598,22.949,0
1486276397.945,59.570,35.156,41.504,38.574,65.918,0
1486276397.949,53.223,29.297,49.316,42.480,41.504,0
1486276397.953,52.246,31.250,39.551,43.945,56.641,0
1486276397.957,44.922,30.762,35.156,37.598,50.293,0
1486276397.961,37.109,24.414,39.551,37.109,21.484,0
1486276397.965,37.109,32.715,45.410,41.016,-11.719,0
1486276397.969,44.434,35.645,46.875,40.039,-9.277,0
1486276397.973,45.898,26.855,47.852,48.828,62.500,0
1486276397.976,38.086,33.203,50.781,47.363,48.828,0
1486276397.980,31.250,32.715,52.734,39.062,14.160,0
1486276397.984,36.621,31.250,57.129,44.434,15.625,0
1486276397.988,43.945,34.668,61.035,37.109,30.273,0
1486276397.992,50.293,36.621,48.828,30.762,76.660,0
1486276397.996,47.852,38.574,36.133,35.645,50.781,0
1486276398.000,45.898,36.621,41.992,35.156,20.996,0
1486276398.004,53.711,34.180,40.527,30.762,28.809,0
1486276398.008,47.363,36.133,44.922,31.738,19.531,0
1486276398.012,43.457,34.668,46.875,35.645,110.352,0
1486276398.016,49.805,35.645,30.762,36.621,91.309,0
1486276398.019,50.781,38.086,33.691,35.645,6.348,0
1486276398.023,55.176,32.715,37.598,38.086,35.645,0
1486276398.027,49.805,34.180,36.621,44.922,77.148,0
1486276398.031,47.363,39.551,48.340,44.922,56.641,0
1486276398.035,49.805,36.621,54.688,34.668,-23.438,0
1486276398.039,41.992,34.668,57.617,34.180,-5.859,0
1486276398.043,44.434,40.039,53.711,41.016,-24.902,0
1486276398.047,57.129,40.039,52.246,48.828,0.488,0
1486276398.051,58.105,38.574,56.152,57.129,59.570,0
1486276398.055,57.129,43.945,56.152,56.152,17.578,0
1486276398.059,53.711,43.457,54.199,58.594,15.137,0
1486276398.062,55.664,40.527,46.387,63.477,22.461,0
1486276398.066,55.664,33.691,43.945,51.758,-7.324,0
1486276398.070,48.340,29.297,41.016,47.363,1.465,0
1486276398.074,50.781,34.668,35.645,55.176,-10.742,0
1486276398.078,52.246,34.180,41.504,52.734,-24.902,0
1486276398.082,55.664,37.598,47.363,52.734,15.625,0
1486276398.086,57.129,39.551,44.434,55.176,-8.301,0
1486276398.090,58.594,42.480,40.527,67.383,9.277,0
1486276398.094,61.523,44.434,49.805,71.777,63.477,0
1486276398.098,66.406,45.410,63.965,66.406,35.645,0
1486276398.101,63.965,47.852,62.500,63.477,36.133,0
1486276398.105,53.223,43.457,56.641,66.406,40.039,0
1486276398.109,51.758,39.551,51.270,60.059,20.508,0
1486276398.113,66.895,47.363,51.270,56.641,20.020,0
1486276398.117,75.195,47.852,54.688,57.617,31.250,0
1486276398.121,65.918,40.527,50.293,52.734,50.293,0
1486276398.125,60.059,35.645,27.832,50.781,58.105,0
1486276398.129,58.105,36.133,20.996,45.898,29.297,0
1486276398.133,60.547,37.598,36.621,47.363,23.438,0
1486276398.137,56.152,35.156,43.457,42.969,23.926,0
1486276398.141,46.875,33.203,46.875,30.273,8.301,0
1486276398.144,47.852,31.738,41.016,34.180,45.410,0
1486276398.148,48.828,29.785,37.598,39.062,18.555,0
1486276398.152,49.805,31.738,44.434,36.621,-3.418,0
1486276398.156,55.176,35.645,45.410,33.691,24.902,0
1486276398.160,56.152,30.273,28.809,28.320,47.852,0
1486276398.164,55.176,30.273,18.555,23.926,46.875,0
1486276398.168,58.594,37.598,37.109,29.297,65.918,0
1486276398.172,63.477,41.504,51.758,42.969,79.590,0
1486276398.176,57.617,42.969,45.410,46.387,29.785,0
1486276398.180,60.059,39.551,39.062,43.457,26.855,0
1486276398.184,70.312,39.551,35.645,42.969,44.922,0
1486276398.187,66.895,39.062,35.645,38.086,53.711,0
1486276398.191,69.336,41.016,45.898,37.598,37.109,0
1486276398.195,68.848,41.992,52.734,40.039,-48.828,0
1486276398.199,60.547,38.086,51.758,38.086,-20.996,2
1486276398.203,63.965,35.645,56.152,40.039,30.273,0
1486276398.207,58.594,38.086,50.781,35.156,-1.465,0
1486276398.211,50.781,36.621,37.109,31.738,17.090,0
1486276398.215,54.199,32.227,36.621,33.691,-54.199,0
1486276398.219,53.711,29.785,37.109,34.668,-96.191,0
1486276398.223,51.758,24.902,35.645,33.203,-29.297,0
1486276398.226,51.270,27.832,34.180,35.156,57.129,0
1486276398.230,49.316,31.738,38.086,38.086,49.316,0
1486276398.234,44.434,28.809,39.551,41.992,20.508,0
1486276398.238,48.828,26.855,36.133,44.922,26.367,0
1486276398.242,54.199,29.297,44.922,38.574,12.695,0
1486276398.246,48.340,26.855,53.223,35.645,5.371,0
1486276398.250,50.781,23.438,49.805,39.062,-18.555,0
1486276398.254,47.852,20.508,39.062,38.086,-4.883,0
1486276398.258,42.969,22.461,41.504,32.715,54.688,0
1486276398.262,46.387,32.227,47.852,30.762,35.645,0
1486276398.266,46.875,31.738,44.434,41.016,37.109,0
1486276398.269,44.922,27.344,44.922,48.340,50.293,0
1486276398.273,40.527,23.926,41.992,45.898,39.551,0
1486276398.277,51.270,23.926,36.133,47.852,60.547,0
1486276398.281,55.176,30.273,44.922,41.016,16.602,0
1486276398.285,48.828,31.250,45.410,32.715,18.555,0
1486276398.289,48.340,28.320,41.016,34.180,36.133,0
1486276398.293,51.758,28.809,44.434,36.133,7.812,0
1486276398.297,53.711,29.297,39.062,34.180,45.898,0
1486276398.301,48.340,31.738,39.062,34.180,32.715,0
1486276398.305,49.805,31.250,32.715,41.016,27.344,0
1486276398.309,50.781,27.832,17.090,47.852,36.133,0
1486276398.312,43.945,22.949,28.809,47.852,4.883,0
1486276398.316,45.898,27.344,45.898,46.387,38.086,0
1486276398.320,51.758,29.785,40.527,41.504,30.762,0
1486276398.324,46.875,23.438,31.738,38.086,-10.742,0
1486276398.328,42.969,21.484,27.344,38.574,18.555,0
1486276398.332,44.922,22.461,23.926,37.598,-17.090,0
1486276398.336,49.316,25.391,28.809,41.504,-12.695,0
1486276398.340,48.340,24.414,27.344,48.828,3.906,0
1486276398.344,41.016,20.996,14.160,42.969,-9.766,0
1486276398.348,30.762,12.207,21.484,32.715,-10.742,0
1486276398.351,34.180,11.719,40.039,31.738,25.879,0
1486276398.355,38.574,18.555,39.062,33.203,49.316,0
1486276398.359,33.203,18.066,30.762,26.855,21.484,0
1486276398.363,46.387,23.926,25.879,22.949,-23.926,0
1486276398.367,54.199,27.832,26.855,35.645,-27.832,0
1486276398.371,41.992,19.531,29.297,38.574,-14.160,0
1486276398.375,36.133,19.043,20.020,30.762,0.000,0
1486276398.379,40.527,21.484,6.836,27.832,7.324,0
1486276398.383,48.340,21.973,15.625,27.832,24.414,0
1486276398.387,53.711,21.484,29.297,28.320,35.156,0
1486276398.391,52.246,21.973,19.043,28.809,7.324,0
1486276398.394,51.270,21.973,19.531,31.250,7.324,0
1486276398.398,53.711,20.508,33.691,41.016,-12.695,0
1486276398.402,59.082,23.438,37.598,47.363,7.324,0
1486276398.406,57.129,30.273,40.527,46.875,31.738,0
1486276398.410,53.223,32.227,43.945,48.340,24.414,0
1486276398.414,54.199,28.809,47.363,52.246,11.230,0
1486276398.418,48.340,31.738,57.617,52.246,21.973,0
1486276398.422,49.805,31.738,55.176,53.223,90.332,0
1486276398.426,51.270,22.949,40.039,39.551,92.285,0
1486276398.430,43.945,27.344,43.945,31.738,22.461,0
1486276398.434,35.645,28.809,47.852,42.480,35.156,0
1486276398.437,42.480,25.391,48.340,45.410,63.477,0
1486276398.441,47.363,19.043,49.316,43.457,30.762,0
1486276398.445,38.086,15.625,46.875,36.621,37.598,0
1486276398.449,37.109,19.043,43.945,41.504,30.273,0
1486276398.453,45.898,23.926,29.297,44.434,12.695,0
1486276398.457,53.223,23.926,29.297,35.645,35.645,0
1486276398.461,45.898,24.902,45.410,31.250,25.879,0
1486276398.465,27.832,22.461,49.805,25.391,36.133,0
1486276398.469,32.715,17.578,54.199,26.367,6.836,0
1486276398.473,44.922,22.949,59.082,39.551,-17.578,0
1486276398.476,46.387,28.809,48.828,39.062,33.691,0
1486276398.480,47.852,25.391,48.340,24.902,31.250,0
1486276398.484,51.270,21.973,56.641,19.531,-34.668,0
1486276398.488,48.828,23.926,43.945,22.949,-22.461,0
1486276398.492,43.457,22.461,34.668,29.297,25.391,0
1486276398.496,40.527,21.973,39.551,25.391,-1.953,0
1486276398.500,41.504,23.926,40.527,19.531,3.906,0
1486276398.504,42.969,29.785,37.109,24.414,72.754,0
1486276398.508,41.016,34.180,42.480,32.715,75.684,0
1486276398.512,41.016,37.598,48.340,37.109,17.090,0
1486276398.516,48.340,37.109,52.734,33.203,34.180,0
1486276398.519,51.270,33.691,54.688,36.621,39.062,0
1486276398.523,48.340,35.156,51.270,43.457,48.828,0
1486276398.527,60.059,35.645,49.316,41.504,14.160,0
1486276398.531,71.289,40.039,40.039,38.574,3.906,0
1486276398.535,72.754,42.969,37.109,33.203,-1.953,0
1486276398.539,64.941,32.227,49.316,34.668,0.000,0
1486276398.543,54.688,29.785,49.316,41.016,15.137,0
1486276398.547,62.500,32.715,39.062,38.574,-20.508,0
1486276398.551,68.359,33.203,40.039,31.738,75.195,0
1486276398.555,64.941,34.180,49.316,31.738,78.613,0
1486276398.559,59.570,35.645,55.176,28.809,-9.277,0
1486276398.562,57.129,33.203,53.223,20.508,7.324,0
1486276398.566,57.129,35.156,44.434,27.832,-6.348,0
1486276398.570,54.199,35.645,43.457,34.180,27.832,0
1486276398.574,53.223,35.156,49.316,34.180,14.160,0
1486276398.578,53.223,37.109,54.199,38.574,-3.418,0
1486276398.582,50.293,38.574,54.688,41.992,22.461,0
1486276398.586,51.758,45.898,48.340,32.227,15.625,0
1486276398.590,49.316,38.574,49.805,27.344,26.367,0
1486276398.594,52.734,32.227,41.504,33.691,31.738,0
1486276398.598,59.082,42.480,40.527,37.598,55.176,0
1486276398.601,56.152,40.039,50.293,41.504,4.395,0
1486276398.605,63.965,37.109,47.363,37.598,20.996,0
1486276398.609,64.941,45.898,55.664,41.992,76.172,0
1486276398.613,61.523,47.363,61.035,46.875,20.996,0
1486276398.617,65.430,48.340,57.617,43.945,17.578,0
1486276398.621,66.895,48.340,55.176,47.363,63.477,0
1486276398.625,67.871,39.062,50.293,43.457,61.523,0
1486276398.629,69.336,38.086,48.340,41.504,20.996,0
1486276398.633,70.312,45.410,43.945,46.387,-12.695,0
1486276398.637,64.453,35.645,27.344,45.410,2.930,0
1486276398.641,56.641,31.738,22.949,46.387,57.617,0
1486276398.644,57.129,35.156,34.180,46.387,17.578,0
1486276398.648,61.523,40.039,39.551,47.363,-13.184,0
1486276398.652,71.289,40.527,41.016,56.152,-4.883,0
1486276398.656,76.660,38.574,37.598,59.082,-15.137,0
1486276398.660,74.219,41.504,39.062,47.363,3.906,0
1486276398.664,67.383,34.668,43.945,39.551,11.719,0
1486276398.668,66.406,33.691,48.340,35.156,-0.977,0
1486276398.672,65.918,29.297,50.293,31.250,16.602,0
1486276398.676,57.617,23.438,40.039,41.016,4.395,0
1486276398.680,64.453,29.297,40.527,41.992,-8.301,0
1486276398.684,62.012,30.273,46.875,20.996,-31.250,0
1486276398.687,53.223,29.785,43.457,18.066,-24.902,0
1486276398.691,60.547,33.691,41.016,33.203,42.480,0
1486276398.695,63.477,34.668,44.434,36.621,48.340,0
1486276398.699,61.523,38.086,50.781,39.551,38.574,3
1486276398.703,63.477,41.016,44.434,36.621,4.395,0
1486276398.707,67.871,40.527,32.715,32.715,-27.344,0
1486276398.711,74.219,40.039,33.203,42.480,-40.527,0
1486276398.715,77.148,36.621,35.645,42.969,-33.203,0
1486276398.719,75.195,33.203,36.133,35.645,21.973,0
1486276398.723,66.895,30.273,36.621,29.785,46.387,0
1486276398.726,62.988,32.715,31.250,25.879,35.156,0
1486276398.730,68.848,42.480,35.645,34.668,66.895,0
1486276398.734,76.172,46.875,46.875,44.922,95.703,0
1486276398.738,75.195,44.434,43.457,36.133,80.078,0
1486276398.742,66.895,39.062,33.203,35.645,29.785,0
1486276398.746,61.035,36.621,39.062,43.457,-39.062,0
1486276398.750,62.012,41.016,37.109,38.086,-0.977,0
1486276398.754,69.336,48.340,31.738,37.598,65.918,0
1486276398.758,71.777,49.316,44.434,41.504,78.613,0
1486276398.762,64.453,46.387,49.316,34.180,74.219,0
1486276398.766,56.152,46.387,44.434,29.785,80.566,0
1486276398.769,53.711,44.434,40.039,36.621,28.809,0
1486276398.773,52.246,44.434,44.434,33.691,-1.953,0
1486276398.777,51.270,44.434,50.293,27.344,70.312,0
1486276398.781,55.664,43.945,44.922,30.762,42.480,0
1486276398.785,65.430,45.410,39.062,34.180,29.785,0
1486276398.789,68.848,47.363,49.805,39.062,14.648,0
1486276398.793,67.383,51.758,53.711,44.922,-13.672,0
1486276398.797,62.012,49.316,39.062,41.504,-22.461,0
1486276398.801,61.035,45.410,49.316,37.109,-13.672,0
1486276398.805,61.523,41.016,65.430,37.109,-5.371,0
1486276398.809,61.523,41.504,60.547,39.551,-0.488,0
1486276398.812,65.918,42.969,57.129,39.551,0.977,0
1486276398.816,62.500,36.133,57.617,35.645,-39.062,0
1486276398.820,61.035,34.668,55.664,33.691,-18.066,0
1486276398.824,61.523,37.109,50.781,40.039,-39.062,0
1486276398.828,60.547,33.691,37.109,37.109,-24.414,0
1486276398.832,62.988,36.621,37.598,31.250,18.555,0
1486276398.836,60.547,40.527,48.828,35.156,-1.465,0
1486276398.840,54.199,34.180,50.293,31.738,45.410,0
1486276398.844,48.828,31.738,38.086,20.020,34.180,0
1486276398.848,46.875,34.668,25.391,14.648,0.977,0
1486276398.851,46.875,31.250,25.879,21.484,9.766,0
1486276398.855,43.457,26.367,25.879,16.113,1.465,0
1486276398.859,52.734,29.785,25.391,13.184,41.504,0
1486276398.863,48.340,28.809,21.484,25.391,40.527,0
1486276398.867,38.086,23.438,21.484,27.344,-11.230,0
1486276398.871,43.457,30.273,34.668,29.785,63.965,0
1486276398.875,47.852,33.691,42.480,33.203,51.270,0
1486276398.879,44.922,35.156,42.969,28.320,27.832,0
1486276398.883,42.480,38.574,41.992,18.066,77.637,0
1486276398.887,46.875,32.227,47.852,7.324,29.297,0
1486276398.891,52.734,33.203,40.527,14.648,13.672,0
1486276398.894,52.734,43.945,27.344,23.926,26.367,0
1486276398.898,46.387,36.133,32.715,19.043,31.250,0
1486276398.902,45.410,28.809,30.273,20.020,2.930,0
1486276398.906,45.410,34.668,31.250,23.438,-31.738,0
1486276398.910,41.992,31.250,43.945,23.926,-4.395,0
1486276398.914,40.527,30.762,45.898,24.414,35.156,0
1486276398.918,49.805,33.691,42.480,22.949,-7.324,0
1486276398.922,50.781,35.156,44.434,21.973,-6.836,0
1486276398.926,44.434,34.180,40.039,19.531,64.941,0
1486276398.930,41.992,27.832,25.879,10.742,66.895,0
1486276398.934,40.527,25.391,28.809,8.301,47.363,0
1486276398.937,44.434,24.902,38.574,10.742,61.035,0
1486276398.941,44.922,26.855,35.645,6.348,54.688,0
1486276398.945,41.992,30.762,36.133,1.953,21.973,0
1486276398.949,40.527,30.273,32.227,1.953,2.930,0
1486276398.953,41.504,28.320,33.691,5.859,-23.438,0
1486276398.957,40.039,29.785,35.645,4.395,13.184,0
1486276398.961,41.504,28.809,29.785,2.441,24.902,0
1486276398.965,45.898,25.879,32.715,7.812,26.855,0
1486276398.969,39.062,23.438,29.785,8.301,10.742,0
1486276398.973,35.156,23.438,12.695,-1.465,-53.711,0
1486276398.976,39.551,24.902,16.602,1.465,-93.262,0
1486276398.980,37.109,24.902,33.691,11.230,-28.320,0
1486276398.984,36.133,29.297,41.504,14.160,-1.953,0
1486276398.988,42.480,36.133,44.922,18.066,20.996,0
1486276398.992,50.781,35.645,41.992,23.438,19.043,0
1486276398.996,55.664,32.715,27.344,19.043,-20.508,0
1486276399.000,61.035,35.645,16.602,15.625,22.461,0
1486276399.004,60.547,32.715,24.902,24.414,29.297,0
1486276399.008,48.340,23.926,37.109,25.391,10.254,0
1486276399.012,45.898,25.879,36.621,24.414,2.441,0
1486276399.016,50.781,28.809,35.156,29.297,63.477,0
1486276399.019,49.316,30.762,30.273,30.762,55.664,0
1486276399.023,56.152,31.250,26.367,21.973,-3.418,0
1486276399.027,62.500,28.320,31.250,22.949,3.418,0
1486276399.031,56.641,30.273,11.719,25.879,-28.809,0
1486276399.035,49.805,34.180,9.277,19.531,36.621,0
1486276399.039,42.480,30.273,40.527,16.113,92.285,0
1486276399.043,40.527,26.367,46.387,12.207,28.809,0
1486276399.047,44.434,27.832,42.969,19.043,8.789,0
1486276399.051,46.875,31.250,49.805,21.973,57.129,0
1486276399.055,41.992,33.203,39.551,18.555,36.133,0
1486276399.059,41.504,27.832,38.086,20.020,10.742,0
1486276399.062,44.434,26.855,49.805,22.461,53.223,0
1486276399.066,40.039,27.344,51.270,20.020,62.988,0
1486276399.070,39.551,23.438,47.852,17.578,20.020,0
1486276399.074,38.574,23.926,48.828,20.508,13.672,0
1486276399.078,33.203,24.414,46.875,16.602,21.973,0
1486276399.082,33.691,25.391,39.062,23.926,42.969,0
1486276399.086,29.785,26.855,38.086,34.180,53.711,0
1486276399.090,30.273,22.949,39.062,35.645,23.438,0
1486276399.094,37.109,17.090,38.574,33.691,-11.719,0
1486276399.098,42.480,20.996,41.016,29.785,-14.648,0
1486276399.101,47.852,21.973,31.250,31.250,32.227,0
1486276399.105,54.688,22.461,19.531,43.945,18.066,0
1486276399.109,56.641,26.367,32.715,56.641,5.371,0
1486276399.113,54.688,31.250,47.852,45.898,45.898,0
1486276399.117,61.035,27.344,44.434,43.945,41.504,0
1486276399.121,52.246,20.020,31.738,52.734,28.809,0
1486276399.125,46.875,24.902,28.809,54.688,39.551,0
1486276399.129,53.711,23.926,26.367,52.734,-26.855,0
1486276399.133,46.875,19.531,30.762,47.363,-30.273,0
1486276399.137,50.293,23.438,37.109,52.734,-22.949,0
1486276399.141,50.293,22.461,35.156,48.340,-81.543,0
1486276399.144,42.480,18.555,32.227,41.504,-26.855,0
1486276399.148,46.875,23.438,30.762,43.945,-14.648,0
1486276399.152,47.852,24.414,33.203,46.875,11.719,0
1486276399.156,49.805,24.902,37.109,47.363,26.367,0
1486276399.160,56.152,23.926,31.738,42.480,-20.996,0
1486276399.164,57.617,18.555,35.645,43.457,1.465,0
1486276399.168,40.527,4.395,36.621,40.527,26.855,0
1486276399.172,33.203,-8.789,25.391,34.180,-0.977,0
1486276399.176,46.875,-1.953,28.320,33.691,6.348,0
1486276399.180,45.410,2.441,33.691,29.785,16.113,0
1486276399.184,31.250,2.441,29.785,24.902,19.043,0
1486276399.187,23.926,4.395,18.066,25.879,46.875,0
1486276399.191,34.180,9.766,18.555,38.086,60.547,0
1486276399.195,42.969,13.184,24.414,42.969,29.785,0
1486276399.199,41.016,15.625,25.391,46.387,23.926,4
1486276399.203,42.480,16.602,38.574,47.363,-16.602,0
1486276399.207,43.945,15.137,41.504,35.645,-35.156,0
1486276399.211,40.039,23.926,43.457,35.156,36.133,0
1486276399.215,38.086,29.785,52.734,40.039,42.480,0
1486276399.219,42.969,29.297,52.734,41.992,16.602,0
1486276399.223,42.480,18.066,46.875,34.668,-5.859,0
1486276399.226,32.227,12.695,42.480,34.668,27.344,0
1486276399.230,31.250,18.066,31.250,32.715,30.273,0
1486276399.234,37.109,17.578,27.832,19.531,44.434,0
1486276399.238,39.551,24.414,33.691,27.832,42.480,0
1486276399.242,36.133,27.344,36.133,42.969,50.293,0
1486276399.246,39.551,23.926,38.086,41.016,70.801,0
1486276399.250,50.293,26.367,41.504,38.574,59.082,0
1486276399.254,51.758,27.832,41.504,37.109,43.945,0
1486276399.258,51.758,29.297,35.156,35.645,-11.719,0
1486276399.262,53.711,26.855,35.156,31.250,-38.574,0
1486276399.266,53.223,32.227,19.531,27.832,-20.508,0
1486276399.269,48.340,33.203,10.742,23.926,20.020,0
1486276399.273,49.316,24.902,35.156,22.949,12.207,0
1486276399.277,53.223,26.855,49.805,34.668,35.645,0
1486276399.281,56.641,27.832,39.551,34.180,62.012,0
1486276399.285,59.570,26.367,30.762,25.879,-4.395,0
1486276399.289,59.570,26.367,29.785,30.273,0.000,0
1486276399.293,61.523,31.738,25.391,39.062,41.016,0
1486276399.297,62.500,33.691,27.832,40.527,23.438,0
1486276399.301,61.523,37.598,36.621,36.133,70.801,0
1486276399.305,61.523,41.016,36.133,28.320,64.941,0
1486276399.309,61.523,39.551,37.598,32.715,4.883,0
1486276399.312,63.477,39.062,39.551,41.992,9.766,0
1486276399.316,56.152,37.109,42.480,41.992,17.090,0
1486276399.320,46.875,38.086,48.828,42.969,-0.488,0
1486276399.324,50.293,43.945,60.059,45.898,45.410,0
1486276399.328,58.594,39.062,59.570,40.527,64.941,0
1486276399.332,58.594,33.691,46.387,30.762,10.254,0
1486276399.336,55.664,40.039,45.410,24.902,-1.953,0
1486276399.340,55.664,39.551,32.227,24.902,-23.438,0
1486276399.344,52.734,39.062,25.879,20.996,-20.508,0
1486276399.348,42.480,41.016,46.387,14.648,-2.930,0
1486276399.351,39.551,38.574,50.781,20.020,-1.953,0
1486276399.355,49.805,39.062,41.992,22.461,44.434,0
1486276399.359,47.363,36.133,35.156,14.160,47.852,0
1486276399.363,41.016,27.344,30.273,5.371,35.156,0
1486276399.367,41.016,25.879,36.621,5.859,18.555,0
1486276399.371,41.504,30.762,40.039,10.742,-17.090,0
1486276399.375,50.293,25.879,37.598,13.184,9.766,0
1486276399.379,51.270,30.273,42.969,21.973,20.020,0
1486276399.383,46.387,43.945,42.969,27.832,3.418,0
1486276399.387,46.387,41.016,33.203,26.367,-13.672,0
1486276399.391,46.387,34.668,34.668,20.508,24.902,0
1486276399.394,47.852,34.180,45.898,21.484,54.199,0
1486276399.398,55.664,33.691,37.598,28.320,55.176,0
1486276399.402,62.500,37.109,31.250,37.109,50.781,0
1486276399.406,54.199,36.133,38.574,41.016,18.066,0
1486276399.410,53.223,33.691,39.062,39.551,23.926,0
1486276399.414,58.105,30.762,34.668,37.109,62.500,0
1486276399.418,61.523,23.926,39.062,36.621,35.645,0
1486276399.422,64.941,25.879,47.363,43.457,-37.109,0
1486276399.426,66.406,27.832,46.875,49.805,35.645,0
1486276399.430,68.359,23.926,40.039,44.922,41.016,0
1486276399.434,68.359,22.949,31.250,42.480,12.695,0
1486276399.437,59.570,26.855,34.668,48.828,4.883,0
1486276399.441,52.246,28.320,41.992,45.898,28.320,0
1486276399.445,60.059,23.926,36.133,47.363,46.875,0
1486276399.449,61.523,23.926,27.832,52.246,13.672,0
1486276399.453,54.688,22.461,26.367,51.758,22.949,0
1486276399.457,49.805,20.508,27.832,42.480,-1.953,0
1486276399.461,50.293,21.973,27.344,29.785,-28.320,0
1486276399.465,47.363,16.113,26.367,27.832,-33.203,0
1486276399.469,43.457,23.438,30.762,34.180,-0.488,0
1486276399.473,37.598,30.273,34.180,37.109,38.574,0
1486276399.476,30.273,22.461,27.344,39.062,2.441,0
1486276399.480,38.574,26.855,32.227,47.852,27.344,0
1486276399.484,43.945,29.297,45.898,47.852,42.480,0
1486276399.488,40.039,26.367,34.668,40.527,36.133,0
1486276399.492,35.156,23.926,32.715,36.133,53.223,0
1486276399.496,37.109,22.461,44.434,23.438,22.949,0
1486276399.500,38.086,21.973,42.969,16.602,38.086,0
1486276399.504,36.621,24.414,39.551,18.066,23.438,0
1486276399.508,34.668,22.949,35.156,18.555,41.016,0
1486276399.512,31.738,18.555,31.250,15.625,41.992,0
1486276399.516,36.133,17.578,34.668,18.555,-24.414,0
1486276399.519,41.992,20.996,34.180,20.508,-22.949,0
1486276399.523,49.316,21.973,37.109,9.277,0.000,0
1486276399.527,52.246,17.090,37.109,11.230,-9.277,0
1486276399.531,46.387,18.066,37.109,14.648,20.996,0
1486276399.535,47.363,19.043,36.133,13.672,9.277,0
1486276399.539,43.457,19.043,30.762,10.254,-4.395,0
1486276399.543,35.645,21.484,33.203,9.277,40.527,0
1486276399.547,39.551,22.949,36.621,21.973,7.324,0
1486276399.551,42.480,22.461,32.715,24.414,-5.371,0
1486276399.555,38.574,20.996,30.762,16.602,40.039,0
1486276399.559,37.598,17.090,37.109,22.949,42.480,0
1486276399.562,35.156,13.672,37.109,27.344,29.297,0
1486276399.566,35.645,16.602,29.297,24.414,28.320,0
1486276399.570,39.551,24.902,23.926,14.648,6.348,0
1486276399.574,30.762,24.902,31.250,14.648,-4.395,0
1486276399.578,31.250,20.020,36.621,24.414,3.418,0
1486276399.582,42.480,25.391,39.551,26.855,9.277,0
1486276399.586,47.852,32.715,43.945,23.926,3.418,0
1486276399.590,50.293,34.180,41.504,23.438,38.086,0
1486276399.594,55.176,31.738,38.574,20.020,13.672,0
1486276399.598,60.547,31.738,42.969,20.508,-44.922,0
1486276399.601,51.758,34.180,55.176,23.438,30.762,0
1486276399.605,44.434,33.691,62.988,27.344,60.059,0
1486276399.609,38.574,27.344,57.129,23.438,47.363,0
1486276399.613,40.039,31.250,54.199,20.020,57.617,0
1486276399.617,48.828,34.668,54.199,25.391,65.430,0
1486276399.621,48.340,27.832,50.781,24.902,42.480,0
1486276399.625,62.012,30.762,40.527,22.949,2.930,0
1486276399.629,72.266,40.039,37.598,23.926,23.438,0
1486276399.633,50.781,38.086,43.457,22.949,35.156,0
1486276399.637,38.574,30.762,48.828,11.230,41.504,0
1486276399.641,38.086,32.715,46.387,3.418,26.855,0
1486276399.644,37.598,33.691,47.852,7.812,38.086,0
1486276399.648,41.992,32.715,62.988,16.113,63.477,0
1486276399.652,44.434,32.715,67.383,16.602,0.977,0
1486276399.656,50.781,31.250,66.895,14.160,-12.695,0
1486276399.660,48.340,35.156,60.059,20.020,59.082,0
1486276399.664,37.598,41.992,55.176,25.391,48.340,0
1486276399.668,41.504,40.039,51.270,24.902,4.883,0
1486276399.672,44.922,32.715,42.969,15.625,-31.738,0
1486276399.676,43.457,33.691,37.598,12.695,-49.316,0
1486276399.680,51.758,33.691,41.016,13.184,-12.207,0
1486276399.684,56.152,34.668,41.992,6.836,-11.719,0
1486276399.687,51.758,36.133,38.086,11.719,-3.906,0
1486276399.691,44.922,35.156,38.086,16.602,7.324,0
1486276399.695,51.270,33.691,40.527,19.043,34.180,0
1486276399.699,60.059,32.715,36.621,24.414,18.555,5
1486276399.703,57.617,36.133,42.480,28.320,-41.504,0
1486276399.707,62.988,49.805,51.758,35.156,-32.715,0
1486276399.711,57.129,49.316,42.480,27.832,30.273,0
1486276399.715,54.688,39.062,37.109,25.391,20.020,0
1486276399.719,64.453,41.016,44.434,34.180,15.625,0
1486276399.723,60.059,44.922,41.016,28.809,32.715,0
1486276399.726,55.664,40.527,39.551,29.297,21.484,0
1486276399.730,66.895,36.133,44.434,40.039,-4.883,0
1486276399.734,71.289,39.062,41.504,36.133,5.859,0
1486276399.738,71.777,41.016,35.156,33.203,57.129,0
1486276399.742,71.777,44.434,42.480,33.691,45.410,0
1486276399.746,64.941,43.457,46.875,33.203,15.137,0
1486276399.750,57.617,44.922,47.363,32.715,27.832,0
1486276399.754,50.293,48.340,56.641,29.297,66.895,0
1486276399.758,52.734,50.293,50.781,28.320,2.930,0
1486276399.762,51.758,47.363,45.898,27.832,-28.320,0
1486276399.766,48.340,35.156,51.270,23.926,5.371,0
1486276399.769,49.316,32.227,56.152,27.344,-4.883,0
1486276399.773,50.293,36.133,48.828,30.273,-52.734,0
1486276399.777,50.293,35.645,33.203,27.832,-12.695,0
1486276399.781,50.293,33.203,45.898,25.391,31.738,0
1486276399.785,52.734,36.621,58.594,23.438,16.602,0
1486276399.789,56.152,40.527,54.199,26.367,-42.480,0
1486276399.793,54.688,42.969,56.152,26.855,-71.289,0
1486276399.797,52.734,40.527,61.035,35.645,44.434,0
1486276399.801,50.781,40.527,58.105,44.922,49.805,0
1486276399.805,48.828,45.410,56.152,39.062,32.715,0
1486276399.809,51.758,42.480,54.688,30.762,-2.441,0
1486276399.812,60.547,41.016,56.152,35.156,16.113,0
1486276399.816,63.965,41.992,58.105,41.016,60.547,0
1486276399.820,57.129,37.109,63.965,39.551,26.367,0
1486276399.824,59.082,43.457,65.918,39.062,67.383,0
1486276399.828,65.918,51.270,59.082,46.387,42.969,0
1486276399.832,70.801,45.410,57.129,42.480,8.301,0
1486276399.836,74.219,41.016,56.152,33.203,60.547,0
1486276399.840,80.078,50.781,58.594,40.039,61.523,0
1486276399.844,73.730,48.340,52.734,37.109,25.391,0
1486276399.848,64.941,40.527,34.180,29.785,-19.531,0
1486276399.851,65.918,38.574,43.457,37.109,-64.453,0
1486276399.855,64.941,41.504,63.477,44.922,-24.902,0
1486276399.859,71.289,45.898,64.941,45.898,40.039,0
1486276399.863,72.266,34.180,52.246,41.992,45.898,0
1486276399.867,64.453,30.273,42.480,39.551,-20.020,0
1486276399.871,59.570,35.645,40.039,36.621,-54.199,0
1486276399.875,66.895,38.574,38.574,35.645,-33.203,0
1486276399.879,71.289,41.992,47.363,36.621,26.367,0
1486276399.883,64.453,40.527,45.898,32.715,45.898,0
1486276399.887,57.129,39.551,38.086,31.250,44.922,0
1486276399.891,48.340,39.551,33.203,29.785,12.207,0
1486276399.894,45.898,38.574,38.574,27.344,-34.668,0
1486276399.898,51.758,34.668,41.016,29.297,-4.883,0
1486276399.902,56.641,39.062,31.738,33.203,30.273,0
1486276399.906,57.129,40.527,41.992,28.809,2.930,0
1486276399.910,59.570,27.832,55.176,30.273,-2.930,0
1486276399.914,58.105,30.762,53.223,33.691,48.828,0
1486276399.918,60.059,41.504,49.316,37.109,27.344,0
1486276399.922,64.941,44.922,50.781,47.852,9.766,0
1486276399.926,63.477,40.527,62.500,45.410,30.273,0
1486276399.930,63.477,35.645,72.754,41.504,24.902,0
1486276399.934,63.965,38.574,76.172,49.316,22.949,0
1486276399.937,60.059,45.898,69.336,52.246,26.855,0
1486276399.941,56.152,44.434,66.895,47.363,58.594,0
1486276399.945,59.570,45.410,64.941,40.527,34.668,0
1486276399.949,60.547,44.434,61.523,39.551,20.996,0
1486276399.953,60.547,42.969,58.594,35.156,37.598,0
1486276399.957,63.477,49.805,60.059,27.832,-13.672,0
1486276399.961,60.059,44.922,62.012,31.250,-8.789,0
1486276399.965,60.547,42.969,49.805,41.016,12.695,0
1486276399.969,70.801,45.410,41.992,46.387,-1.465,0
1486276399.973,72.266,42.480,52.734,40.039,-22.949,0
1486276399.976,63.477,39.551,51.758,35.156,-15.137,0
1486276399.980,59.082,40.527,49.316,30.762,-37.598,0
1486276399.984,56.152,43.457,56.152,27.832,-27.832,0
1486276399.988,52.734,45.898,63.477,28.320,-15.137,0
1486276399.992,55.664,47.363,60.059,32.227,-21.484,0
1486276399.996,56.152,46.387,54.199,36.621,-1.953,0
1486276400.000,56.152,40.527,55.176,35.645,52.246,0
1486276400.004,62.012,43.945,55.664,33.203,38.086,0
1486276400.008,52.734,45.898,58.594,37.598,-5.859,0
1486276400.012,43.945,38.086,63.477,32.227,38.086,0
1486276400.016,54.688,39.551,62.012,28.320,51.270,0
1486276400.019,54.688,42.969,56.152,31.738,37.598,0
1486276400.023,56.641,40.527,44.922,33.203,16.602,0
1486276400.027,63.965,42.969,43.457,39.551,34.668,0
1486276400.031,64.941,50.293,59.570,40.527,45.410,0
1486276400.035,66.895,51.270,57.129,40.039,12.695,0
1486276400.039,70.801,48.828,50.781,42.969,52.246,0
1486276400.043,67.383,45.410,52.734,40.527,71.289,0
1486276400.047,61.523,42.969,51.758,42.480,36.133,0
1486276400.051,62.012,40.527,51.270,44.922,6.348,0
1486276400.055,62.500,44.922,50.293,43.945,17.090,0
1486276400.059,64.941,48.828,54.199,45.898,-9.766,0
1486276400.062,71.289,43.945,56.641,49.316,18.555,0
1486276400.066,69.336,48.828,53.711,44.434,45.898,0
1486276400.070,69.336,56.641,56.641,47.363,-0.977,0
1486276400.074,71.777,56.152,62.988,48.828,43.457,0
1486276400.078,61.035,53.223,60.547,36.621,49.316,0
1486276400.082,51.270,52.246,59.570,39.551,23.926,0
1486276400.086,52.734,48.340,53.711,35.156,16.602,0
1486276400.090,60.059,43.945,46.387,21.484,6.348,0
1486276400.094,58.594,43.457,50.781,25.391,15.625,0
1486276400.098,56.152,42.480,48.828,26.367,12.695,0
1486276400.101,57.129,46.875,40.039,26.367,65.918,0
1486276400.105,56.641,49.316,45.898,26.855,71.289,0
1486276400.109,61.035,42.969,57.617,23.926,51.270,0
1486276400.113,62.012,41.504,52.246,24.902,28.320,0
1486276400.117,54.688,39.551,56.641,25.879,58.105,0
1486276400.121,52.734,40.527,61.035,27.344,96.191,0
1486276400.125,56.641,41.504,59.570,32.715,6.348,0
1486276400.129,59.082,41.016,56.641,32.227,4.395,0
1486276400.133,58.594,41.016,46.875,30.762,76.660,0
1486276400.137,54.199,41.016,49.805,32.715,79.102,0
1486276400.141,56.152,36.621,52.734,23.926,61.035,0
1486276400.144,53.711,33.691,48.828,19.043,71.289,0
1486276400.148,49.316,34.180,44.922,25.391,55.664,0
1486276400.152,51.270,34.668,50.293,22.949,40.527,0
1486276400.156,55.176,35.156,51.270,24.902,40.527,0
1486276400.160,56.152,36.621,45.898,32.715,41.504,0
1486276400.164,49.805,25.391,43.457,26.855,20.508,0
1486276400.168,50.781,20.508,35.156,25.391,15.625,0
1486276400.172,56.152,28.809,31.250,29.297,3.906,0
1486276400.176,50.781,32.227,46.875,27.344,-28.809,0
1486276400.180,45.898,26.367,52.246,26.367,20.996,0
1486276400.184,49.805,25.879,42.969,24.902,25.879,0
1486276400.187,54.199,34.668,43.945,20.020,4.883,0
1486276400.191,52.734,41.504,41.504,18.555,56.641,0
1486276400.195,57.129,39.062,33.691,25.391,26.367,0
1486276400.199,55.664,33.691,45.898,22.461,29.297,0
1486276400.203,50.293,35.156,59.082,20.508,38.574,0
1486276400.207,53.711,35.156,60.059,18.066,11.719,0
1486276400.211,53.711,37.598,58.594,17.090,0.000,0
1486276400.215,57.617,36.621,55.176,18.555,8.789,0
1486276400.219,56.152,30.762,51.270,18.555,17.578,0
1486276400.223,53.711,32.715,52.734,23.926,20.508,0
1486276400.226,54.688,33.203,48.828,20.508,16.602,0
1486276400.230,53.711,29.785,44.922,17.578,-49.316,0
1486276400.234,59.570,36.133,47.852,26.367,-47.363,0
1486276400.238,62.012,40.039,38.086,28.320,27.344,0
1486276400.242,63.965,42.969,37.598,19.043,63.965,0
1486276400.246,60.547,49.805,42.480,18.555,40.527,0
1486276400.250,56.152,48.340,41.992,30.762,23.926,0
1486276400.254,58.105,39.062,44.434,34.180,49.316,0
1486276400.258,64.453,37.598,40.527,36.621,23.438,0
1486276400.262,63.477,39.062,41.992,37.109,39.062,0
1486276400.266,62.988,41.016,44.434,29.297,71.777,0
1486276400.269,65.918,38.086,36.133,25.879,5.859,0
1486276400.273,62.012,33.691,34.668,30.762,-43.457,0
1486276400.277,54.199,36.133,48.340,29.785,-6.836,0
1486276400.281,49.805,39.062,46.875,18.555,8.301,0
1486276400.285,59.570,40.527,39.551,20.508,-20.020,0
1486276400.289,57.617,42.480,42.969,30.762,-11.719,0
1486276400.293,44.922,41.016,38.086,32.715,25.879,0
1486276400.297,44.922,35.156,36.621,31.250,76.660,0
1486276400.301,43.457,30.762,39.551,28.809,68.848,0
1486276400.305,37.598,29.297,39.551,28.809,24.902,0
1486276400.309,43.457,30.273,38.086,27.832,86.914,0
1486276400.312,46.387,34.180,31.738,26.367,80.566,0
1486276400.316,44.434,37.598,21.973,25.879,8.789,0
1486276400.320,44.922,44.922,35.645,28.809,36.133,0
1486276400.324,41.016,44.434,49.316,26.855,78.613,0
1486276400.328,38.574,35.645,36.621,25.391,59.570,0
1486276400.332,40.039,36.133,31.738,30.762,27.344,0
1486276400.336,35.156,37.598,41.016,27.344,25.391,0
1486276400.340,32.227,38.086,40.527,16.113,21.973,0
1486276400.344,33.691,33.203,28.809,8.789,20.508,0
1486276400.348,35.645,27.832,23.926,6.348,20.020,0
1486276400.351,34.180,28.320,28.809,4.883,74.707,0
1486276400.355,34.180,28.809,28.809,2.930,98.633,0
1486276400.359,40.039,32.715,30.273,9.277,64.453,0
1486276400.363,39.062,29.785,29.785,9.277,59.570,0
1486276400.367,37.109,30.273,29.785,8.789,34.180,0
1486276400.371,40.039,36.621,32.227,14.648,30.273,0
1486276400.375,45.410,37.109,22.949,6.348,47.363,0
1486276400.379,42.969,34.180,27.344,4.395,23.438,0
1486276400.383,42.969,32.715,38.574,8.301,-6.836,0
1486276400.387,42.480,31.738,34.668,6.348,-48.340,0
1486276400.391,44.922,33.203,30.273,6.836,-8.301,0
1486276400.394,45.410,35.645,38.086,9.277,86.914,0
1486276400.398,38.574,35.156,40.527,2.930,88.379,0
1486276400.402,38.086,31.738,31.738,-0.977,22.949,0
1486276400.406,46.387,33.203,31.738,-4.395,4.883,0
1486276400.410,46.875,33.691,31.250,-3.906,-0.488,0
1486276400.414,44.922,37.109,36.621,4.395,-2.930,0
1486276400.418,47.852,41.992,30.762,6.348,0.977,0
1486276400.422,45.410,41.504,20.508,4.395,-16.602,0
1486276400.426,41.992,40.527,28.320,5.859,-0.977,0
1486276400.430,37.109,39.551,28.809,4.395,62.012,0
1486276400.434,38.086,34.668,24.902,0.488,29.297,0
1486276400.437,40.527,26.367,23.438,0.977,-37.109,0
1486276400.441,39.062,24.414,18.555,0.488,0.488,0
1486276400.445,42.969,26.855,16.602,0.977,-18.066,0
1486276400.449,44.434,32.227,18.555,7.812,-61.035,0
1486276400.453,44.922,33.691,19.043,10.254,4.883,0
1486276400.457,45.898,35.156,28.320,11.230,25.391,0
1486276400.461,47.363,36.133,34.180,12.695,-7.324,0
1486276400.465,54.199,36.621,35.645,12.207,16.602,0
1486276400.469,55.664,40.527,23.438,13.672,44.434,0
1486276400.473,51.270,40.039,8.789,15.625,59.082,0
1486276400.476,45.898,40.039,28.809,11.719,7.812,0
1486276400.480,50.293,40.039,43.457,11.719,-11.719,0
1486276400.484,50.781,32.715,36.133,15.137,41.992,0
1486276400.488,55.176,31.738,32.715,14.648,-5.859,0
1486276400.492,55.664,33.691,30.273,14.648,2.930,0
1486276400.496,47.363,34.668,27.832,18.066,0.977,0
1486276400.500,43.945,35.156,33.203,21.973,-8.789,0
1486276400.504,40.039,33.691,37.109,22.461,14.160,0
1486276400.508,39.551,22.461,25.879,22.461,-0.488,0
1486276400.512,46.387,20.996,25.391,25.391,-0.977,0
1486276400.516,52.734,31.738,34.180,26.855,35.156,0
1486276400.519,52.246,35.645,32.227,23.926,5.371,0
1486276400.523,51.758,31.738,34.668,17.090,-6.348,0
1486276400.527,53.711,29.297,41.016,18.555,52.246,0
1486276400.531,48.340,26.367,43.945,18.555,70.312,0
1486276400.535,37.109,25.879,41.016,15.625,36.133,0
1486276400.539,38.574,25.879,38.574,16.113,17.578,0
1486276400.543,45.410,25.391,45.410,24.414,38.086,0
1486276400.547,47.363,31.738,46.875,26.855,28.320,0
1486276400.551,45.410,36.621,39.062,20.020,21.484,0
1486276400.555,42.480,36.133,34.668,19.043,2.930,0
1486276400.559,45.410,37.109,39.062,16.113,-2.441,0
1486276400.562,41.016,37.598,40.527,13.184,-23.926,0
1486276400.566,37.598,39.062,31.250,15.625,-5.371,0
1486276400.570,35.156,33.203,26.367,15.137,62.500,0
1486276400.574,25.879,21.484,26.367,11.230,48.828,0
1486276400.578,23.438,20.020,22.949,8.301,-11.230,0
1486276400.582,28.809,22.461,17.578,2.441,13.184,0
1486276400.586,34.180,24.414,26.367,4.395,7.324,0
1486276400.590,28.809,23.926,44.434,7.324,19.043,0
1486276400.594,24.414,22.949,49.316,-2.930,60.547,0
1486276400.598,24.414,23.438,45.410,-5.371,17.578,0
1486276400.601,29.297,25.879,45.410,1.465,-34.180,0
1486276400.605,34.668,26.367,43.945,8.789,-21.484,0
1486276400.609,33.691,24.902,40.039,12.695,15.137,0
1486276400.613,42.480,27.344,39.551,16.113,61.523,0
1486276400.617,41.992,32.715,39.551,20.996,31.250,0
1486276400.621,29.297,25.391,32.227,16.602,-10.742,0
1486276400.625,27.344,17.090,25.879,7.812,13.184,0
1486276400.629,35.156,18.555,29.785,6.348,62.012,0
1486276400.633,39.062,18.555,32.715,9.766,56.152,0
1486276400.637,37.109,24.902,31.250,8.789,47.363,0
1486276400.641,38.086,25.879,36.621,5.859,20.508,0
1486276400.644,40.527,24.414,41.016,9.277,26.855,0
1486276400.648,49.316,27.344,44.434,14.160,55.664,0
1486276400.652,52.246,28.809,44.922,13.672,32.227,0
1486276400.656,55.664,33.203,40.039,17.090,40.527,0
1486276400.660,61.035,32.227,38.574,19.043,40.527,0
1486276400.664,55.176,27.344,39.062,20.020,37.109,0
1486276400.668,44.434,31.738,36.621,20.996,25.391,0
1486276400.672,41.016,28.809,30.762,18.066,28.320,0
1486276400.676,45.410,29.297,33.203,21.973,25.879,0
1486276400.680,43.457,35.156,33.691,29.785,14.648,0
1486276400.684,41.504,34.668,24.902,34.180,16.113,0
1486276400.687,36.621,32.227,23.438,34.180,92.773,0
1486276400.691,33.203,31.250,27.832,25.879,88.867,0
1486276400.695,37.109,34.180,32.715,21.973,15.137,0
1486276400.699,43.457,38.086,41.992,29.785,6.348,0
1486276400.703,48.340,33.203,47.363,37.109,37.598,0
1486276400.707,53.223,34.668,47.363,35.645,41.992,0
1486276400.711,48.828,37.598,47.363,30.762,54.688,0
1486276400.715,44.434,37.109,47.852,35.645,0.977,0
1486276400.719,52.246,39.062,46.875,39.551,-27.344,0
1486276400.723,56.641,39.551,46.875,37.598,0.488,0
1486276400.726,48.828,35.645,41.504,32.715,-6.836,0
1486276400.730,44.922,32.227,40.039,20.020,19.043,0
1486276400.734,49.805,35.645,40.527,18.066,35.645,0
1486276400.738,46.387,36.133,33.203,21.973,-7.324,0
1486276400.742,41.504,36.621,38.574,16.113,-10.742,0
1486276400.746,50.781,38.574,34.668,13.184,34.180,0
1486276400.750,70.312,38.086,32.715,17.578,37.598,0
1486276400.754,77.148,49.316,55.176,35.156,24.902,0
1486276400.758,62.500,48.828,62.500,42.480,28.320,0
1486276400.762,50.781,37.598,54.688,30.273,37.598,0
1486276400.766,55.176,38.574,42.480,19.531,10.742,0
1486276400.769,51.270,39.551,34.668,26.367,-11.230,0
1486276400.773,42.480,40.039,44.922,27.344,-20.996,0
1486276400.777,42.969,37.598,45.410,22.949,-59.570,0
1486276400.781,46.387,36.621,41.504,20.508,-7.812,0
1486276400.785,48.340,36.621,45.410,17.578,62.012,0
1486276400.789,47.852,37.109,41.504,18.066,22.461,0
1486276400.793,48.828,34.668,34.668,19.043,-51.758,0
1486276400.797,57.129,34.668,40.039,18.555,-25.879,0
1486276400.801,61.035,41.992,49.805,23.926,11.230,0
1486276400.805,59.082,43.945,49.316,26.367,0.000,0
1486276400.809,58.594,38.574,42.969,21.484,2.441,0
1486276400.812,65.430,39.062,47.363,20.996,-16.113,0
1486276400.816,70.312,42.969,51.758,24.902,-16.602,0
1486276400.820,66.406,39.062,42.969,22.949,17.578,0
1486276400.824,68.359,37.109,43.457,23.438,8.301,0
1486276400.828,68.848,41.016,51.758,36.133,14.648,0
1486276400.832,60.547,41.992,53.711,43.945,21.973,0
1486276400.836,57.617,41.992,56.152,36.621,17.578,0
1486276400.840,55.176,39.551,60.059,28.320,19.531,0
1486276400.844,49.805,41.016,51.758,22.949,-18.066,0
1486276400.848,52.246,37.598,41.016,16.113,6.348,0
1486276400.851,52.734,32.715,46.875,19.531,1.953,0
1486276400.855,51.270,32.227,49.316,25.391,-29.297,0
1486276400.859,51.758,29.297,49.316,16.602,12.207,0
1486276400.863,50.293,25.391,33.203,8.789,80.078,0
1486276400.867,50.781,22.461,31.738,12.207,53.223,0
1486276400.871,51.758,24.414,47.363,19.531,25.879,0
1486276400.875,46.387,26.367,45.898,28.809,63.965,0
1486276400.879,47.852,31.738,42.480,38.086,28.809,0
1486276400.883,52.246,36.621,41.992,42.480,-0.977,0
1486276400.887,55.176,35.156,45.898,36.133,4.883,0
1486276400.891,57.129,28.809,44.434,32.227,22.461,0
1486276400.894,50.293,26.367,36.621,31.738,6.836,0
1486276400.898,49.805,26.855,33.691,25.391,41.504,0
1486276400.902,51.758,22.461,33.203,16.113,58.594,0
1486276400.906,51.758,22.949,32.715,11.719,27.832,0
1486276400.910,53.711,25.879,33.691,12.695,54.199,0
1486276400.914,47.363,26.855,38.086,18.066,31.738,0
1486276400.918,43.457,31.250,41.016,25.391,-6.836,0
1486276400.922,45.898,40.527,39.551,25.879,28.809,0
1486276400.926,46.387,39.551,38.574,20.508,41.016,0
1486276400.930,50.293,31.738,32.715,17.090,74.219,0
1486276400.934,53.711,32.715,27.344,21.973,84.961,0
1486276400.937,48.340,38.574,28.320,24.902,26.367,0
1486276400.941,45.898,37.598,26.855,26.367,5.371,0
1486276400.945,56.641,28.809,32.227,35.645,32.715,0
1486276400.949,62.500,27.832,39.062,39.062,1.953,0
1486276400.953,59.082,31.738,40.039,43.457,-26.855,0
1486276400.957,66.406,32.715,41.992,38.574,-18.555,0
1486276400.961,72.266,31.250,41.504,32.227,-34.180,0
1486276400.965,65.430,28.320,39.062,36.621,5.371,0
1486276400.969,58.105,28.809,24.902,37.109,38.574,0
1486276400.973,68.848,33.203,22.461,44.434,-9.277,0
1486276400.976,74.707,32.715,44.434,47.852,31.250,0
1486276400.980,70.801,29.785,49.805,38.086,27.832,0
1486276400.984,65.430,30.762,48.340,36.621,-35.645,0
1486276400.988,62.012,27.344,46.875,36.621,-2.441,0
1486276400.992,68.359,27.832,43.457,39.551,60.059,0
1486276400.996,64.941,27.832,38.086,32.227,62.988,0
1486276401.000,55.664,25.391,32.227,25.391,-36.621,0
1486276401.004,47.852,24.414,33.691,24.902,-97.168,0
1486276401.008,43.457,21.484,24.414,13.184,-46.875,0
1486276401.012,42.969,21.973,12.207,12.207,0.488,0
1486276401.016,38.086,21.484,11.230,7.812,-20.508,0
1486276401.019,35.156,18.555,16.113,2.930,3.418,0
1486276401.023,38.086,20.996,26.855,6.348,41.992,0
1486276401.027,35.645,23.438,29.297,6.836,24.414,0
1486276401.031,40.527,23.926,24.414,8.789,2.930,0
1486276401.035,45.898,20.508,26.855,14.648,-15.137,0
1486276401.039,41.016,22.461,32.715,25.391,23.926,0
1486276401.043,37.598,23.926,24.414,20.996,20.996,0
1486276401.047,37.109,20.020,15.137,11.719,-23.926,0
1486276401.051,39.551,19.531,22.461,17.090,-12.695,0
1486276401.055,41.992,20.996,32.227,21.973,-3.418,0
1486276401.059,35.156,20.020,33.691,17.090,53.711,0
1486276401.062,38.086,17.578,30.762,11.719,-7.812,0
1486276401.066,42.969,20.508,41.992,15.625,-12.207,0
1486276401.070,37.598,20.508,44.922,11.719,83.496,0
1486276401.074,41.992,22.461,41.016,13.184,41.504,0
1486276401.078,52.246,26.367,43.457,19.531,11.719,0
1486276401.082,51.758,23.438,47.852,13.184,19.531,0
1486276401.086,34.668,19.531,47.852,11.230,82.520,0
1486276401.090,31.738,26.855,46.387,23.926,67.871,0
1486276401.094,41.992,31.738,47.363,22.949,35.645,0
1486276401.098,47.852,26.855,37.598,16.602,31.250,0
1486276401.101,47.852,26.367,29.785,20.508,45.410,0
1486276401.105,48.828,21.484,29.297,25.879,51.758,0
1486276401.109,49.805,21.973,29.785,28.320,35.156,0
1486276401.113,53.223,33.691,23.438,21.973,37.109,0
1486276401.117,62.012,35.156,22.949,23.438,44.922,0
1486276401.121,55.664,29.297,32.227,26.367,21.484,0
1486276401.125,52.246,31.738,23.438,27.832,-8.301,0
1486276401.129,42.969,29.785,26.367,26.855,8.789,0
1486276401.133,29.785,21.484,37.109,20.996,31.250,0
1486276401.137,32.227,21.973,33.691,20.996,44.434,0
1486276401.141,41.992,24.414,21.973,15.625,1.465,0
1486276401.144,43.945,26.367,10.254,8.301,25.391,0
1486276401.148,46.387,28.809,8.301,8.789,26.855,0
1486276401.152,47.363,27.832,17.578,9.766,13.184,0
1486276401.156,49.316,28.320,19.531,6.348,16.602,0
1486276401.160,44.434,28.809,14.160,5.859,-18.555,0
1486276401.164,33.691,25.879,15.625,8.301,-11.230,0
1486276401.168,31.250,19.043,17.578,0.977,-8.301,0
1486276401.172,33.203,18.555,21.973,-1.465,9.766,0
1486276401.176,39.062,26.855,26.367,4.883,41.016,0
1486276401.180,40.527,30.273,21.973,7.324,62.500,0
1486276401.184,38.574,27.832,21.973,4.395,33.691,0
1486276401.187,37.598,23.438,20.996,2.930,-5.859,0
1486276401.191,36.621,21.484,17.090,6.836,24.902,0
1486276401.195,33.691,25.391,24.902,11.230,49.805,0
1486276401.199,33.691,21.973,25.391,7.812,-5.859,0
1486276401.203,43.945,17.578,19.531,-2.930,-9.766,0
1486276401.207,41.016,22.949,36.133,7.812,18.555,0
1486276401.211,42.480,26.367,47.852,17.090,-6.836,0
1486276401.215,50.781,24.414,38.574,10.742,-16.602,0
1486276401.219,46.387,16.602,36.133,8.301,15.625,0
1486276401.223,41.504,12.695,32.715,8.789,33.691,0
1486276401.226,41.504,16.113,27.832,16.113,70.312,0
1486276401.230,41.992,17.090,26.367,17.090,81.055,0
1486276401.234,54.688,20.020,24.902,27.344,53.223,0
1486276401.238,59.570,27.832,33.691,32.227,37.598,0
1486276401.242,58.594,25.879,38.086,23.438,4.883,0
1486276401.246,55.176,22.461,35.645,25.879,17.578,0
1486276401.250,48.340,27.344,30.762,30.762,57.617,0
1486276401.254,47.852,22.461,23.926,30.762,30.273,0
1486276401.258,50.781,14.160,29.785,27.832,17.578,0
1486276401.262,58.105,17.090,33.203,19.043,21.973,0
1486276401.266,51.270,14.648,32.715,17.090,49.316,0
1486276401.269,42.480,10.254,31.738,13.184,47.852,0
1486276401.273,35.645,8.789,8.789,8.301,-20.508,0
1486276401.277,34.668,6.348,0.000,10.742,34.180,0
1486276401.281,31.738,5.859,20.996,7.324,71.777,0
1486276401.285,22.461,8.301,29.785,5.859,-6.348,0
1486276401.289,29.297,10.254,28.320,-0.488,-19.043,0
1486276401.293,32.715,6.836,25.879,-8.301,-17.090,0
1486276401.297,24.902,2.441,26.855,-4.395,-22.461,0
1486276401.301,19.043,6.348,26.855,-0.977,-4.395,0
1486276401.305,23.438,8.789,21.484,1.465,-11.719,0
1486276401.309,21.973,7.812,14.648,4.883,-13.672,0
1486276401.312,7.812,7.324,14.160,-0.977,29.297,0
1486276401.316,8.789,10.742,13.184,-7.812,14.160,0
1486276401.320,17.578,8.301,14.160,-3.906,-2.441,0
1486276401.324,20.508,7.812,28.320,-1.465,7.324,0
1486276401.328,29.785,15.625,31.250,-0.977,62.012,0
1486276401.332,36.133,20.508,24.902,5.859,86.426,0
1486276401.336,34.668,17.578,18.066,5.859,37.109,0
1486276401.340,29.785,13.672,7.324,6.836,59.082,0
1486276401.344,26.855,11.719,17.090,3.418,27.344,0
1486276401.348,27.344,7.812,27.344,4.395,44.922,0
1486276401.351,27.832,7.812,18.555,10.254,42.480,0
1486276401.355,31.738,10.742,23.438,6.348,2.441,0
1486276401.359,33.691,14.648,22.949,4.395,24.414,0
1486276401.363,37.598,16.113,25.391,6.836,41.992,0
1486276401.367,43.457,13.184,35.156,6.836,85.449,0
1486276401.371,34.180,11.230,26.367,6.348,19.531,0
1486276401.375,27.832,14.648,13.672,7.324,-9.277,0
1486276401.379,34.668,16.113,13.184,11.719,56.152,0
1486276401.383,37.598,13.672,22.461,14.648,52.734,0
1486276401.387,37.598,8.789,28.320,8.789,-13.184,0
1486276401.391,47.363,12.207,23.926,12.207,20.508,0
1486276401.394,48.828,18.555,23.438,19.531,41.992,0
1486276401.398,43.457,14.648,27.344,15.137,18.555,0
1486276401.402,38.086,14.160,26.367,14.160,12.695,0
1486276401.406,26.367,13.672,23.438,19.043,-4.883,0
1486276401.410,31.738,14.160,23.926,24.902,-27.832,0
1486276401.414,36.621,14.160,25.879,23.438,24.414,0
1486276401.418,29.297,9.277,33.691,24.414,65.430,0
1486276401.422,34.180,10.742,37.598,24.902,31.738,0
1486276401.426,42.480,18.066,36.133,17.090,-1.953,0
1486276401.430,38.574,19.531,31.250,16.602,-5.859,0
1486276401.434,28.809,17.090,25.879,16.602,56.641,0
1486276401.437,33.203,17.090,21.973,19.043,38.086,0
1486276401.441,41.992,12.207,22.461,16.113,49.316,0
1486276401.445,38.086,3.906,32.227,10.742,52.246,0
1486276401.449,32.715,3.906,26.367,6.348,20.020,0
1486276401.453,30.762,6.836,20.020,4.395,31.250,0
1486276401.457,23.926,4.883,16.602,5.371,15.137,0
1486276401.461,19.531,3.418,14.648,0.977,37.109,0
1486276401.465,16.113,4.883,25.391,1.465,59.570,0
1486276401.469,22.949,7.324,30.762,2.441,32.227,0
1486276401.473,26.855,4.883,12.695,7.324,32.715,0
1486276401.476,20.020,8.789,5.859,15.137,20.996,0
1486276401.480,25.391,16.602,21.484,21.973,20.508,0
1486276401.484,33.203,17.090,29.785,21.484,43.457,0
1486276401.488,37.598,19.531,36.621,16.113,0.488,0
1486276401.492,30.273,21.484,41.504,19.043,-40.039,0
1486276401.496,22.949,17.578,31.250,22.461,-14.160,0
1486276401.500,38.574,11.230,17.578,29.297,82.520,0
1486276401.504,41.504,12.207,29.785,32.715,70.801,0
1486276401.508,32.227,17.090,38.574,24.414,-12.207,0
1486276401.512,30.762,16.602,35.645,30.273,8.301,0
1486276401.516,39.062,14.160,31.738,34.180,-12.207,0
1486276401.519,41.504,16.113,29.297,37.598,-8.301,0
1486276401.523,38.086,17.090,25.391,37.598,0.000,0
1486276401.527,35.156,14.160,24.414,36.133,6.348,0
1486276401.531,29.785,6.836,26.855,42.969,20.996,0
1486276401.535,20.020,1.465,24.902,48.340,22.949,0
1486276401.539,20.020,7.812,16.113,51.758,71.777,0
1486276401.543,30.762,11.719,17.578,54.199,51.758,0
1486276401.547,28.320,9.766,28.809,57.129,12.207,0
1486276401.551,29.297,14.160,35.645,54.688,-18.555,0
1486276401.555,37.598,17.090,43.457,54.688,-35.645,0
1486276401.559,40.527,10.254,37.598,52.734,-3.418,0
1486276401.562,41.504,5.859,24.902,52.246,37.598,0
1486276401.566,34.668,9.277,19.531,55.664,47.363,0
1486276401.570,27.344,9.277,21.973,52.246,7.324,0
1486276401.574,21.484,6.836,28.320,52.246,42.969,0
1486276401.578,16.113,9.277,28.320,51.270,79.102,0
1486276401.582,15.137,11.719,20.020,50.293,37.598,0
1486276401.586,19.531,7.324,18.555,41.504,-4.883,0
1486276401.590,32.715,3.906,18.555,30.762,-5.859,0
1486276401.594,38.086,10.742,16.113,40.039,14.160,0
1486276401.598,35.156,12.695,20.020,43.945,40.039,0
1486276401.601,29.785,8.301,23.438,41.504,16.602,0
1486276401.605,26.855,6.348,24.414,42.969,-7.324,0
1486276401.609,21.973,8.301,20.996,31.738,-11.719,0
1486276401.613,20.508,10.254,17.090,20.508,-10.742,0
1486276401.617,24.902,8.301,27.344,19.043,1.953,0
1486276401.621,27.832,11.230,25.391,18.555,-6.836,0
1486276401.625,28.809,15.625,11.230,20.508,-20.996,0
1486276401.629,32.227,16.602,16.602,19.043,-33.691,0
1486276401.633,33.203,10.742,26.855,17.090,5.859,0
1486276401.637,40.527,7.812,28.809,26.367,41.992,0
1486276401.641,42.969,13.672,27.344,32.227,22.949,0
1486276401.644,37.598,19.043,29.785,25.391,-18.066,0
1486276401.648,35.645,17.578,36.621,20.508,7.324,0
1486276401.652,38.086,20.020,36.133,18.066,36.621,0
1486276401.656,37.598,20.020,28.809,20.996,45.898,0
1486276401.660,34.668,17.090,16.602,22.949,41.992,0
1486276401.664,35.645,16.113,12.207,18.555,17.090,0
1486276401.668,35.645,15.625,30.762,23.926,10.254,0
1486276401.672,32.227,17.090,36.621,18.555,-9.277,0
1486276401.676,33.691,18.066,24.902,22.949,20.996,0
1486276401.680,31.738,12.695,17.090,31.250,20.020,0
1486276401.684,31.738,12.207,26.367,31.738,6.348,0
1486276401.687,39.062,18.555,37.598,31.250,12.207,0
1486276401.691,35.156,19.043,36.133,27.344,4.883,0
1486276401.695,40.039,19.043,32.715,29.785,17.578,0
1486276401.699,45.410,19.531,30.762,34.180,12.207,0
1486276401.703,43.457,16.602,32.715,30.762,-2.930,0
1486276401.707,54.199,18.555,33.203,24.414,-20.996,0
1486276401.711,53.711,19.043,25.879,23.438,-26.367,0
1486276401.715,40.039,16.602,16.602,16.602,50.781,0
1486276401.719,37.598,11.719,17.090,15.625,45.898,0
1486276401.723,32.715,11.719,18.066,22.461,-10.254,0
1486276401.726,37.598,14.648,13.672,26.367,0.488,0
1486276401.730,52.734,18.555,28.809,34.668,48.828,0
1486276401.734,47.852,23.926,42.480,33.203,61.035,0
1486276401.738,46.387,19.043,30.273,25.879,10.742,0
1486276401.742,53.223,13.672,21.484,21.484,14.160,0
1486276401.746,52.246,17.578,30.273,22.949,66.406,0
1486276401.750,48.340,21.973,36.133,25.879,13.184,0
1486276401.754,48.340,20.020,32.227,29.785,-5.371,0
1486276401.758,48.828,20.508,22.949,34.180,20.996,0
1486276401.762,45.898,20.996,20.508,36.133,7.812,0
1486276401.766,46.875,17.578,27.344,36.621,12.207,0
1486276401.769,48.340,19.043,33.691,27.832,21.484,0
1486276401.773,55.176,21.973,27.344,22.461,80.078,0
1486276401.777,58.594,22.461,23.438,15.137,51.758,0
1486276401.781,51.758,22.461,23.926,2.930,10.742,0
1486276401.785,43.945,21.973,23.438,3.906,34.668,0
1486276401.789,40.039,23.438,23.926,6.836,-17.578,0
1486276401.793,37.598,22.949,24.902,7.324,-5.371,0
1486276401.797,35.156,15.625,28.809,13.672,75.684,0
1486276401.801,32.715,13.184,32.227,7.324,76.660,0
1486276401.805,27.344,14.160,31.738,-1.953,45.410,0
1486276401.809,31.250,18.066,17.578,1.465,1.953,0
1486276401.812,38.574,23.438,11.719,3.906,20.508,0
1486276401.816,41.016,22.949,21.973,8.301,6.348,0
1486276401.820,40.039,21.973,23.926,13.672,-19.043,0
1486276401.824,37.598,19.531,27.832,8.789,26.367,0
1486276401.828,30.273,13.672,31.738,-2.441,29.785,0
1486276401.832,26.367,11.230,33.691,-2.930,48.340,0
1486276401.836,23.438,14.648,37.598,6.348,50.781,0
1486276401.840,19.043,16.113,38.086,2.930,23.926,0
1486276401.844,21.484,13.672,31.738,-3.906,28.809,0
1486276401.848,26.855,14.160,19.531,2.441,-7.812,0
1486276401.851,25.391,13.672,33.691,-1.465,-16.113,0
1486276401.855,18.066,11.230,46.875,1.953,14.648,0
1486276401.859,27.832,14.160,41.016,6.836,1.953,0
1486276401.863,39.062,16.113,39.062,6.348,4.395,0
1486276401.867,34.668,17.578,37.109,15.625,63.477,0
1486276401.871,33.691,18.066,33.691,24.414,62.012,0
1486276401.875,36.133,17.090,32.715,18.555,26.367,0
1486276401.879,39.551,16.113,31.738,5.859,-21.484,0
1486276401.883,49.316,25.879,41.992,14.160,15.625,0
1486276401.887,48.828,29.297,49.805,18.066,53.223,0
1486276401.891,42.969,24.902,43.945,20.020,-2.930,0
1486276401.894,46.387,29.297,42.480,29.297,19.043,0
1486276401.898,46.875,28.809,45.898,27.832,0.000,0
1486276401.902,41.504,28.320,38.574,29.297,23.926,0
1486276401.906,42.969,32.227,23.926,20.996,29.297,0
1486276401.910,51.270,31.738,30.762,21.973,-36.133,0
1486276401.914,48.340,29.785,43.457,28.809,-19.531,0
1486276401.918,45.898,27.832,41.016,23.438,6.836,0
1486276401.922,53.223,29.785,35.156,22.461,25.879,0
1486276401.926,54.688,34.668,39.062,28.809,3.906,0
1486276401.930,48.828,33.691,28.320,33.691,-37.598,0
1486276401.934,47.852,28.320,21.484,28.320,-9.277,0
1486276401.937,56.152,25.391,39.062,31.250,21.484,0
1486276401.941,62.012,29.785,44.922,40.039,-14.160,0
1486276401.945,61.523,36.133,45.410,43.457,-28.320,0
1486276401.949,60.547,34.180,48.828,45.410,30.762,0
1486276401.953,58.594,30.273,44.922,43.945,69.824,0
1486276401.957,47.852,30.762,47.363,39.062,41.016,0
1486276401.961,39.551,31.250,45.898,32.227,67.383,0
1486276401.965,46.387,32.715,39.551,24.414,18.066,0
1486276401.969,49.805,29.297,35.645,22.461,-30.762,0
1486276401.973,48.340,33.203,38.574,32.227,36.133,0
1486276401.976,47.363,34.668,43.457,40.527,-6.348,0
1486276401.980,44.922,23.438,44.434,26.855,13.184,0
1486276401.984,50.781,23.926,44.922,18.066,-4.883,0
1486276401.988,41.504,27.344,45.410,18.066,-43.457,0
1486276401.992,34.668,26.367,40.039,18.555,18.555,0
1486276401.996,37.598,28.320,27.344,24.902,52.734,0
1486276402.000,37.598,29.785,36.621,33.203,3.418,0
1486276402.004,39.062,28.809,46.387,30.273,-8.301,0
1486276402.008,44.922,27.832,41.992,23.438,25.879,0
1486276402.012,46.387,25.391,40.527,25.879,13.184,0
1486276402.016,36.621,24.902,33.691,25.879,52.734,0
1486276402.019,35.156,31.250,32.715,26.855,43.945,0
1486276402.023,35.156,27.832,36.133,28.809,-20.996,0
1486276402.027,40.039,27.832,30.273,35.156,-16.602,0
1486276402.031,48.828,38.086,18.555,37.598,28.809,0
1486276402.035,44.434,28.320,22.949,32.227,96.680,0
1486276402.039,41.992,15.137,31.250,23.438,27.344,0
1486276402.043,36.621,16.602,30.762,14.648,22.949,0
1486276402.047,34.180,12.695,33.691,12.695,53.223,0
1486276402.051,36.621,11.719,33.691,15.625,48.340,0
1486276402.055,39.551,18.066,33.203,16.113,54.688,0
1486276402.059,45.898,19.531,32.715,18.555,6.348,0
1486276402.062,47.852,25.879,36.621,21.973,51.270,0
1486276402.066,48.828,29.297,44.922,21.484,45.898,0
1486276402.070,47.852,29.297,43.945,20.508,-22.949,0
1486276402.074,52.246,33.691,40.039,18.555,-26.367,0
1486276402.078,53.711,28.320,30.762,19.531,-19.531,0
1486276402.082,52.734,21.484,24.902,20.508,-3.906,0
1486276402.086,56.152,22.461,20.508,20.020,2.441,0
1486276402.090,52.734,18.555,15.137,20.508,1.465,0
1486276402.094,47.852,19.531,21.484,16.113,9.277,0
1486276402.098,40.527,22.461,29.785,10.254,-0.977,0
1486276402.101,46.387,23.926,32.715,9.766,4.883,0
1486276402.105,61.523,28.320,36.621,18.066,39.062,0
1486276402.109,62.500,32.715,40.039,26.855,13.672,0
1486276402.113,61.523,32.715,35.156,25.879,43.945,0
1486276402.117,66.406,29.785,23.438,26.367,73.242,0
1486276402.121,60.059,28.320,20.020,23.926,4.883,0
1486276402.125,52.246,31.738,24.414,22.949,-8.789,0
1486276402.129,60.059,36.133,27.832,29.297,8.301,0
1486276402.133,65.918,37.109,30.762,29.297,0.488,0
1486276402.137,56.152,30.762,28.809,22.949,8.301,0
1486276402.141,50.781,26.855,25.391,20.020,5.859,0
1486276402.144,49.805,26.367,26.367,16.113,11.230,0
1486276402.148,46.875,21.484,33.691,18.066,-26.367,0
1486276402.152,50.293,20.508,35.645,19.531,-50.293,0
1486276402.156,49.316,20.020,36.621,20.020,14.648,0
1486276402.160,45.898,17.090,35.156,11.230,21.973,0
1486276402.164,44.434,17.578,28.809,12.207,-3.418,0
1486276402.168,47.363,20.996,29.297,19.531,4.883,0
1486276402.172,48.340,21.973,30.762,23.926,-23.438,0
1486276402.176,48.340,20.996,32.227,26.855,-14.160,0
1486276402.180,55.664,26.367,38.574,24.902,11.230,0
1486276402.184,59.082,29.297,38.574,29.297,-12.695,0
1486276402.187,59.082,24.902,24.414,26.367,30.273,0
1486276402.191,63.477,26.855,14.648,17.578,5.859,0
1486276402.195,62.500,26.367,23.438,20.508,-34.668,0
1486276402.199,51.758,21.973,34.180,35.645,16.113,0
1486276402.203,42.480,22.461,31.250,28.320,-2.441,0
1486276402.207,49.805,15.137,21.973,12.207,-21.484,0
1486276402.211,51.758,16.602,30.273,19.043,-9.766,0
1486276402.215,42.969,24.414,32.715,19.043,-29.297,0
1486276402.219,39.551,27.832,27.344,10.742,-4.883,0
1486276402.223,39.551,29.297,26.367,13.672,2.930,0
1486276402.226,43.945,26.367,29.785,19.043,55.664,0
1486276402.230,42.969,26.855,38.086,13.672,51.758,0
1486276402.234,44.434,29.785,36.621,7.812,50.293,0
1486276402.238,45.410,33.203,38.574,13.672,72.266,0
1486276402.242,38.086,32.227,38.574,15.625,34.668,0
1486276402.246,36.133,33.691,29.297,14.648,24.414,0
1486276402.250,41.992,29.297,39.062,14.648,22.949,0
1486276402.254,47.852,28.809,41.016,10.742,-36.621,0
1486276402.258,41.992,35.156,33.203,22.461,-41.016,0
1486276402.262,37.109,35.645,38.574,30.273,25.391,0
1486276402.266,42.969,38.574,38.574,23.438,22.949,0
1486276402.269,49.316,40.527,36.133,20.996,58.105,0
1486276402.273,56.152,35.645,35.156,21.973,48.828,0
1486276402.277,62.012,33.691,35.645,30.273,41.016,0
1486276402.281,62.500,35.156,35.645,34.180,52.734,0
1486276402.285,61.035,32.227,32.715,22.461,62.500,0
1486276402.289,56.641,32.227,27.832,12.695,50.293,0
1486276402.293,54.688,33.691,29.297,16.602,-14.160,0
1486276402.297,63.477,31.250,27.832,25.879,-25.391,0
1486276402.301,69.824,35.156,21.973,32.227,-57.129,0
1486276402.305,63.477,37.109,29.297,31.738,-84.473,0
1486276402.309,60.059,32.227,29.297,26.855,-21.973,0
1486276402.312,58.105,28.809,20.020,22.949,76.660,0
1486276402.316,58.105,31.250,27.832,26.855,65.430,0
1486276402.320,60.059,31.738,32.715,25.879,9.277,0
1486276402.324,66.895,32.227,14.160,20.020,-8.789,0
1486276402.328,66.406,31.250,14.648,20.996,-41.992,0
1486276402.332,52.734,29.297,27.344,21.484,-13.184,0
1486276402.336,49.316,31.738,26.367,23.926,53.223,0
1486276402.340,53.223,31.250,28.320,26.367,53.223,0
1486276402.344,54.688,31.738,27.344,23.926,-9.766,0
1486276402.348,53.223,34.668,28.320,29.297,41.992,0
1486276402.351,51.758,35.156,37.109,34.668,92.773,0
1486276402.355,50.293,32.227,34.668,34.180,21.484,0
1486276402.359,57.617,33.203,35.645,41.016,-0.977,0
1486276402.363,61.523,33.203,33.691,41.992,-9.766,0
1486276402.367,55.664,36.133,27.344,48.828,61.035,0
1486276402.371,49.805,39.062,21.484,51.270,40.527,0
1486276402.375,52.246,36.621,20.996,39.062,-10.254,0
1486276402.379,53.223,40.039,27.832,39.551,24.902,0
1486276402.383,56.152,43.457,27.344,29.785,2.441,0
1486276402.387,56.641,35.156,30.273,22.461,3.906,0
1486276402.391,49.316,31.738,47.363,32.715,20.020,0
1486276402.394,44.922,32.227,40.527,29.297,1.953,0
1486276402.398,42.969,30.273,31.738,24.414,-27.344,0
1486276402.402,41.016,32.715,47.363,30.273,52.246,0
1486276402.406,42.480,32.227,55.664,32.715,70.801,0
1486276402.410,45.410,28.320,47.852,29.785,20.020,0
1486276402.414,44.434,29.297,45.898,33.691,-5.859,0
1486276402.418,44.434,34.180,54.199,36.621,-20.508,0
1486276402.422,46.387,36.621,54.199,39.062,16.602,0
1486276402.426,41.016,40.527,49.316,47.852,2.930,0
1486276402.430,40.527,43.945,51.758,44.922,-11.719,0
1486276402.434,43.457,41.992,59.570,40.039,19.531,0
1486276402.437,41.992,42.969,58.594,49.805,-10.254,0
1486276402.441,46.387,39.062,52.734,50.781,-13.184,0
1486276402.445,52.734,38.574,41.504,41.992,-13.672,0
1486276402.449,59.082,41.992,44.434,42.480,-3.906,0
1486276402.453,60.059,45.410,53.711,45.898,60.547,0
1486276402.457,57.617,48.340,59.082,57.617,47.363,0
1486276402.461,63.477,48.340,59.570,63.965,4.883,0
1486276402.465,71.289,52.734,45.410,63.477,-4.395,0
1486276402.469,66.406,52.246,47.852,61.523,14.648,0
1486276402.473,61.523,48.340,59.570,57.617,23.438,0
1486276402.476,68.359,50.293,61.035,51.758,1.953,0
1486276402.480,69.336,49.316,60.059,52.734,13.672,0
1486276402.484,63.477,50.781,60.059,56.641,41.016,0
1486276402.488,61.523,50.293,48.828,48.340,20.508,0
1486276402.492,72.266,48.828,47.363,48.340,-32.227,0
1486276402.496,72.754,52.734,54.199,57.129,-33.203,0
1486276402.500,62.988,48.340,53.711,61.035,-38.086,0
1486276402.504,56.641,46.875,53.223,58.105,-31.250,0
1486276402.508,55.664,45.410,47.852,49.805,-15.137,0
1486276402.512,54.688,40.039,41.992,47.852,-6.836,0
1486276402.516,50.293,39.551,49.316,38.086,23.438,0
1486276402.519,47.363,38.086,54.199,35.645,45.410,0
1486276402.523,44.434,36.621,52.246,36.621,58.105,0
1486276402.527,44.434,41.992,47.852,38.574,17.578,0
1486276402.531,44.434,47.852,43.945,43.457,-39.062,0
1486276402.535,42.969,45.410,49.316,46.875,-0.488,0
1486276402.539,52.246,41.504,43.945,50.781,61.523,0
1486276402.543,52.246,39.551,41.016,42.480,26.367,0
1486276402.547,44.434,36.133,47.363,31.738,4.395,0
1486276402.551,49.316,36.621,46.875,24.902,22.461,0
1486276402.555,49.805,35.156,39.062,27.344,41.504,0
1486276402.559,48.340,35.645,33.691,35.645,19.043,0
1486276402.562,50.293,40.527,37.109,40.527,-13.672,0
1486276402.566,53.711,40.527,42.969,46.875,8.301,0
1486276402.570,62.012,40.039,46.387,47.852,45.410,0
1486276402.574,62.988,39.062,47.852,41.016,36.621,0
1486276402.578,59.570,39.062,47.852,33.203,33.203,0
1486276402.582,65.918,38.574,43.945,37.598,80.078,0
1486276402.586,65.918,38.086,43.945,36.133,14.648,0
1486276402.590,61.035,40.039,45.898,40.527,-20.996,0
1486276402.594,61.035,40.039,44.434,51.758,1.953,0
1486276402.598,62.500,40.039,39.551,51.758,-10.742,0
1486276402.601,68.359,38.086,34.180,48.340,23.438,0
1486276402.605,64.941,30.762,33.203,45.410,42.480,0
1486276402.609,54.199,26.855,31.250,36.621,4.395,0
1486276402.613,44.922,27.832,35.645,24.414,-1.465,0
1486276402.617,47.852,24.902,38.574,25.879,48.340,0
1486276402.621,48.340,26.855,29.785,37.109,72.266,0
1486276402.625,48.828,27.832,42.480,43.457,47.363,0
1486276402.629,55.176,24.414,59.082,45.898,25.879,0
1486276402.633,61.035,26.367,60.547,48.828,1.465,0
1486276402.637,60.059,30.273,61.035,50.781,0.000,0
1486276402.641,60.547,36.133,58.105,48.340,-2.441,0
1486276402.644,59.570,36.621,48.828,45.410,-1.465,0
1486276402.648,55.664,33.203,47.852,42.969,37.109,0
1486276402.652,54.688,30.273,49.805,37.109,-3.906,0
1486276402.656,53.711,25.391,53.711,40.527,-11.719,0
1486276402.660,58.105,24.414,58.105,41.504,40.527,0
1486276402.664,58.105,26.367,55.664,35.645,50.293,0
1486276402.668,60.547,21.973,51.758,34.180,42.480,0
1486276402.672,59.082,16.602,51.758,37.598,19.531,0
1486276402.676,53.711,17.090,50.293,35.645,32.715,0
1486276402.680,47.852,23.926,37.109,28.809,64.453,0
1486276402.684,44.434,27.832,31.738,28.320,27.344,0
1486276402.687,49.316,26.367,40.039,37.598,15.137,0
1486276402.691,42.969,20.996,32.227,40.527,28.809,0
1486276402.695,39.062,22.949,26.855,32.227,62.988,0
1486276402.699,40.527,23.926,29.785,23.926,112.305,0
1486276402.703,39.551,26.855,19.043,24.902,58.105,0
1486276402.707,37.598,29.297,12.207,24.414,-34.668,0
1486276402.711,34.668,22.461,26.367,23.926,-40.039,0
1486276402.715,44.922,23.926,33.203,25.391,-81.543,0
1486276402.719,51.270,28.809,34.668,22.949,-24.414,0
1486276402.723,41.504,25.879,36.621,17.578,15.137,0
1486276402.726,37.598,25.391,34.180,11.719,0.488,0
1486276402.730,39.551,20.996,36.621,12.207,24.902,0
1486276402.734,38.086,20.020,36.133,17.090,-26.367,0
1486276402.738,31.738,20.996,37.598,14.160,-25.391,0
1486276402.742,32.227,16.602,43.457,8.789,0.000,0
1486276402.746,32.715,16.113,34.668,8.789,8.789,0
1486276402.750,30.762,15.137,20.996,14.160,2.441,0
1486276402.754,34.668,14.648,22.461,6.348,24.414,0
1486276402.758,34.668,15.137,33.203,1.465,62.500,0
1486276402.762,35.645,19.043,38.086,2.930,59.082,0
1486276402.766,34.668,19.043,35.645,-2.441,-11.719,0
1486276402.769,27.344,10.742,38.086,6.348,5.859,0
1486276402.773,24.902,12.695,43.457,1.953,-4.883,0
1486276402.777,31.738,19.531,36.133,-6.348,-8.301,0
1486276402.781,35.645,21.973,22.949,2.441,36.621,0
1486276402.785,31.250,21.484,23.926,2.441,0.000,0
1486276402.789,31.738,18.555,27.832,4.395,2.441,0
1486276402.793,33.691,18.066,41.992,10.254,20.020,0
1486276402.797,37.109,16.602,45.898,11.230,12.695,0
1486276402.801,39.062,12.695,35.645,3.906,20.996,0
1486276402.805,37.598,13.184,37.109,0.000,32.715,0
1486276402.809,35.156,14.160,40.039,4.395,-4.883,0
1486276402.812,35.156,13.672,42.969,7.324,-3.906,0
1486276402.816,39.062,18.066,39.062,10.254,3.906,0
1486276402.820,40.527,16.602,29.785,16.602,19.043,0
1486276402.824,41.504,17.090,33.203,18.066,49.805,0
1486276402.828,40.527,18.066,41.016,18.555,-3.906,0
1486276402.832,31.738,13.672,38.574,12.695,-25.879,0
1486276402.836,33.691,18.066,40.527,10.742,60.547,0
1486276402.840,31.738,17.578,42.969,12.695,63.965,0
1486276402.844,26.367,9.277,29.297,16.113,18.555,0
1486276402.848,36.621,13.672,27.832,25.879,41.504,0
1486276402.851,38.574,15.137,37.598,23.438,53.711,0
1486276402.855,29.297,13.184,32.227,19.531,31.250,0
1486276402.859,26.367,13.672,26.367,21.973,7.324,0
1486276402.863,27.344,10.742,20.020,16.113,20.020,0
1486276402.867,37.109,10.742,24.902,16.602,15.137,0
1486276402.871,45.410,14.160,47.363,20.020,37.598,0
1486276402.875,41.016,16.113,50.781,14.648,42.480,0
1486276402.879,38.574,20.508,51.758,20.020,37.109,0
1486276402.883,43.945,21.973,56.641,20.996,14.160,0
1486276402.887,50.781,21.484,41.016,15.625,39.551,0
1486276402.891,55.176,24.902,35.645,13.184,53.223,0
1486276402.894,55.664,25.391,41.504,11.719,20.508,0
1486276402.898,51.270,24.414,40.039,10.742,3.418,0
1486276402.902,50.781,26.855,38.574,16.113,10.254,0
1486276402.906,52.246,28.320,42.969,17.578,70.312,0
1486276402.910,49.805,26.367,38.574,13.672,52.734,0
1486276402.914,41.504,23.926,34.180,18.555,-29.297,0
1486276402.918,36.621,25.391,37.109,24.414,-38.086,0
1486276402.922,36.133,23.926,39.062,20.508,-9.766,0
1486276402.926,45.410,24.902,41.016,17.578,14.160,0
1486276402.930,48.340,27.344,42.480,15.625,14.648,0
1486276402.934,46.875,26.855,41.016,11.230,14.648,0
1486276402.937,49.316,32.715,47.852,12.207,68.848,0
1486276402.941,49.316,38.086,48.340,17.578,62.500,0
1486276402.945,50.781,35.156,43.945,19.043,0.000,0
1486276402.949,49.805,33.203,39.551,19.043,0.000,0
1486276402.953,48.828,30.762,29.297,15.137,49.316,0
1486276402.957,58.594,30.762,29.297,17.578,78.125,0
1486276402.961,60.547,33.203,35.156,24.414,20.508,0
1486276402.965,47.363,33.203,48.828,21.484,-55.664,0
1486276402.969,45.898,31.738,48.828,19.043,-13.672,0
1486276402.973,51.758,31.250,43.457,15.625,2.930,0
1486276402.976,41.992,30.273,51.270,13.672,31.250,0
1486276402.980,39.062,31.250,42.480,15.137,58.105,0
1486276402.984,49.316,36.133,40.039,15.137,10.742,0
1486276402.988,51.270,39.062,56.152,15.625,-24.414,0
1486276402.992,47.363,37.598,54.199,17.578,1.953,0
1486276402.996,42.480,37.598,50.781,27.344,26.855,0
1486276403.000,39.062,37.109,57.129,34.668,40.527,0
1486276403.004,44.434,31.738,60.059,34.180,71.777,0
1486276403.008,42.969,31.738,51.758,24.414,30.762,0
1486276403.012,40.527,36.133,43.457,17.578,-40.527,0
1486276403.016,46.387,34.180,44.434,26.855,5.859,0
1486276403.019,44.922,36.621,47.852,27.832,35.156,0
1486276403.023,38.086,39.062,44.434,24.414,20.020,0
1486276403.027,36.621,35.645,42.969,29.297,16.602,0
1486276403.031,46.875,34.180,48.828,26.367,-23.438,0
1486276403.035,51.758,34.668,48.340,26.855,4.883,0
1486276403.039,54.199,35.156,34.180,35.645,5.371,0
1486276403.043,57.129,33.691,39.062,43.457,-18.555,0
1486276403.047,57.617,35.156,53.223,52.734,-16.113,0
1486276403.051,54.688,34.668,56.641,52.246,-1.953,0
1486276403.055,48.340,32.227,60.547,45.410,30.762,0
1486276403.059,47.363,28.320,54.199,44.434,-0.488,0
1486276403.062,50.293,23.926,48.828,41.016,-24.902,0
1486276403.066,44.922,25.391,49.805,38.574,-17.090,0
1486276403.070,37.598,25.879,48.340,37.109,19.531,0
1486276403.074,41.992,25.391,41.992,36.133,9.766,0
1486276403.078,41.016,28.809,38.086,37.109,5.371,0
1486276403.082,34.180,22.949,38.574,29.297,28.809,0
1486276403.086,37.598,19.531,33.691,23.926,7.324,0
1486276403.090,47.852,20.508,27.344,21.484,61.035,0
1486276403.094,49.805,18.066,30.762,24.414,57.129,0
1486276403.098,41.992,20.020,36.621,38.574,40.039,0
1486276403.101,35.645,19.043,38.086,38.574,58.594,0
1486276403.105,44.434,19.531,34.180,25.879,24.902,0
1486276403.109,51.758,22.461,24.414,22.461,13.672,0
1486276403.113,47.363,30.273,23.438,26.367,-9.766,0
1486276403.117,36.133,33.203,32.227,24.414,-40.527,0
1486276403.121,34.668,25.879,34.668,12.207,-29.785,0
1486276403.125,34.180,19.043,30.273,11.230,-3.906,0
1486276403.129,26.855,19.531,22.949,17.578,21.484,0
1486276403.133,25.391,18.066,30.762,11.719,19.531,0
1486276403.137,34.180,20.996,33.203,15.625,2.441,0
1486276403.141,39.551,25.879,31.738,21.484,-9.277,0
1486276403.144,42.480,27.344,39.062,20.996,-0.977,0
1486276403.148,48.340,24.414,42.969,20.020,11.230,0
1486276403.152,55.664,25.879,42.480,18.066,26.855,0
1486276403.156,49.805,29.297,42.480,21.973,-25.391,0
1486276403.160,41.016,26.367,41.016,27.832,-30.762,0
1486276403.164,40.527,24.902,37.109,33.691,-3.418,0
1486276403.168,44.434,25.391,38.086,30.762,-14.648,0
1486276403.172,46.875,21.484,39.062,29.297,47.852,0
1486276403.176,43.945,18.066,35.156,28.320,54.199,0
1486276403.180,42.480,18.066,37.109,24.414,2.930,0
1486276403.184,42.969,15.137,36.621,20.020,17.578,0
1486276403.187,49.316,18.066,32.715,25.879,-1.953,0
1486276403.191,51.758,21.973,34.180,28.320,-43.945,0
1486276403.195,54.199,24.414,42.480,16.113,38.574,0
1486276403.199,57.617,22.949,48.828,19.043,37.109,0
1486276403.203,54.688,20.020,47.852,22.949,-19.043,0
1486276403.207,50.781,27.832,49.316,23.438,-17.578,0
1486276403.211,51.758,28.320,42.969,19.531,-20.996,0
1486276403.215,55.176,25.879,25.879,12.207,10.742,0
1486276403.219,51.758,25.879,30.762,8.301,48.340,0
1486276403.223,45.898,26.367,43.945,10.254,57.129,0
1486276403.226,47.852,28.809,50.781,14.648,57.617,0
1486276403.230,48.828,28.809,44.922,14.160,43.457,0
1486276403.234,46.387,23.438,34.180,20.996,58.594,0
1486276403.238,48.340,18.066,31.250,21.973,77.637,0
1486276403.242,49.805,19.531,30.762,20.508,43.945,0
1486276403.246,48.828,24.414,47.363,17.578,29.297,0
1486276403.250,44.922,24.902,52.246,13.184,55.664,0
1486276403.254,44.434,20.020,43.457,14.648,31.738,0
1486276403.258,48.828,23.438,39.551,20.020,37.598,0
1486276403.262,49.805,26.855,36.621,18.555,60.059,0
1486276403.266,51.270,25.879,39.551,22.949,66.895,0
1486276403.269,49.316,23.438,41.992,31.250,60.547,0
1486276403.273,49.316,21.973,42.969,24.414,42.969,0
1486276403.277,57.129,24.414,46.387,20.996,8.789,0
1486276403.281,49.805,22.949,35.156,23.926,-7.812,0
1486276403.285,50.293,23.438,28.320,21.484,11.230,0
1486276403.289,53.223,27.344,36.621,23.926,56.152,0
1486276403.293,52.246,26.855,41.504,29.785,55.176,0
1486276403.297,50.293,26.855,40.527,26.367,19.043,0
1486276403.301,46.875,29.297,32.227,31.250,16.602,0
1486276403.305,46.875,27.832,22.949,37.109,14.160,0
1486276403.309,43.945,23.438,24.414,36.133,-23.926,0
1486276403.312,39.551,21.973,35.156,39.551,-2.930,0
1486276403.316,42.480,25.391,38.574,35.156,35.156,0
1486276403.320,52.246,20.996,34.668,28.320,13.184,0
1486276403.324,51.758,19.043,26.367,21.973,-44.922,0
1486276403.328,43.457,18.555,13.672,7.812,-7.324,0
1486276403.332,39.062,16.113,18.066,4.395,46.387,0
1486276403.336,37.598,16.113,31.738,8.301,27.832,0
1486276403.340,38.086,18.555,31.738,13.672,-4.883,0
1486276403.344,42.969,22.949,32.715,16.113,-6.836,0
1486276403.348,42.480,24.902,32.227,15.137,-5.859,0
1486276403.351,42.480,23.438,32.227,19.531,30.762,0
1486276403.355,43.945,24.414,35.156,17.578,59.570,0
1486276403.359,38.574,26.367,32.715,12.207,5.371,0
1486276403.363,33.691,22.461,26.855,13.672,6.348,0
1486276403.367,32.715,22.461,27.344,12.695,4.883,0
1486276403.371,32.227,24.902,25.879,10.254,-15.137,0
1486276403.375,37.598,20.508,22.949,15.625,-10.254,0
1486276403.379,43.457,20.996,25.879,16.602,2.930,0
1486276403.383,40.039,21.973,33.691,16.113,34.180,0
1486276403.387,35.645,15.625,42.480,21.973,72.266,0
1486276403.391,45.898,13.672,42.480,20.996,44.922,0
1486276403.394,49.805,14.160,34.668,17.578,5.371,0
1486276403.398,46.875,12.207,30.762,22.949,-17.090,0
1486276403.402,49.316,11.719,34.180,23.438,-4.395,0
1486276403.406,53.223,10.742,34.668,16.602,36.133,0
1486276403.410,54.199,12.207,36.621,14.648,2.930,0
1486276403.414,51.270,14.160,34.668,12.207,4.395,0
1486276403.418,50.781,14.648,39.062,12.207,25.391,0
1486276403.422,43.457,22.949,50.293,9.766,33.691,0
1486276403.426,35.156,24.902,47.363,7.324,57.129,0
1486276403.430,32.227,20.508,42.969,4.883,19.531,0
1486276403.434,24.414,15.625,41.992,-2.441,-8.789,0
1486276403.437,22.949,15.625,28.320,-1.465,5.371,0
1486276403.441,31.250,20.508,20.996,2.930,9.277,0
1486276403.445,40.527,20.508,34.668,9.277,22.949,0
1486276403.449,41.992,21.973,37.109,11.719,58.105,0
1486276403.453,37.598,21.484,38.086,9.277,55.664,0
1486276403.457,42.969,19.531,32.227,19.043,41.016,0
1486276403.461,51.270,21.973,15.137,25.391,38.086,0
1486276403.465,58.105,20.020,22.461,22.461,1.465,0
1486276403.469,56.641,18.555,37.598,25.879,3.906,0
1486276403.473,46.387,13.672,37.109,28.809,40.527,0
1486276403.476,42.480,9.766,36.621,36.621,41.504,0
1486276403.480,45.898,12.695,37.109,35.645,10.742,0
1486276403.484,48.340,16.602,41.016,29.297,-6.836,0
1486276403.488,50.781,15.137,42.969,38.086,8.789,0
1486276403.492,53.711,13.672,38.086,33.203,39.062,0
1486276403.496,54.688,20.020,38.574,25.391,7.812,0
1486276403.500,44.922,26.855,32.715,26.855,4.883,0
1486276403.504,39.551,24.902,29.297,22.461,-6.348,0
1486276403.508,39.551,19.531,37.109,19.531,-7.812,0
1486276403.512,37.598,16.113,38.574,18.555,-21.484,0
1486276403.516,35.156,15.137,33.691,21.484,-21.484,0
1486276403.519,23.926,16.602,33.691,5.859,26.367,0
1486276403.523,15.137,13.672,28.320,-4.883,-31.250,0
1486276403.527,23.926,13.184,24.414,3.418,-32.227,0
1486276403.531,26.367,19.043,27.832,1.465,-4.883,0
1486276403.535,16.602,14.648,23.438,-5.859,12.207,0
1486276403.539,20.020,12.207,16.113,-6.836,47.363,0
1486276403.543,24.902,15.625,3.906,-5.859,-13.672,0
1486276403.547,22.461,10.254,2.441,-2.441,-30.762,0
1486276403.551,14.160,9.277,23.926,-0.488,-40.527,0
1486276403.555,17.090,12.207,31.738,-9.766,-31.250,0
1486276403.559,29.297,10.254,18.555,-8.789,23.926,0
1486276403.562,28.809,8.789,15.137,-10.254,15.625,0
1486276403.566,32.715,10.742,31.738,-8.789,11.719,0
1486276403.570,39.062,14.648,37.109,4.395,65.918,0
1486276403.574,40.039,15.137,32.227,12.695,72.266,0
1486276403.578,36.621,16.113,33.203,17.578,44.434,0
1486276403.582,33.203,19.043,28.809,9.766,43.457,0
1486276403.586,38.574,21.484,23.438,8.789,-6.836,0
1486276403.590,40.527,18.555,26.855,12.207,1.953,0
1486276403.594,38.086,14.160,29.785,12.207,77.148,0
1486276403.598,36.621,17.578,30.273,15.137,46.875,0
1486276403.601,37.598,20.020,26.855,12.207,3.906,0
1486276403.605,37.598,22.949,25.879,21.973,2.930,0
1486276403.609,35.645,28.809,26.367,31.250,18.555,0
1486276403.613,40.039,25.391,26.855,27.832,51.270,0
1486276403.617,42.969,17.090,27.832,20.020,59.570,0
1486276403.621,40.527,17.090,35.156,13.184,32.715,0
1486276403.625,40.039,20.508,28.809,18.066,51.758,0
1486276403.629,41.992,18.066,34.668,14.648,85.938,0
1486276403.633,44.434,19.043,45.898,9.277,31.738,0
1486276403.637,41.016,22.949,39.551,12.695,20.508,0
1486276403.641,33.203,19.043,41.504,13.672,37.109,0
1486276403.644,34.668,20.996,38.574,11.719,34.668,0
1486276403.648,41.016,20.508,31.738,16.602,-28.320,0
1486276403.652,37.598,12.207,32.227,16.602,-17.090,0
1486276403.656,31.250,13.184,29.297,12.695,22.461,0
1486276403.660,31.738,15.625,21.973,18.555,5.859,0
1486276403.664,32.715,11.230,20.508,23.438,19.531,0
1486276403.668,28.320,9.766,17.578,25.391,-1.953,0
1486276403.672,31.738,9.766,20.508,25.879,43.457,0
1486276403.676,46.875,8.789,21.973,24.902,70.801,0
1486276403.680,49.805,11.230,27.344,27.344,0.488,0
1486276403.684,42.480,14.648,42.480,24.414,8.789,0
1486276403.687,44.434,19.531,51.270,26.367,5.859,0
1486276403.691,52.246,21.973,51.758,32.715,8.301,0
1486276403.695,55.176,20.508,46.387,33.203,28.320,0
1486276403.699,59.082,21.484,41.016,34.180,33.691,0
1486276403.703,60.547,22.461,40.039,40.527,-25.879,0
1486276403.707,58.105,20.996,46.875,38.086,32.227,0
1486276403.711,50.781,22.461,41.016,37.109,36.133,0
1486276403.715,49.316,25.391,37.598,42.969,0.488,0
1486276403.719,57.617,27.832,55.664,39.551,70.312,0
1486276403.723,56.641,28.320,55.664,21.484,68.359,0
1486276403.726,45.898,26.855,48.828,19.531,-20.020,0
1486276403.730,41.016,20.996,47.852,17.090,-22.461,0
1486276403.734,44.922,14.160,41.992,11.719,16.113,0
1486276403.738,41.992,17.578,41.016,12.695,-36.621,0
1486276403.742,32.715,22.461,40.039,12.207,-33.203,0
1486276403.746,37.598,23.438,40.527,15.137,-34.668,0
1486276403.750,49.805,27.344,48.828,21.973,-45.898,0
1486276403.754,48.828,28.809,49.805,23.438,-6.836,0
1486276403.758,37.598,30.273,46.387,22.949,27.344,0
1486276403.762,31.250,29.785,38.574,24.902,5.371,0
1486276403.766,40.039,25.391,36.621,23.926,9.766,0
1486276403.769,51.270,32.715,44.434,20.508,41.504,0
1486276403.773,51.270,28.809,39.551,13.672,44.434,0
1486276403.777,53.711,21.484,41.504,20.020,39.062,0
1486276403.781,55.664,27.344,48.340,25.391,23.438,0
1486276403.785,53.223,24.414,41.992,21.973,69.336,0
1486276403.789,56.152,23.438,34.668,23.926,76.660,0
1486276403.793,57.129,23.438,31.250,24.414,63.965,0
1486276403.797,58.105,23.926,22.461,17.090,19.043,0
1486276403.801,51.758,22.949,13.184,11.230,-27.344,0
1486276403.805,45.898,22.461,19.043,10.742,-4.395,0
1486276403.809,54.199,22.949,29.785,9.766,10.254,0
1486276403.812,59.082,21.973,40.527,20.020,-16.602,0
1486276403.816,51.270,21.484,33.691,20.508,19.531,0
1486276403.820,43.457,25.391,27.832,20.020,58.594,0
1486276403.824,42.969,23.926,31.738,20.508,27.344,0
1486276403.828,39.551,18.555,33.203,14.648,19.531,0
1486276403.832,36.133,21.973,34.668,6.836,37.109,0
1486276403.836,37.109,25.391,32.227,4.883,101.562,0
1486276403.840,38.574,18.555,20.996,3.906,83.984,0
1486276403.844,29.297,9.277,11.719,0.488,30.762,0
1486276403.848,21.973,9.277,11.719,5.859,25.391,0
1486276403.851,22.949,11.230,11.719,6.348,56.152,0
1486276403.855,27.344,12.207,25.391,3.418,134.766,0
1486276403.859,27.832,14.160,29.297,-1.465,76.172,0
1486276403.863,27.832,13.184,10.254,4.883,58.105,0
1486276403.867,33.203,15.625,-2.930,13.672,78.125,0
1486276403.871,33.691,17.090,13.672,12.207,14.160,0
1486276403.875,27.344,13.672,36.621,12.207,56.641,0
1486276403.879,29.297,15.625,41.016,12.695,62.012,0
1486276403.883,27.832,20.996,41.016,14.160,14.160,0
1486276403.887,32.715,24.414,29.297,20.020,20.996,0
1486276403.891,35.645,26.367,24.902,33.691,15.137,0
1486276403.894,31.250,18.555,36.133,35.645,40.527,0
1486276403.898,34.668,12.207,32.715,25.391,23.438,0
1486276403.902,39.551,15.137,24.902,21.973,33.691,0
1486276403.906,38.574,20.020,30.762,19.531,7.324,0
1486276403.910,37.109,22.949,30.273,18.066,-12.207,0
1486276403.914,36.621,19.531,19.043,15.625,28.320,0
1486276403.918,40.527,21.484,15.625,24.414,40.039,0
1486276403.922,35.156,20.996,13.672,27.832,82.031,0
1486276403.926,27.832,16.602,6.836,21.973,66.406,0
1486276403.930,35.156,13.184,10.254,21.973,10.254,0
1486276403.934,39.551,10.254,20.020,19.531,20.996,0
1486276403.937,37.109,9.766,18.555,12.207,37.109,0
1486276403.941,33.691,9.277,15.137,8.301,61.035,0
1486276403.945,30.762,9.766,18.555,11.230,39.062,0
1486276403.949,27.832,10.742,18.555,14.648,12.695,0
1486276403.953,23.438,9.766,10.742,19.531,32.715,0
1486276403.957,23.926,8.789,13.672,19.531,-13.672,0
1486276403.961,26.367,6.348,18.555,16.113,19.043,0
1486276403.965,33.691,7.324,25.391,13.184,53.223,0
1486276403.969,36.621,8.789,23.438,8.301,3.418,0
1486276403.973,28.320,7.324,18.555,7.812,14.160,0
1486276403.976,29.297,5.859,26.367,16.602,20.020,0
1486276403.980,36.621,15.625,33.691,17.090,20.996,0
1486276403.984,36.133,18.066,27.832,15.137,29.297,0
1486276403.988,36.621,14.160,30.273,20.996,-5.371,0
1486276403.992,41.992,17.578,39.062,17.090,-12.695,0
1486276403.996,45.898,20.996,36.133,15.625,-1.465,0
1486276404.000,43.457,20.020,37.109,19.043,42.480,0
1486276404.004,33.203,16.113,32.715,6.836,52.246,0
1486276404.008,25.391,14.648,27.344,-2.441,49.316,0
1486276404.012,27.344,15.625,15.625,0.000,70.801,0
1486276404.016,27.344,12.207,21.484,1.465,41.504,0
1486276404.019,24.902,7.324,31.738,5.371,25.879,0
1486276404.023,19.531,8.301,24.414,3.418,14.160,0
1486276404.027,9.277,13.672,24.902,1.465,26.855,0
1486276404.031,20.020,15.625,21.484,3.418,72.754,0
1486276404.035,26.367,15.625,15.137,2.930,0.977,0
1486276404.039,17.090,17.578,20.508,9.766,-74.219,0
1486276404.043,24.414,18.066,19.531,10.254,-50.293,0
1486276404.047,34.668,16.602,22.461,6.836,-40.039,0
1486276404.051,36.133,16.602,30.762,12.695,-11.719,0
1486276404.055,39.062,16.602,27.832,12.207,-1.465,0
1486276404.059,39.551,13.672,18.066,12.207,-14.160,0
1486276404.062,38.086,18.555,17.578,10.254,16.602,0
1486276404.066,35.156,17.578,24.902,12.207,30.273,0
1486276404.070,34.180,13.184,25.879,10.742,21.484,0
1486276404.074,35.156,12.207,28.809,9.277,35.156,0
1486276404.078,37.109,13.184,23.438,16.113,72.754,0
1486276404.082,42.969,14.648,20.996,17.578,74.219,0
1486276404.086,38.574,11.719,26.855,18.555,-14.160,0
1486276404.090,26.855,6.348,30.273,14.648,5.859,0
1486276404.094,22.461,7.812,21.484,11.719,-3.906,0
1486276404.098,34.180,14.648,13.184,15.137,24.902,0
1486276404.101,39.062,16.602,20.996,15.625,71.777,0
1486276404.105,37.109,14.160,25.879,11.719,42.480,0
1486276404.109,41.992,16.602,30.273,13.184,57.129,0
1486276404.113,37.598,21.484,37.109,19.043,44.434,0
1486276404.117,31.250,18.066,41.992,23.926,23.438,0
1486276404.121,28.320,18.066,41.992,24.414,-2.441,0
1486276404.125,30.273,19.531,33.691,17.090,-12.207,0
1486276404.129,39.062,18.555,31.738,28.320,-12.695,0
1486276404.133,38.086,17.578,30.273,26.855,19.531,0
1486276404.137,31.738,13.672,23.926,14.648,24.902,0
1486276404.141,29.297,10.254,25.391,12.695,27.344,0
1486276404.144,27.832,14.160,26.367,14.160,19.531,0
1486276404.148,27.832,17.090,30.273,17.090,-21.973,0
1486276404.152,24.414,8.789,33.203,1.953,3.418,0
1486276404.156,26.855,5.859,31.738,-2.930,65.918,0
1486276404.160,27.344,10.742,30.273,6.348,101.562,0
1486276404.164,22.949,13.672,26.855,9.277,45.410,0
1486276404.168,26.367,14.648,28.320,8.301,0.977,0
1486276404.172,34.180,12.207,33.203,7.324,4.395,0
1486276404.176,32.715,10.742,30.762,10.254,0.488,0
1486276404.180,25.391,7.812,31.738,6.348,11.230,0
1486276404.184,23.926,8.301,34.668,1.953,43.457,0
1486276404.187,33.691,13.672,37.109,7.812,-19.531,0
1486276404.191,35.156,17.090,45.898,6.836,-63.477,0
1486276404.195,28.320,18.555,50.293,8.301,-15.137,0
1486276404.199,26.367,16.113,44.922,3.906,15.137,0
1486276404.203,22.949,12.207,36.133,0.000,-2.441,0
1486276404.207,21.973,11.230,27.344,2.930,16.602,0
1486276404.211,20.996,11.230,26.367,1.953,11.719,0
1486276404.215,24.902,13.184,14.648,0.488,-17.578,0
1486276404.219,36.621,14.160,13.672,7.324,1.953,0
1486276404.223,37.598,17.578,35.645,14.648,16.602,0
1486276404.226,38.574,22.461,39.551,10.742,-6.348,0
1486276404.230,41.016,19.531,40.527,5.371,2.930,0
1486276404.234,37.109,14.648,41.992,2.441,18.555,0
1486276404.238,30.273,12.695,28.320,7.324,8.789,0
1486276404.242,24.902,10.254,19.043,7.324,-42.480,0
1486276404.246,26.367,9.277,17.578,-0.488,-45.898,0
1486276404.250,28.320,12.695,12.695,4.395,20.996,0
1486276404.254,24.414,15.137,13.184,0.977,65.918,0
1486276404.258,14.160,13.672,15.137,-5.859,35.645,0
1486276404.262,17.090,11.719,13.672,-2.441,-10.742,0
1486276404.266,25.879,14.160,17.090,0.488,26.367,0
1486276404.269,26.855,13.184,18.555,-0.488,31.250,0
1486276404.273,35.156,12.695,30.273,1.465,10.254,0
1486276404.277,36.133,15.137,51.270,3.906,8.301,0
1486276404.281,32.715,17.090,45.410,-5.859,-44.434,0
1486276404.285,32.715,16.113,37.109,-3.418,9.766,0
1486276404.289,32.715,13.672,43.945,4.395,47.363,0
1486276404.293,41.992,19.043,39.062,2.930,31.738,0
1486276404.297,46.875,19.043,28.320,8.789,74.707,0
1486276404.301,40.527,15.625,39.062,11.230,25.879,0
1486276404.305,37.598,17.578,37.109,12.695,-6.348,0
1486276404.309,43.945,20.020,30.762,14.160,33.691,0
1486276404.312,43.945,22.949,33.691,13.672,42.969,0
1486276404.316,41.504,20.996,28.809,10.254,0.488,0
1486276404.320,42.480,16.113,29.297,8.789,3.906,0
1486276404.324,36.621,16.602,33.691,10.254,-14.160,0
1486276404.328,32.715,20.996,41.992,9.766,-5.371,0
1486276404.332,41.992,23.926,33.691,7.812,72.266,0
1486276404.336,48.340,26.367,21.484,13.184,37.598,0
1486276404.340,49.805,24.902,32.227,24.902,10.254,0
1486276404.344,55.176,22.461,46.875,18.066,36.133,0
1486276404.348,56.152,23.438,34.180,12.695,1.953,0
1486276404.351,48.340,23.926,26.367,20.020,-31.738,0
1486276404.355,37.109,21.484,41.992,25.879,-56.641,0
1486276404.359,33.203,20.020,40.039,23.926,-32.227,0
1486276404.363,43.945,22.461,37.598,19.043,10.742,0
1486276404.367,58.105,21.484,42.969,19.043,-9.277,0
1486276404.371,50.781,20.508,40.527,13.184,24.902,0
1486276404.375,39.551,20.996,39.062,7.324,15.137,0
1486276404.379,38.086,17.578,34.180,9.277,-2.930,0
1486276404.383,44.922,19.531,31.250,15.137,-3.418,0
1486276404.387,50.293,28.809,39.062,20.020,-17.578,0
1486276404.391,46.387,28.320,38.574,17.578,22.461,0
1486276404.394,48.340,23.926,31.250,19.531,19.043,0
1486276404.398,44.434,20.020,24.902,18.066,0.488,0
1486276404.402,35.156,20.508,34.180,13.184,83.008,0
1486276404.406,31.250,20.996,36.133,8.301,52.734,0
1486276404.410,25.879,17.090,30.762,0.000,22.949,0
1486276404.414,24.902,17.578,33.691,0.488,54.199,0
1486276404.418,23.926,16.602,29.297,7.324,-1.953,0
1486276404.422,22.461,14.648,20.508,7.812,-40.527,0
1486276404.426,26.855,15.625,24.902,3.418,-40.527,0
1486276404.430,29.297,18.555,40.039,11.719,-22.461,0
1486276404.434,26.855,17.578,48.828,16.602,-15.137,0
1486276404.437,27.832,20.020,55.176,6.836,14.648,0
1486276404.441,38.086,26.855,56.152,9.277,21.973,0
1486276404.445,41.504,28.809,60.547,14.160,-2.930,0
1486276404.449,38.574,26.855,61.035,20.020,17.578,0
1486276404.453,34.668,26.367,49.316,18.555,103.516,0
1486276404.457,34.180,26.855,40.039,14.160,91.797,0
1486276404.461,39.551,23.438,37.109,22.461,9.277,0
1486276404.465,38.086,22.461,38.574,18.555,29.785,0
1486276404.469,36.621,23.926,40.527,17.090,36.133,0
1486276404.473,38.086,27.832,41.992,22.461,57.129,0
1486276404.476,31.250,27.832,49.316,23.926,28.320,0
1486276404.480,31.738,28.809,50.781,33.203,-16.113,0
1486276404.484,36.133,29.785,47.363,41.992,-30.762,0
1486276404.488,37.109,28.809,47.363,42.969,40.527,0
1486276404.492,36.621,27.344,44.434,37.598,59.082,0
1486276404.496,36.621,25.879,38.574,36.133,50.293,0
1486276404.500,44.434,25.879,32.227,34.668,40.039,0
1486276404.504,51.270,27.344,29.297,36.133,14.160,0
1486276404.508,47.852,27.344,39.062,39.551,13.184,0
1486276404.512,51.270,29.297,46.875,38.086,-5.371,0
1486276404.516,61.035,31.738,40.527,29.297,2.930,0
1486276404.519,58.105,27.832,36.621,23.926,38.574,0
1486276404.523,50.293,23.438,37.598,23.438,62.500,0
1486276404.527,40.039,17.578,35.645,20.020,6.348,0
1486276404.531,44.434,17.090,36.621,29.297,-15.625,0
1486276404.535,52.246,20.508,38.574,23.926,40.527,0
1486276404.539,53.711,22.949,38.574,16.113,33.691,0
1486276404.543,58.105,23.438,39.551,30.273,2.441,0
1486276404.547,62.012,19.531,36.133,36.621,38.574,0
1486276404.551,61.523,18.066,28.320,35.645,54.199,0
1486276404.555,55.664,21.973,26.367,28.320,57.617,0
1486276404.559,53.711,24.414,25.391,23.438,20.020,0
1486276404.562,53.711,25.391,27.344,25.391,-11.230,0
1486276404.566,51.270,19.531,37.598,31.738,1.953,0
1486276404.570,48.828,12.207,40.527,37.598,26.855,0
1486276404.574,53.711,12.207,31.738,38.086,47.852,0
1486276404.578,55.664,12.207,30.273,38.086,6.836,0
1486276404.582,45.410,11.719,33.203,41.992,-23.438,0
1486276404.586,38.574,14.160,36.133,44.434,19.043,0
1486276404.590,37.109,13.184,43.945,34.180,45.898,0
1486276404.594,39.551,14.160,39.551,32.227,65.430,0
1486276404.598,41.016,15.137,43.945,39.062,44.434,0
1486276404.601,40.527,17.090,49.316,44.434,3.418,0
1486276404.605,40.527,20.020,41.992,54.199,24.414,0
1486276404.609,41.504,21.484,45.898,54.199,85.938,0
1486276404.613,38.086,18.555,47.363,41.016,56.641,0
1486276404.617,36.621,17.090,40.527,38.574,7.324,0
1486276404.621,40.527,22.461,40.039,39.551,-8.301,0
1486276404.625,39.062,20.996,36.621,41.016,-68.848,0
1486276404.629,39.062,17.578,34.668,41.016,-70.312,0
1486276404.633,41.504,15.625,28.320,36.621,16.602,0
1486276404.637,42.969,19.531,16.113,34.180,30.273,0
1486276404.641,48.828,26.367,22.461,35.156,20.508,0
1486276404.644,48.828,27.344,32.715,38.086,6.348,0
1486276404.648,51.270,28.320,33.691,53.223,0.488,0
1486276404.652,54.199,24.414,40.039,42.480,13.672,0
1486276404.656,50.781,26.855,43.457,26.367,38.086,0
1486276404.660,50.781,29.785,45.410,34.668,32.227,0
1486276404.664,51.758,24.902,39.062,39.062,-9.766,0
1486276404.668,49.316,24.414,26.855,46.387,14.648,0
1486276404.672,41.016,25.391,38.574,46.875,57.617,0
1486276404.676,38.574,28.320,54.199,50.781,-3.418,0
1486276404.680,41.504,24.902,46.875,53.223,-21.973,0
1486276404.684,45.410,21.973,39.062,41.992,43.945,0
1486276404.687,43.457,25.879,36.621,41.504,44.922,0
1486276404.691,28.809,20.020,33.203,38.086,33.203,0
1486276404.695,23.438,19.531,31.250,40.527,31.250,0
1486276404.699,25.879,22.461,32.715,43.457,38.086,0
1486276404.703,26.855,21.973,39.551,39.551,19.531,0
1486276404.707,33.203,23.926,43.945,29.785,16.602,0
1486276404.711,37.598,22.949,41.992,20.508,18.555,0
1486276404.715,40.527,23.438,40.527,20.508,55.664,0
1486276404.719,45.410,22.461,40.527,24.414,67.871,0
1486276404.723,46.387,24.902,36.133,22.949,17.578,0
1486276404.726,44.922,27.832,39.062,8.789,66.895,0
1486276404.730,50.293,28.320,36.133,6.836,64.453,0
1486276404.734,44.922,28.320,28.809,11.230,48.340,0
1486276404.738,39.551,27.344,32.715,16.602,52.246,0
1486276404.742,43.945,31.250,40.527,20.996,1.953,0
1486276404.746,45.410,35.156,42.969,22.949,-12.207,0
1486276404.750,50.293,32.715,47.852,22.461,38.574,0
1486276404.754,51.270,25.879,45.410,22.949,48.340,0
1486276404.758,47.363,24.414,25.879,21.484,-44.434,0
1486276404.762,43.457,28.320,30.273,17.578,-55.664,0
1486276404.766,39.062,25.879,45.410,18.066,18.555,0
1486276404.769,42.969,28.320,45.410,22.461,50.781,0
1486276404.773,48.828,36.133,45.410,30.273,7.324,0
1486276404.777,46.387,39.551,49.805,27.344,13.184,0
1486276404.781,45.410,37.109,45.410,19.531,45.410,0
1486276404.785,55.176,31.250,40.527,22.461,33.691,0
1486276404.789,62.988,29.297,42.969,30.273,59.082,0
1486276404.793,60.547,27.832,41.016,34.668,38.086,0
1486276404.797,60.547,31.738,40.039,33.691,-21.484,0
1486276404.801,61.523,33.691,37.598,33.203,-2.930,0
1486276404.805,53.711,34.180,35.645,34.668,35.156,0
1486276404.809,54.688,38.086,40.039,30.762,-9.766,0
1486276404.812,52.246,34.180,35.645,22.949,-43.945,0
1486276404.816,42.480,23.926,21.484,28.809,-43.457,0
1486276404.820,40.039,22.949,20.508,33.691,44.434,0
1486276404.824,38.574,33.203,36.133,24.902,47.363,0
1486276404.828,36.133,33.203,39.062,15.625,21.484,0
1486276404.832,41.992,33.691,26.367,20.996,64.941,0
1486276404.836,35.156,35.156,17.090,20.996,35.156,0
1486276404.840,24.414,31.250,35.645,17.578,22.461,0
1486276404.844,21.484,31.250,50.293,20.020,53.711,0
1486276404.848,19.043,30.273,41.504,18.555,38.086,0
1486276404.851,15.137,24.902,39.062,12.207,-25.879,0
1486276404.855,12.207,22.461,40.527,8.301,10.254,0
1486276404.859,13.184,21.973,36.133,12.695,15.137,0
1486276404.863,14.160,22.949,40.527,10.742,-47.852,0
1486276404.867,21.973,22.949,51.758,12.695,12.207,0
1486276404.871,27.832,19.043,53.711,22.461,80.566,0
1486276404.875,29.785,16.602,39.062,22.949,24.902,0
1486276404.879,28.809,18.066,29.785,23.926,-20.508,0
1486276404.883,34.668,24.414,32.227,31.250,-43.457,0
1486276404.887,38.574,31.250,42.480,33.691,15.625,0
1486276404.891,45.898,33.691,46.387,35.156,43.945,0
1486276404.894,54.199,38.086,42.969,34.180,-0.977,0
1486276404.898,44.922,35.156,41.504,38.086,30.273,0
1486276404.902,39.551,30.273,38.574,35.156,68.848,0
1486276404.906,43.457,28.320,30.762,26.855,77.637,0
1486276404.910,42.969,25.879,26.367,29.785,111.816,0
1486276404.914,40.527,33.691,38.086,31.738,38.574,0
1486276404.918,39.062,34.180,42.969,26.855,10.742,0
1486276404.922,42.480,26.855,37.598,27.344,37.109,0
1486276404.926,41.992,28.320,37.109,32.715,-6.836,0
1486276404.930,35.645,31.738,37.109,31.250,27.344,0
1486276404.934,30.762,24.902,27.832,36.621,43.457,0
1486276404.937,31.250,17.578,22.461,34.180,39.062,0
1486276404.941,32.227,16.113,20.996,23.438,60.059,0
1486276404.945,36.621,17.090,21.973,26.855,5.859,0
1486276404.949,41.504,17.090,23.438,28.809,15.625,0
1486276404.953,42.480,17.090,26.855,28.809,61.035,0
1486276404.957,47.363,21.973,28.809,36.133,12.695,0
1486276404.961,53.223,25.391,32.715,41.504,20.020,0
1486276404.965,59.082,24.902,32.715,38.574,28.320,0
1486276404.969,55.664,24.414,24.414,33.203,3.418,0
1486276404.973,51.270,22.461,25.391,27.832,-17.090,0
1486276404.976,54.199,24.414,32.227,22.461,0.977,0
1486276404.980,51.270,26.855,24.414,26.855,11.719,0
1486276404.984,38.574,25.879,20.996,32.227,1.953,0
1486276404.988,30.762,28.320,33.203,27.832,23.926,0
1486276404.992,36.133,31.250,37.598,24.414,6.348,0
1486276404.996,44.434,27.344,32.715,22.461,23.438,0
1486276405.000,47.363,26.855,40.039,13.672,36.133,0
1486276405.004,37.598,27.344,32.227,5.371,-3.906,0
1486276405.008,32.715,20.996,25.391,5.859,24.414,0
1486276405.012,35.156,24.414,33.691,3.906,86.426,0
1486276405.016,35.156,30.273,30.762,2.930,61.035,0
1486276405.019,32.715,24.902,33.203,2.441,56.152,0
1486276405.023,32.715,21.484,44.434,0.977,47.363,0
1486276405.027,29.297,22.461,44.922,1.953,-4.883,0
1486276405.031,31.250,23.926,41.016,7.324,61.035,0
1486276405.035,39.551,24.414,45.410,4.883,71.777,0
1486276405.039,38.574,24.414,34.668,6.836,34.180,0
1486276405.043,45.410,24.414,22.461,12.207,62.012,0
1486276405.047,52.734,25.391,31.250,14.160,47.852,0
1486276405.051,45.898,26.855,32.227,18.555,38.574,0
1486276405.055,41.504,26.855,26.855,20.996,54.688,0
1486276405.059,47.852,24.902,37.598,17.578,30.762,0
1486276405.062,46.875,25.391,39.062,18.066,18.555,0
1486276405.066,44.922,33.203,32.715,20.996,23.926,0
1486276405.070,49.316,35.156,31.250,19.531,36.133,0
1486276405.074,48.828,31.738,34.668,17.090,86.914,0
1486276405.078,44.922,33.203,34.180,20.508,90.820,0
1486276405.082,39.062,33.691,24.902,16.113,65.430,0
1486276405.086,35.645,30.273,20.508,5.371,59.082,0
1486276405.090,36.621,27.832,26.367,11.230,52.246,0
1486276405.094,37.598,35.645,33.203,10.254,3.906,0
1486276405.098,39.062,39.551,20.996,13.672,11.719,0
1486276405.101,38.574,36.621,15.625,18.555,62.500,0
1486276405.105,29.297,34.180,30.762,17.090,31.738,0
1486276405.109,29.785,35.156,29.785,23.438,6.836,0
1486276405.113,39.551,33.691,28.809,24.902,28.320,0
1486276405.117,47.852,27.832,36.133,27.832,44.922,0
1486276405.121,51.758,25.879,33.691,27.832,-9.766,0
1486276405.125,54.688,26.855,42.480,27.832,51.758,0
1486276405.129,56.152,28.320,46.875,28.809,100.586,0
1486276405.133,63.965,30.273,34.668,26.855,59.570,0
1486276405.137,67.383,34.180,31.738,25.879,59.570,0
1486276405.141,62.500,34.668,32.715,23.438,-9.766,0
1486276405.144,55.664,35.645,36.133,23.926,-29.297,0
1486276405.148,51.270,37.598,36.133,20.020,49.805,0
1486276405.152,45.898,35.645,31.738,19.531,43.457,0
1486276405.156,37.598,34.180,32.227,25.391,21.973,0
1486276405.160,41.016,30.762,30.273,10.742,15.137,0
1486276405.164,42.969,28.809,25.391,3.906,20.508,0
1486276405.168,36.621,32.227,20.020,8.789,39.062,0
1486276405.172,33.203,29.297,22.461,-4.883,44.922,0
1486276405.176,30.273,25.879,21.484,-3.906,25.391,0
1486276405.180,31.738,28.320,10.254,7.812,46.387,0
1486276405.184,27.832,26.367,19.043,4.395,71.289,0
1486276405.187,23.926,20.508,33.691,0.488,52.734,0
1486276405.191,27.832,20.996,32.227,3.418,39.062,0
1486276405.195,35.645,26.855,33.203,6.348,11.719,0
1486276405.199,40.039,26.855,33.691,15.137,27.832,0
1486276405.203,41.016,24.902,28.320,23.438,63.477,0
1486276405.207,48.340,23.926,27.344,26.367,56.641,0
1486276405.211,50.293,22.949,22.461,32.227,83.496,0
1486276405.215,49.805,24.414,22.461,42.969,33.691,0
1486276405.219,49.316,24.902,34.180,48.828,-32.715,0
1486276405.223,47.363,23.926,41.992,41.992,4.883,0
1486276405.226,50.293,28.809,44.434,48.340,41.992,0
1486276405.230,62.988,36.621,44.922,60.547,44.434,0
1486276405.234,66.895,32.715,42.480,55.176,32.715,0
1486276405.238,66.406,31.738,35.645,47.852,29.297,0
1486276405.242,69.336,35.645,34.668,45.898,27.832,0
1486276405.246,69.824,35.645,44.922,53.711,27.344,0
1486276405.250,77.637,38.086,50.293,60.547,-65.918,0
1486276405.254,74.707,35.156,42.480,57.617,-54.688,0
1486276405.258,60.059,36.133,37.598,58.594,38.574,0
1486276405.262,53.223,41.016,35.156,61.035,32.227,0
1486276405.266,53.711,40.527,33.691,55.176,-0.488,0
1486276405.269,52.246,40.527,38.086,44.922,-40.527,0
1486276405.273,52.246,41.016,39.551,45.410,30.762,0
1486276405.277,57.617,39.551,36.621,42.480,58.105,0
1486276405.281,52.246,41.992,41.504,32.715,36.621,0
1486276405.285,41.992,45.898,42.969,35.156,20.508,0
1486276405.289,41.992,47.363,41.992,42.480,7.324,0
1486276405.293,37.598,48.340,48.340,38.086,20.020,0
1486276405.297,39.551,44.434,49.316,21.973,-24.902,0
1486276405.301,46.387,44.434,48.828,19.043,48.828,0
1486276405.305,37.109,40.527,51.758,26.855,84.473,0
1486276405.309,32.227,40.039,46.875,33.691,41.992,0
1486276405.312,41.504,45.898,58.594,34.180,59.082,0
1486276405.316,40.527,46.875,66.406,38.086,40.039,0
1486276405.320,41.016,43.457,56.152,36.621,0.977,0
1486276405.324,50.781,40.527,51.758,33.691,-15.137,0
1486276405.328,68.848,44.434,55.664,41.504,0.000,0
1486276405.332,71.289,48.340,63.965,45.898,-50.781,0
1486276405.336,54.199,44.434,67.383,38.574,-5.371,0
1486276405.340,53.223,39.551,62.988,31.738,48.340,0
1486276405.344,60.547,40.527,60.547,36.621,2.441,0
1486276405.348,63.477,44.434,64.453,45.410,-9.766,0
1486276405.351,62.012,44.434,65.918,50.293,-16.602,0
1486276405.355,56.152,41.016,68.359,54.688,16.113,0
1486276405.359,51.758,35.645,73.242,51.270,48.340,0
1486276405.363,50.781,37.598,67.383,54.688,39.551,0
1486276405.367,50.781,42.969,63.965,53.223,17.090,0
1486276405.371,52.734,37.598,58.594,43.457,18.066,0
1486276405.375,52.734,32.227,52.246,41.504,5.859,0
1486276405.379,51.270,38.574,56.641,38.574,-22.461,0
1486276405.383,51.270,41.992,59.082,35.156,-27.344,0
1486276405.387,56.641,40.039,55.664,32.227,35.156,0
1486276405.391,62.988,43.457,58.105,37.598,103.516,0
1486276405.394,64.453,49.805,64.453,45.410,59.570,0
1486276405.398,68.848,50.781,60.059,43.457,6.836,0
1486276405.402,70.312,51.758,56.152,41.504,40.527,0
1486276405.406,71.289,56.641,57.617,46.875,82.031,0
1486276405.410,68.848,54.688,57.129,48.340,53.223,0
1486276405.414,70.801,50.781,56.641,46.875,54.688,0
1486276405.418,74.219,51.758,60.547,52.734,54.199,0
1486276405.422,71.777,50.293,66.895,62.012,23.438,0
1486276405.426,72.266,47.852,63.965,62.988,54.199,0
1486276405.430,77.148,46.387,51.758,56.641,33.691,0
1486276405.434,83.008,46.875,57.617,52.734,-16.113,0
1486276405.437,75.195,45.898,63.965,48.340,6.836,0
1486276405.441,67.383,44.434,58.594,47.363,55.664,0
1486276405.445,63.965,41.504,52.734,53.223,50.293,0
1486276405.449,55.176,38.574,58.105,53.223,36.133,0
1486276405.453,48.340,39.551,69.824,50.293,49.805,0
1486276405.457,46.387,33.691,68.848,42.969,69.336,0
1486276405.461,48.828,30.273,64.941,41.504,27.832,0
1486276405.465,47.852,34.668,58.594,40.527,9.277,0
1486276405.469,48.828,32.227,52.246,30.273,47.852,0
1486276405.473,55.664,32.227,46.875,23.438,21.484,0
1486276405.476,61.523,35.156,36.621,26.855,-5.859,0
