timestamps,TP9,AF7,AF8,TP10,Right AUX,Marker0
1486284244.398,46.387,34.668,33.691,38.574,240.234,0
1486284244.402,51.270,36.133,31.250,41.504,244.141,0
1486284244.406,48.340,39.551,33.691,41.992,232.910,0
1486284244.410,46.387,46.387,40.527,45.410,214.355,0
1486284244.413,43.457,46.387,40.039,54.199,173.340,0
1486284244.417,52.734,47.363,47.363,61.035,203.125,0
1486284244.421,56.152,45.410,48.340,44.922,205.078,0
1486284244.425,43.457,40.039,34.180,36.621,182.129,0
1486284244.429,39.062,39.551,35.156,41.016,192.383,0
1486284244.433,38.574,40.039,39.551,43.945,201.172,0
1486284244.437,44.434,42.480,35.156,43.945,180.176,0
1486284244.441,43.945,37.109,27.832,36.133,175.293,0
1486284244.445,43.457,31.738,20.996,36.133,196.289,0
1486284244.449,38.574,31.250,30.762,28.809,174.316,0
1486284244.452,27.832,28.320,38.086,26.855,156.738,0
1486284244.456,29.297,27.344,36.133,30.762,151.367,0
1486284244.460,34.180,28.320,41.016,39.551,148.438,0
1486284244.464,27.832,31.250,38.086,46.875,128.906,0
1486284244.468,20.020,23.926,32.227,43.457,111.328,0
1486284244.472,24.902,18.555,32.715,38.574,118.652,0
1486284244.476,25.391,15.137,31.738,24.414,139.648,0
1486284244.480,28.809,18.555,34.668,19.043,143.066,0
1486284244.484,34.180,24.902,35.645,29.297,128.906,0
1486284244.488,35.156,23.438,33.203,36.133,145.020,0
1486284244.492,41.504,23.438,38.086,41.992,148.926,0
1486284244.495,39.551,20.508,39.551,47.852,128.418,0
1486284244.499,36.133,26.367,45.410,53.223,108.887,0
1486284244.503,41.504,36.133,53.223,52.734,103.516,0
1486284244.507,48.828,39.551,50.781,62.012,111.328,0
1486284244.511,55.176,44.434,51.270,72.754,115.723,0
1486284244.515,51.270,41.504,44.434,58.105,72.754,0
1486284244.519,51.270,35.156,40.527,51.758,61.523,0
1486284244.523,55.176,38.086,40.527,56.152,113.770,0
1486284244.527,53.711,39.062,39.062,53.223,97.168,0
1486284244.531,52.734,38.086,46.875,45.898,60.547,0
1486284244.535,55.176,39.551,57.129,42.480,101.562,0
1486284244.538,51.270,34.668,56.152,44.434,133.789,0
1486284244.542,49.316,31.250,44.434,36.621,92.773,0
1486284244.546,54.688,38.574,49.805,50.293,74.707,0
1486284244.550,52.246,38.086,49.805,60.059,73.242,0
1486284244.554,59.082,36.621,46.875,57.129,83.984,0
1486284244.558,66.895,42.480,56.641,69.824,86.426,0
1486284244.562,62.500,47.363,56.641,63.965,58.105,0
1486284244.566,51.758,46.387,53.711,45.410,66.895,0
1486284244.570,45.898,41.504,49.805,46.387,84.473,0
1486284244.574,44.434,38.574,48.340,64.941,86.914,0
1486284244.577,48.340,39.551,47.363,55.664,73.730,0
1486284244.581,54.688,41.992,50.781,46.875,70.801,0
1486284244.585,51.758,47.852,60.059,65.430,91.797,0
1486284244.589,48.828,46.387,53.223,64.941,79.590,0
1486284244.593,59.082,41.504,47.852,62.012,69.824,0
1486284244.597,68.848,42.969,56.641,57.129,78.613,0
1486284244.601,63.965,43.945,54.688,62.012,98.633,0
1486284244.605,58.594,43.457,47.852,74.707,86.914,0
1486284244.609,56.152,43.945,51.270,76.172,61.035,0
1486284244.613,60.059,46.387,50.781,69.824,90.332,0
1486284244.617,66.895,45.898,50.293,71.289,84.961,0
1486284244.620,63.965,47.852,52.734,82.520,49.316,0
1486284244.624,70.801,50.293,56.641,80.566,62.988,0
1486284244.628,70.801,46.387,59.570,76.172,75.195,0
1486284244.632,62.988,44.434,50.293,67.871,48.340,0
1486284244.636,57.129,41.992,40.527,58.594,10.742,0
1486284244.640,56.152,37.109,36.621,58.105,54.199,0
1486284244.644,54.688,37.109,37.598,67.871,87.891,0
1486284244.648,50.781,36.621,41.504,73.730,45.410,0
1486284244.652,50.781,36.621,42.480,75.684,30.273,0
1486284244.656,49.805,36.621,41.016,76.660,72.266,0
1486284244.660,47.363,39.062,40.527,56.641,87.891,0
1486284244.663,52.734,38.574,35.645,39.062,53.223,0
1486284244.667,48.828,40.527,34.668,40.527,44.434,0
1486284244.671,49.316,42.480,44.434,53.711,54.688,0
1486284244.675,55.176,44.922,49.805,69.824,60.059,0
1486284244.679,47.363,42.480,46.387,65.430,27.344,0
1486284244.683,45.410,39.551,34.668,57.129,35.156,0
1486284244.687,48.340,41.992,35.156,56.641,65.918,0
1486284244.691,39.062,41.016,44.922,46.875,54.688,0
1486284244.695,38.574,44.434,45.898,42.969,45.410,0
1486284244.699,47.852,45.410,48.340,41.504,47.363,0
1486284244.702,46.387,42.480,47.363,46.387,47.852,1
1486284244.706,35.645,39.551,41.992,48.828,53.711,0
1486284244.710,37.598,36.621,41.016,48.828,73.242,0
1486284244.714,40.527,32.227,38.574,46.875,107.910,0
1486284244.718,29.297,37.109,40.527,55.176,88.867,0
1486284244.722,30.273,45.410,42.480,53.711,60.059,0
1486284244.726,39.551,41.504,41.016,46.387,51.270,0
1486284244.730,47.852,35.645,38.086,53.711,65.918,0
1486284244.734,56.152,44.922,44.922,71.777,98.633,0
1486284244.738,54.199,51.270,55.664,78.125,85.449,0
1486284244.742,48.828,42.969,46.875,57.129,106.934,0
1486284244.745,47.363,38.574,41.016,56.641,124.023,0
1486284244.749,43.457,35.156,39.551,62.500,104.492,0
1486284244.753,44.922,38.086,41.504,62.988,75.195,0
1486284244.757,54.688,39.062,42.969,51.758,67.871,0
1486284244.761,59.082,35.156,38.086,51.270,63.477,0
1486284244.765,49.805,40.527,35.156,68.359,89.355,0
1486284244.769,46.387,42.480,40.527,75.684,109.863,0
1486284244.773,54.199,39.062,41.504,65.430,126.953,0
1486284244.777,56.641,38.086,41.992,52.734,107.910,0
1486284244.781,45.898,37.598,42.969,48.340,60.547,0
1486284244.785,37.109,38.574,45.410,56.152,74.707,0
1486284244.788,37.109,42.480,47.363,68.359,91.309,0
1486284244.792,45.898,48.828,48.340,88.379,83.496,0
1486284244.796,57.129,50.781,55.664,100.586,67.383,0
1486284244.800,57.129,42.969,50.293,72.754,42.480,0
1486284244.804,47.852,37.598,39.062,52.734,57.129,0
1486284244.808,46.387,41.504,41.016,51.758,74.707,0
1486284244.812,56.641,43.945,44.922,53.223,77.148,0
1486284244.816,51.270,39.062,45.410,67.871,70.801,0
1486284244.820,52.734,36.621,41.504,72.266,76.172,0
1486284244.824,56.641,36.621,39.551,67.871,105.469,0
1486284244.827,41.992,35.645,41.016,62.500,100.098,0
1486284244.831,36.133,34.668,34.180,55.664,94.727,0
1486284244.835,44.434,33.203,28.809,48.828,97.168,0
1486284244.839,46.875,31.738,38.574,50.293,77.148,0
1486284244.843,49.805,36.621,45.410,56.641,51.758,0
1486284244.847,55.664,37.598,43.457,65.430,26.855,0
1486284244.851,62.012,37.109,42.969,67.383,53.223,0
1486284244.855,66.895,41.504,45.410,59.082,77.637,0
1486284244.859,65.918,46.875,43.945,60.547,58.594,0
1486284244.863,65.430,52.246,47.852,75.195,52.734,0
1486284244.867,62.988,50.781,52.246,82.520,86.426,0
1486284244.870,51.270,42.969,42.969,69.824,90.332,0
1486284244.874,39.551,33.203,31.250,58.105,61.035,0
1486284244.878,38.574,26.367,27.344,62.500,71.777,0
1486284244.882,47.852,24.902,31.250,70.801,73.242,0
1486284244.886,50.781,28.320,37.109,68.359,44.434,0
1486284244.890,35.156,26.855,31.738,62.500,25.391,0
1486284244.894,20.020,19.043,29.297,63.477,24.902,0
1486284244.898,23.438,20.508,31.738,61.035,34.180,0
1486284244.902,35.156,35.156,36.133,48.828,62.988,0
1486284244.906,35.645,40.039,39.551,44.434,51.758,0
1486284244.910,32.715,32.227,37.598,46.387,47.852,0
1486284244.913,39.062,33.203,37.598,52.246,61.035,0
1486284244.917,36.133,38.574,41.504,70.801,3.418,0
1486284244.921,38.574,39.062,49.316,75.684,-7.812,0
1486284244.925,44.434,38.086,48.828,64.453,41.992,0
1486284244.929,41.992,41.016,41.504,60.547,54.199,0
1486284244.933,39.551,44.922,43.457,68.848,18.555,0
1486284244.937,36.621,40.527,43.945,75.684,2.930,0
1486284244.941,40.039,35.156,43.945,82.031,54.199,0
1486284244.945,54.199,39.551,45.410,80.078,46.875,0
1486284244.949,64.453,43.457,42.480,69.336,6.348,0
1486284244.952,64.941,45.410,47.852,68.848,13.672,0
1486284244.956,51.758,41.504,47.852,80.078,11.719,0
1486284244.960,55.664,38.574,43.457,92.773,-9.277,0
1486284244.964,65.918,41.992,43.945,100.586,-35.156,0
1486284244.968,56.152,40.527,43.945,99.609,-41.992,0
1486284244.972,61.523,39.551,45.410,87.402,-15.625,0
1486284244.976,74.707,40.039,47.852,83.008,-9.766,0
1486284244.980,69.336,38.086,48.340,83.984,-8.789,0
1486284244.984,60.547,36.621,43.945,81.055,-18.066,0
1486284244.988,58.594,33.203,40.039,80.566,-19.043,0
1486284244.992,65.918,38.086,43.457,77.148,-0.488,0
1486284244.995,67.871,44.922,49.805,75.195,-6.836,0
1486284244.999,60.059,37.598,46.875,75.195,-21.484,0
1486284245.003,61.035,37.598,42.969,78.613,-1.953,0
1486284245.007,60.059,38.574,38.086,72.266,-1.953,0
1486284245.011,49.316,35.645,31.738,63.477,-30.762,0
1486284245.015,49.316,38.574,32.715,62.012,-34.180,0
1486284245.019,57.617,41.504,34.668,65.918,-32.715,0
1486284245.023,63.965,39.551,30.273,61.035,-30.762,0
1486284245.027,69.824,44.922,39.551,55.176,-26.855,0
1486284245.031,64.453,46.875,47.363,61.523,-37.598,0
1486284245.035,64.941,44.922,40.039,60.059,-39.551,0
1486284245.038,82.520,54.688,35.645,76.172,-19.043,0
1486284245.042,79.590,50.781,30.762,81.543,-29.297,0
1486284245.046,64.453,39.551,20.508,66.406,-11.719,0
1486284245.050,59.082,43.945,24.902,65.918,-20.020,0
1486284245.054,53.711,47.852,36.621,61.035,-48.828,0
1486284245.058,51.758,41.504,37.598,58.105,-56.152,0
1486284245.062,51.758,36.133,32.715,62.012,-20.508,0
1486284245.066,53.223,36.133,29.785,54.199,-24.414,0
1486284245.070,55.176,36.133,30.273,57.617,-45.410,0
1486284245.074,57.129,40.527,34.668,74.219,-40.039,0
1486284245.077,53.223,42.480,39.062,63.965,-44.434,0
1486284245.081,50.293,45.898,41.016,59.082,-47.852,0
1486284245.085,59.570,56.641,45.410,69.824,-35.156,0
1486284245.089,59.570,54.199,50.781,72.266,-10.742,0
1486284245.093,54.199,44.434,48.340,66.406,-20.508,0
1486284245.097,48.340,43.945,41.504,68.848,-19.043,0
1486284245.101,46.387,43.945,41.504,71.777,-53.711,0
1486284245.105,43.457,35.156,30.273,52.734,-51.758,0
1486284245.109,33.691,32.227,24.902,46.875,-9.766,0
1486284245.113,29.785,34.668,29.785,52.734,-29.297,0
1486284245.117,33.691,36.133,27.832,57.617,-41.992,0
1486284245.120,36.621,36.133,28.320,62.012,-29.297,0
1486284245.124,32.715,40.527,41.992,70.312,-15.137,0
1486284245.128,30.273,41.504,43.457,67.871,-21.484,0
1486284245.132,30.273,38.574,32.715,60.547,-32.715,0
1486284245.136,37.598,37.109,36.133,62.988,-21.973,0
1486284245.140,42.969,38.574,39.551,61.035,-10.254,0
1486284245.144,44.922,39.551,36.133,55.664,-27.344,0
1486284245.148,46.387,38.574,32.715,57.617,-65.430,0
1486284245.152,51.758,42.480,34.668,67.871,-28.320,0
1486284245.156,58.105,45.898,39.062,70.312,-6.348,0
1486284245.160,54.688,42.480,35.156,57.129,-39.062,0
1486284245.163,50.781,37.109,34.180,54.688,-17.090,0
1486284245.167,50.293,41.504,41.992,62.500,-0.488,0
1486284245.171,41.992,39.551,40.527,60.547,-34.180,0
1486284245.175,47.363,36.621,39.062,60.059,-11.719,0
1486284245.179,52.246,34.668,35.156,59.570,7.324,0
1486284245.183,40.039,26.367,26.367,61.035,-19.043,0
1486284245.187,44.434,33.691,32.715,61.523,-16.602,0
1486284245.191,55.664,39.551,35.645,55.176,-25.879,0
1486284245.195,57.617,36.133,36.621,65.430,-17.578,0
1486284245.199,53.711,38.574,38.574,73.730,3.418,0
1486284245.202,46.875,39.062,37.109,68.359,9.277,0
1486284245.206,46.387,37.598,39.551,59.082,2.930,0
1486284245.210,47.852,41.016,47.363,61.523,-19.531,0
1486284245.214,50.293,44.922,50.781,66.406,-7.812,0
1486284245.218,45.898,44.434,41.992,58.105,-24.902,0
1486284245.222,30.762,39.551,32.227,49.316,-44.434,0
1486284245.226,31.250,38.086,33.203,53.711,-19.531,0
1486284245.230,36.133,42.969,36.621,54.199,-37.598,0
1486284245.234,31.250,46.387,36.621,51.270,-59.570,0
1486284245.238,35.645,49.316,36.133,49.316,-73.242,0
1486284245.242,33.691,46.875,35.645,50.781,-83.984,0
1486284245.245,33.691,46.875,39.551,59.082,-14.160,0
1486284245.249,41.016,48.340,39.551,59.570,-17.090,0
1486284245.253,42.969,41.992,31.250,58.105,-53.711,0
1486284245.257,51.270,43.945,35.156,58.594,-14.648,0
1486284245.261,49.805,51.758,43.945,66.406,-24.414,0
1486284245.265,43.945,46.387,31.738,62.988,-21.484,0
1486284245.269,57.617,46.875,24.902,38.574,-41.016,0
1486284245.273,67.871,51.270,37.109,41.504,-54.199,0
1486284245.277,67.383,50.781,43.457,53.711,-40.527,0
1486284245.281,52.734,44.434,41.016,52.246,-71.289,0
1486284245.285,45.898,38.574,39.062,59.082,-50.781,0
1486284245.288,59.570,42.969,43.945,57.129,-25.391,0
1486284245.292,53.711,45.898,42.480,49.805,-71.289,0
1486284245.296,42.480,43.945,34.668,50.781,-76.660,0
1486284245.300,47.363,45.410,37.598,60.547,-23.926,0
1486284245.304,52.734,52.246,43.945,67.871,-15.625,0
1486284245.308,50.293,54.688,38.574,64.453,-17.578,0
1486284245.312,38.574,46.387,33.691,47.363,-13.184,0
1486284245.316,26.855,36.133,26.855,32.227,-45.898,0
1486284245.320,30.762,37.598,16.113,29.297,-39.062,0
1486284245.324,35.156,42.969,17.578,31.738,0.977,0
1486284245.327,35.645,43.457,20.996,41.992,-29.297,0
1486284245.331,37.109,44.922,19.043,55.176,-32.227,0
1486284245.335,39.551,44.434,19.531,60.059,-21.484,0
1486284245.339,37.109,41.016,20.996,45.410,-19.531,0
1486284245.343,36.133,39.551,14.160,33.203,-39.551,0
1486284245.347,46.387,43.945,21.973,39.551,-53.711,0
1486284245.351,49.316,45.898,34.668,52.246,-34.668,0
1486284245.355,44.922,39.551,26.367,51.270,-33.203,0
1486284245.359,44.922,38.574,22.461,42.969,-22.949,0
1486284245.363,50.781,41.992,32.715,38.086,-24.902,0
1486284245.367,50.781,41.992,38.574,38.086,-33.203,0
1486284245.370,41.504,42.480,33.203,58.105,-45.898,0
1486284245.374,43.945,37.598,25.391,52.734,-46.875,0
1486284245.378,48.828,31.250,20.020,37.109,-1.465,0
1486284245.382,43.945,36.133,26.855,55.176,0.977,0
1486284245.386,40.039,37.598,33.691,65.430,-39.551,0
1486284245.390,49.805,36.133,31.250,65.430,-25.879,0
1486284245.394,57.129,39.062,33.691,65.430,-11.230,0
1486284245.398,47.852,31.250,25.391,46.875,-48.828,0
1486284245.402,36.621,24.902,16.113,42.480,-33.691,0
1486284245.406,40.527,33.691,21.484,53.711,7.324,0
1486284245.410,53.223,38.574,28.809,55.664,-10.742,0
1486284245.413,60.547,38.574,31.738,53.223,-30.762,0
1486284245.417,60.059,40.527,32.227,55.664,-45.898,0
1486284245.421,50.293,31.738,37.109,56.641,-41.992,0
1486284245.425,48.340,27.832,35.156,57.129,0.000,0
1486284245.429,58.594,35.645,35.645,56.152,-59.570,0
1486284245.433,58.594,39.551,36.133,52.246,-95.215,0
1486284245.437,56.641,42.480,38.086,60.059,-45.898,0
1486284245.441,55.176,44.922,42.480,67.871,-18.555,0
1486284245.445,48.340,44.922,38.574,64.941,5.859,0
1486284245.449,50.293,41.016,35.645,63.965,-30.762,0
1486284245.452,62.500,41.504,41.016,64.453,-31.738,0
1486284245.456,72.266,46.875,45.898,62.988,38.574,0
1486284245.460,62.012,45.410,42.969,69.336,72.754,0
1486284245.464,52.734,43.945,41.016,71.289,42.969,0
1486284245.468,58.105,41.504,41.504,72.754,48.828,0
1486284245.472,66.895,47.363,42.969,73.730,38.574,0
1486284245.476,56.641,42.480,31.250,68.359,17.578,0
1486284245.480,54.199,26.855,19.043,62.988,49.316,0
1486284245.484,65.430,36.621,34.668,62.012,39.062,0
1486284245.488,54.688,44.922,44.434,70.801,3.906,0
1486284245.492,46.875,44.922,36.621,70.801,12.695,0
1486284245.495,44.922,46.875,30.762,61.523,-2.441,0
1486284245.499,46.875,48.340,36.621,68.359,35.156,0
1486284245.503,54.688,53.711,45.410,72.266,13.184,0
1486284245.507,57.617,52.734,44.434,70.801,-12.207,0
1486284245.511,55.664,52.246,41.504,65.430,40.039,0
1486284245.515,54.688,52.246,40.039,63.965,67.871,0
1486284245.519,60.059,50.293,39.062,69.336,38.574,0
1486284245.523,53.711,46.387,41.504,64.941,6.348,0
1486284245.527,41.504,41.504,43.945,60.059,67.383,0
1486284245.531,42.480,41.504,36.621,51.270,70.312,0
1486284245.535,45.898,38.574,31.250,45.898,26.367,0
1486284245.538,41.992,35.645,32.227,49.316,29.297,0
1486284245.542,39.062,33.691,32.227,52.734,45.410,0
1486284245.546,41.992,32.227,36.133,63.477,67.383,0
1486284245.550,38.086,31.738,42.969,67.383,12.695,0
1486284245.554,48.340,34.180,44.922,59.082,-26.367,0
1486284245.558,48.828,28.809,39.551,53.223,5.371,0
1486284245.562,34.668,24.902,35.156,50.781,18.555,0
1486284245.566,33.691,30.762,28.320,49.805,20.508,0
1486284245.570,37.109,32.227,29.297,52.246,29.297,0
1486284245.574,44.922,37.598,43.945,52.734,62.500,0
1486284245.577,40.039,35.156,46.387,43.945,75.195,0
1486284245.581,40.527,27.344,43.457,42.969,26.855,0
1486284245.585,37.109,24.902,37.109,52.246,0.488,0
1486284245.589,35.645,26.367,37.598,62.500,35.645,0
1486284245.593,42.969,34.668,46.387,58.594,73.242,0
1486284245.597,28.809,39.551,44.922,52.246,15.625,0
1486284245.601,28.809,38.574,44.922,51.758,26.367,0
1486284245.605,39.062,40.527,48.340,50.781,52.734,0
1486284245.609,38.086,39.062,46.387,50.781,39.551,0
1486284245.613,42.480,37.598,48.340,62.988,51.758,0
1486284245.617,52.246,48.340,56.641,73.242,53.223,0
1486284245.620,60.547,50.293,58.105,58.105,27.344,0
1486284245.624,57.617,44.922,52.734,43.945,20.508,0
1486284245.628,53.711,46.875,56.641,46.387,48.828,0
1486284245.632,41.016,44.922,58.105,61.523,45.410,0
1486284245.636,33.691,42.969,55.176,67.871,85.449,0
1486284245.640,39.062,42.480,48.828,54.688,48.340,0
1486284245.644,44.434,38.086,38.086,36.621,-27.832,0
1486284245.648,40.527,33.203,31.738,30.762,46.387,0
1486284245.652,24.902,33.203,30.762,39.551,80.566,0
1486284245.656,20.996,28.809,33.691,50.781,47.363,0
1486284245.660,43.457,32.227,42.969,52.246,43.457,0
1486284245.663,60.547,38.086,39.062,46.875,57.129,0
1486284245.667,60.547,36.621,32.715,56.152,54.199,0
1486284245.671,57.129,39.551,45.898,69.824,46.875,0
1486284245.675,51.758,40.527,55.664,70.801,43.945,0
1486284245.679,42.969,37.598,54.688,64.453,46.875,0
1486284245.683,45.898,41.504,54.199,62.012,32.227,0
1486284245.687,49.316,43.945,48.340,57.617,24.414,0
1486284245.691,48.828,37.598,40.039,50.781,47.363,0
1486284245.695,46.387,33.691,36.621,43.457,61.035,0
1486284245.699,36.133,38.086,41.992,48.828,79.590,0
1486284245.702,28.809,40.527,47.852,47.852,52.734,0
1486284245.706,33.691,36.621,43.457,44.922,27.344,0
1486284245.710,40.527,36.621,44.922,53.223,83.008,0
1486284245.714,40.039,41.016,42.969,52.246,94.727,0
1486284245.718,36.621,45.410,41.992,49.316,68.848,0
1486284245.722,22.949,41.992,41.992,47.852,89.844,0
1486284245.726,28.320,40.039,40.527,39.062,79.102,0
1486284245.730,34.180,42.969,39.551,37.598,53.711,0
1486284245.734,29.785,43.945,40.039,53.711,47.363,0
1486284245.738,26.855,38.086,37.109,60.059,61.035,0
1486284245.742,23.926,37.109,28.320,46.875,38.086,0
1486284245.745,28.320,41.504,27.832,34.180,12.207,0
1486284245.749,23.438,37.109,20.996,32.715,45.898,0
1486284245.753,19.043,33.203,12.695,37.598,78.125,0
1486284245.757,23.438,34.180,22.949,44.434,59.570,0
1486284245.761,26.855,33.691,26.855,40.039,64.453,0
1486284245.765,30.273,30.762,19.531,30.762,75.684,0
1486284245.769,38.086,40.039,25.391,52.734,83.008,0
1486284245.773,45.410,47.852,33.691,66.895,85.938,0
1486284245.777,40.039,39.551,32.227,48.340,68.359,0
1486284245.781,39.551,33.203,36.133,53.223,97.168,0
1486284245.785,49.805,38.574,44.434,70.801,94.238,0
1486284245.788,51.270,41.504,45.410,54.688,48.828,0
1486284245.792,53.711,41.016,38.574,46.387,46.387,0
1486284245.796,48.828,38.574,31.250,57.617,74.219,0
1486284245.800,41.016,33.691,31.738,56.152,97.168,0
1486284245.804,33.691,34.180,35.645,57.129,82.031,0
1486284245.808,31.738,31.738,34.180,48.828,78.125,0
1486284245.812,41.016,31.738,30.762,32.715,89.844,0
1486284245.816,28.809,32.227,30.762,37.598,80.566,0
1486284245.820,21.973,31.738,30.762,41.504,70.801,0
1486284245.824,32.715,40.039,37.109,45.410,105.957,0
1486284245.827,35.156,41.992,44.434,53.223,114.746,0
1486284245.831,32.715,40.039,44.922,59.082,129.395,0
1486284245.835,33.691,38.574,41.016,54.199,142.578,0
1486284245.839,44.922,38.574,37.598,48.828,134.277,0
1486284245.843,46.387,42.480,37.598,52.246,138.184,0
1486284245.847,38.574,44.922,38.574,41.016,147.461,0
1486284245.851,39.062,45.410,32.715,33.203,121.582,0
1486284245.855,43.945,40.527,30.762,41.016,131.836,0
1486284245.859,38.086,35.645,41.016,47.852,203.125,0
1486284245.863,35.156,41.016,48.828,62.988,188.965,0
1486284245.867,45.898,48.828,47.852,67.871,165.039,0
1486284245.870,49.805,44.922,41.992,55.664,173.828,0
1486284245.874,49.805,45.410,42.969,60.547,185.547,0
1486284245.878,41.992,51.270,47.363,74.707,191.406,0
1486284245.882,36.621,53.711,52.246,75.195,149.414,0
1486284245.886,47.363,52.246,52.246,58.105,175.781,0
1486284245.890,54.199,47.852,45.410,57.617,222.168,0
1486284245.894,52.734,43.457,38.086,59.082,215.332,0
1486284245.898,40.039,40.039,42.480,55.664,219.238,0
1486284245.902,27.832,35.645,43.457,57.617,231.445,0
1486284245.906,42.480,42.480,48.828,78.125,218.750,0
1486284245.910,51.758,49.805,55.664,93.750,219.238,0
1486284245.913,43.457,44.434,50.781,83.984,213.867,0
1486284245.917,41.016,43.945,49.316,71.777,198.242,0
1486284245.921,47.852,46.387,52.246,62.988,204.590,0
1486284245.925,42.969,39.551,44.434,51.758,176.270,0
1486284245.929,36.621,34.668,36.621,53.223,182.129,0
1486284245.933,41.992,33.203,41.504,61.523,233.887,0
1486284245.937,49.316,40.527,55.176,63.965,239.258,0
1486284245.941,47.363,47.852,58.594,63.477,212.891,0
1486284245.945,27.344,38.086,44.434,60.059,227.539,0
1486284245.949,28.320,33.203,33.203,50.781,257.812,0
1486284245.952,38.086,37.598,35.645,51.758,235.840,0
1486284245.956,34.180,36.133,42.480,62.500,223.145,0
1486284245.960,38.574,41.504,46.875,69.336,242.676,0
1486284245.964,42.969,51.270,52.734,66.895,241.699,0
1486284245.968,41.016,51.758,50.781,57.617,209.473,0
1486284245.972,39.062,51.758,44.922,53.711,206.543,2
1486284245.976,45.410,50.781,45.898,57.617,237.305,0
1486284245.980,57.129,51.758,50.781,65.918,237.793,0
1486284245.984,48.828,46.875,42.480,55.664,227.539,0
1486284245.988,25.391,38.574,32.715,38.086,216.309,0
1486284245.992,27.832,40.527,32.715,36.133,235.840,0
1486284245.995,30.273,38.574,30.762,45.898,266.113,0
1486284245.999,23.926,37.598,25.879,42.480,249.512,0
1486284246.003,30.273,39.551,27.832,37.109,214.844,0
1486284246.007,42.480,39.551,32.715,43.945,269.531,0
1486284246.011,41.016,38.086,33.691,47.852,278.320,0
1486284246.015,42.480,41.016,36.621,46.387,196.289,0
1486284246.019,44.434,44.434,39.551,45.898,208.496,0
1486284246.023,32.715,40.039,38.574,54.199,284.180,0
1486284246.027,28.320,39.551,40.039,54.199,249.512,0
1486284246.031,26.367,36.133,38.086,37.598,218.262,0
1486284246.035,20.508,30.762,32.715,41.992,229.492,0
1486284246.038,18.066,27.344,32.715,51.758,234.375,0
1486284246.042,25.391,30.273,41.016,53.711,238.281,0
1486284246.046,25.879,35.156,41.992,53.711,193.848,0
1486284246.050,30.762,36.621,39.062,50.781,211.426,0
1486284246.054,30.762,36.621,39.062,53.223,247.070,0
1486284246.058,26.855,34.180,40.039,48.340,225.586,0
1486284246.062,39.551,37.598,46.875,40.527,229.980,0
1486284246.066,43.457,39.062,45.898,39.551,225.098,0
1486284246.070,41.992,38.086,42.480,49.316,204.590,0
1486284246.074,33.203,42.480,43.945,60.059,218.750,0
1486284246.077,22.461,42.969,44.434,67.871,199.707,0
1486284246.081,25.879,41.992,40.527,62.988,179.199,0
1486284246.085,36.133,40.039,37.598,56.152,178.223,0
1486284246.089,47.363,46.387,45.898,64.453,154.785,0
1486284246.093,47.852,49.316,50.781,61.035,162.598,0
1486284246.097,38.086,41.504,44.922,45.410,186.523,0
1486284246.101,30.273,38.086,43.457,54.688,161.621,0
1486284246.105,41.992,47.852,46.387,66.406,121.094,0
1486284246.109,41.504,47.852,41.504,51.758,100.586,0
1486284246.113,36.133,42.969,41.504,43.457,114.258,0
1486284246.117,40.527,45.898,46.387,53.711,101.074,0
1486284246.120,34.668,42.969,49.805,60.059,52.734,0
1486284246.124,33.203,35.156,47.852,60.547,52.246,0
1486284246.128,39.551,34.668,44.434,65.918,68.848,0
1486284246.132,38.574,40.039,51.270,80.078,44.434,0
1486284246.136,39.062,41.016,49.316,76.660,37.109,0
1486284246.140,45.410,36.621,44.434,57.617,38.086,0
1486284246.144,55.664,43.945,49.805,66.895,28.320,0
1486284246.148,53.711,50.781,53.223,62.012,-18.066,0
1486284246.152,42.969,43.945,48.828,46.387,-34.668,0
1486284246.156,46.875,40.039,38.574,46.387,-3.418,0
1486284246.160,44.434,38.574,35.156,58.594,-17.090,0
1486284246.163,30.762,40.527,40.039,63.965,-66.895,0
1486284246.167,31.250,43.945,38.086,54.199,-71.777,0
1486284246.171,45.898,49.316,35.645,64.941,-49.805,0
1486284246.175,53.223,52.246,39.551,68.848,-65.430,0
1486284246.179,35.645,45.410,39.551,52.246,-102.539,0
1486284246.183,29.785,44.434,42.480,49.805,-103.027,0
1486284246.187,41.504,56.641,50.293,64.941,-93.262,0
1486284246.191,52.734,65.430,52.246,65.918,-76.660,0
1486284246.195,56.641,62.988,50.293,53.711,-93.750,0
1486284246.199,46.875,57.617,51.270,59.570,-134.766,0
1486284246.202,39.551,48.828,50.293,66.406,-161.133,0
1486284246.206,39.551,45.410,42.480,65.430,-160.156,0
1486284246.210,44.922,49.316,42.969,67.383,-156.250,0
1486284246.214,54.688,53.223,50.781,63.477,-171.875,0
1486284246.218,58.594,51.758,46.875,54.688,-177.246,0
1486284246.222,49.805,49.805,41.504,53.711,-184.082,0
1486284246.226,38.574,42.969,37.598,59.082,-180.664,0
1486284246.230,37.598,38.086,36.133,61.035,-193.359,0
1486284246.234,40.527,42.480,43.457,72.266,-188.477,0
1486284246.238,45.410,45.898,37.109,65.430,-179.199,0
1486284246.242,45.898,48.828,35.156,62.500,-200.684,0
1486284246.245,41.504,50.293,48.828,79.590,-222.168,0
1486284246.249,46.387,47.363,53.223,66.406,-195.312,0
1486284246.253,52.734,46.875,47.852,57.129,-199.219,0
1486284246.257,48.340,47.363,41.504,57.129,-243.164,0
1486284246.261,43.945,41.992,37.598,43.457,-222.656,0
1486284246.265,45.898,40.527,39.551,44.922,-215.820,0
1486284246.269,44.922,41.504,43.457,55.664,-235.352,0
1486284246.273,43.457,44.922,42.480,62.012,-228.516,0
1486284246.277,43.945,48.340,38.574,60.059,-227.051,0
1486284246.281,46.875,45.898,32.227,47.852,-254.883,0
1486284246.285,46.875,41.016,25.391,43.945,-283.691,0
1486284246.288,38.086,40.039,22.949,41.016,-256.348,0
1486284246.292,43.945,48.340,22.461,39.551,-205.078,0
1486284246.296,59.570,54.199,34.668,56.152,-210.938,0
1486284246.300,61.035,52.246,43.945,67.383,-227.539,0
1486284246.304,48.340,47.363,36.621,67.871,-214.355,0
1486284246.308,41.016,47.363,28.809,69.824,-166.016,0
1486284246.312,44.434,50.781,28.809,60.547,-186.035,0
1486284246.316,51.270,51.758,30.273,56.152,-220.703,0
1486284246.320,48.828,46.875,26.855,62.012,-187.988,0
1486284246.324,44.434,47.363,25.879,69.824,-176.270,0
1486284246.327,44.434,50.293,24.414,63.965,-160.645,0
1486284246.331,45.410,47.852,22.949,63.477,-152.344,0
1486284246.335,52.734,49.805,32.227,76.172,-147.461,0
1486284246.339,50.781,54.199,36.621,64.941,-139.160,0
1486284246.343,49.805,56.641,38.086,68.848,-144.043,0
1486284246.347,58.105,60.547,42.480,74.219,-145.020,0
1486284246.351,64.453,63.477,45.898,73.730,-113.770,0
1486284246.355,58.594,63.965,40.527,83.496,-126.465,0
1486284246.359,48.828,60.059,33.203,76.660,-100.586,0
1486284246.363,47.363,53.711,33.691,63.477,-84.473,0
1486284246.367,53.711,56.152,31.250,62.012,-157.227,0
1486284246.370,58.105,57.617,24.414,54.688,-99.609,0
1486284246.374,59.082,59.570,24.902,48.340,-30.273,0
1486284246.378,45.898,61.035,28.320,65.918,-83.008,0
1486284246.382,33.691,59.082,28.320,73.730,-49.316,0
1486284246.386,32.227,56.641,26.367,60.547,34.668,0
1486284246.390,30.762,52.734,24.414,59.082,-25.391,0
1486284246.394,44.434,56.152,26.855,65.918,-74.219,0
1486284246.398,50.293,56.641,29.297,60.059,-39.551,0
1486284246.402,40.039,53.223,32.715,62.012,-11.719,0
1486284246.406,32.715,50.293,30.273,60.059,8.789,0
1486284246.410,34.668,46.387,28.809,56.152,18.066,0
1486284246.413,45.898,49.316,30.273,66.895,43.457,0
1486284246.417,50.293,52.246,28.320,68.848,41.992,0
1486284246.421,38.574,46.387,24.414,67.383,9.766,0
1486284246.425,32.227,39.062,22.461,64.941,3.418,0
1486284246.429,40.527,40.527,27.344,45.410,11.230,0
1486284246.433,47.852,50.781,28.809,41.992,1.953,0
1486284246.437,41.504,51.758,25.879,51.270,0.488,0
1486284246.441,36.133,45.898,30.273,65.918,-22.461,0
1486284246.445,45.898,47.852,36.621,78.613,9.277,0
1486284246.449,59.082,51.758,37.109,68.359,12.207,0
1486284246.452,56.152,48.340,37.109,64.453,-0.977,0
1486284246.456,51.270,43.457,37.598,69.336,58.594,0
1486284246.460,49.805,49.316,39.551,70.801,98.145,0
1486284246.464,44.922,48.340,40.039,71.289,48.828,0
1486284246.468,41.504,41.504,36.133,64.453,16.113,0
1486284246.472,50.781,47.852,36.621,56.641,62.012,3
1486284246.476,52.246,54.688,38.574,60.059,72.266,0
1486284246.480,38.086,49.805,32.227,63.965,44.434,0
1486284246.484,35.645,46.387,27.832,65.918,44.922,0
1486284246.488,45.410,45.410,29.297,66.895,53.223,0
1486284246.492,51.758,48.828,33.203,62.500,62.988,0
1486284246.495,40.527,43.945,28.809,60.547,46.875,0
1486284246.499,29.785,35.156,22.949,54.199,20.020,0
1486284246.503,35.156,32.715,21.973,44.922,71.777,0
1486284246.507,46.387,41.504,26.855,39.551,101.074,0
1486284246.511,41.016,45.410,31.738,40.527,83.008,0
1486284246.515,25.391,36.621,30.762,41.992,104.492,0
1486284246.519,30.273,35.645,25.879,53.223,71.777,0
1486284246.523,39.551,39.551,23.438,60.059,56.641,0
1486284246.527,44.434,43.945,23.926,53.223,61.035,0
1486284246.531,46.387,43.457,24.902,43.457,80.566,0
1486284246.535,48.828,45.898,34.180,35.156,92.285,0
1486284246.538,49.316,44.434,42.969,46.387,63.965,0
1486284246.542,49.316,33.203,38.574,60.059,71.777,0
1486284246.546,53.711,28.809,30.273,59.082,117.188,0
1486284246.550,51.758,31.250,28.320,47.852,92.285,0
1486284246.554,38.574,26.855,28.320,51.758,86.914,0
1486284246.558,38.086,27.832,32.715,66.895,114.746,0
1486284246.562,51.758,34.180,35.645,70.312,119.141,0
1486284246.566,55.664,34.668,33.691,58.594,113.770,0
1486284246.570,51.270,32.227,29.297,58.105,118.164,0
1486284246.574,52.734,33.203,30.273,55.664,134.766,0
1486284246.577,45.410,32.715,30.273,51.758,135.742,0
1486284246.581,35.156,32.227,30.273,59.570,108.398,0
1486284246.585,41.016,37.109,31.738,54.199,94.238,0
1486284246.589,47.363,38.086,31.738,53.223,120.605,0
1486284246.593,45.410,40.039,32.715,64.941,163.086,0
1486284246.597,46.387,40.527,32.227,75.195,134.277,0
1486284246.601,54.199,41.992,35.156,79.102,114.258,0
1486284246.605,39.551,38.086,37.598,69.336,126.465,0
1486284246.609,22.949,30.762,33.691,47.852,111.816,0
1486284246.613,20.508,28.809,32.227,44.922,108.398,0
1486284246.617,21.484,28.809,34.668,56.641,92.285,0
1486284246.620,22.461,30.762,37.109,37.598,69.336,0
1486284246.624,24.902,32.715,31.250,35.156,82.520,0
1486284246.628,27.832,30.273,20.020,47.363,54.688,0
1486284246.632,22.461,21.484,20.020,34.180,-5.859,0
1486284246.636,22.461,15.137,22.461,35.645,35.645,0
1486284246.640,25.879,20.996,26.367,53.711,98.145,0
1486284246.644,21.484,21.973,27.832,55.176,59.570,0
1486284246.648,18.066,21.484,26.367,32.715,41.016,0
1486284246.652,30.273,26.855,34.180,22.949,62.500,0
1486284246.656,34.668,29.297,41.992,40.527,24.902,0
1486284246.660,22.461,28.320,38.086,49.805,-0.488,0
1486284246.663,20.020,24.902,36.621,53.223,16.113,0
1486284246.667,29.785,19.531,36.133,49.316,3.906,0
1486284246.671,30.762,14.160,33.691,47.363,-3.906,0
1486284246.675,24.902,20.508,41.992,50.781,14.160,0
1486284246.679,26.367,26.855,45.898,49.805,16.113,0
1486284246.683,25.879,25.391,43.457,40.039,23.438,0
1486284246.687,25.391,27.832,44.434,41.016,46.875,0
1486284246.691,29.785,29.785,41.504,59.570,8.301,0
1486284246.695,18.555,23.926,38.086,70.801,12.207,0
1486284246.699,13.184,17.578,35.156,66.406,-6.348,0
1486284246.702,25.879,22.461,40.527,62.012,-45.898,0
1486284246.706,27.344,26.855,42.969,50.781,-20.020,0
1486284246.710,22.461,25.879,38.574,45.898,12.207,0
1486284246.714,24.414,31.738,43.457,54.199,-3.418,0
1486284246.718,33.203,37.109,39.551,46.387,-47.852,0
1486284246.722,38.574,36.621,33.203,44.922,-15.137,0
1486284246.726,37.109,35.645,34.668,46.387,17.578,0
1486284246.730,31.738,36.621,35.156,43.457,-50.293,0
1486284246.734,29.297,38.086,38.086,52.734,-63.965,0
1486284246.738,32.227,34.668,38.086,52.246,-21.973,0
1486284246.742,41.504,31.738,35.156,41.992,3.906,0
1486284246.745,40.039,34.180,30.273,43.945,11.230,0
1486284246.749,27.344,34.180,29.785,40.527,-15.137,0
1486284246.753,31.738,35.645,34.668,44.434,-20.508,0
1486284246.757,51.758,46.387,41.992,59.570,-29.785,0
1486284246.761,52.734,49.316,35.645,53.223,-13.672,0
1486284246.765,52.734,51.270,31.738,47.363,-20.020,0
1486284246.769,51.758,48.340,31.738,46.875,-45.410,0
1486284246.773,38.086,35.645,18.555,39.062,-4.395,0
1486284246.777,29.785,32.227,12.695,44.434,16.602,0
1486284246.781,37.109,36.621,18.066,48.828,35.156,0
1486284246.785,43.945,40.527,20.020,61.035,20.020,0
1486284246.788,49.316,40.039,21.973,67.383,25.879,0
1486284246.792,55.176,40.527,30.273,60.547,56.152,0
1486284246.796,43.457,41.504,31.738,57.617,38.574,0
1486284246.800,44.434,41.504,31.738,57.129,18.555,0
1486284246.804,53.223,42.480,34.180,61.523,-0.977,0
1486284246.808,42.969,39.062,28.320,59.082,5.859,0
1486284246.812,37.109,40.039,29.785,50.293,6.836,0
1486284246.816,28.809,40.527,37.598,49.805,-4.395,0
1486284246.820,25.879,43.457,40.039,48.340,44.922,0
1486284246.824,34.668,43.457,29.785,41.504,53.711,0
1486284246.827,34.668,40.039,20.020,33.203,19.531,0
1486284246.831,32.715,45.410,22.461,32.715,25.391,0
1486284246.835,27.344,50.781,20.020,31.250,29.785,0
1486284246.839,32.227,49.316,16.113,29.785,26.855,0
1486284246.843,45.898,46.875,22.461,32.227,0.488,0
1486284246.847,51.758,44.922,26.855,45.410,-2.930,0
1486284246.851,48.340,42.480,26.855,55.176,68.359,0
1486284246.855,44.434,43.945,27.832,52.734,73.242,0
1486284246.859,47.363,46.387,31.250,45.898,35.156,0
1486284246.863,52.734,47.363,31.738,47.363,22.461,0
1486284246.867,58.594,55.176,42.480,58.105,36.133,0
1486284246.870,43.945,48.340,40.527,58.105,56.152,0
1486284246.874,31.738,30.762,21.484,45.410,59.082,0
1486284246.878,36.621,33.203,21.484,37.109,75.684,0
1486284246.882,38.086,38.574,30.762,48.340,65.430,0
1486284246.886,27.832,34.180,31.738,62.012,63.477,0
1486284246.890,26.367,34.180,30.273,57.617,66.406,0
1486284246.894,28.320,39.062,29.297,44.922,79.590,0
1486284246.898,19.531,33.691,30.762,37.598,93.262,0
1486284246.902,28.320,44.434,38.086,46.875,66.895,0
1486284246.906,32.715,52.246,36.133,53.223,75.684,0
1486284246.910,21.973,42.969,28.320,51.270,84.473,0
1486284246.913,21.484,44.922,26.367,34.668,47.363,0
1486284246.917,22.461,41.992,26.855,15.625,31.738,0
1486284246.921,21.973,38.574,24.414,19.043,49.805,0
1486284246.925,23.926,41.016,20.508,34.180,30.273,0
1486284246.929,28.320,41.016,19.531,42.969,13.184,0
1486284246.933,30.273,40.039,21.484,35.156,22.949,0
1486284246.937,28.320,37.109,23.926,34.180,52.734,0
1486284246.941,25.391,40.527,26.855,45.410,72.754,0
1486284246.945,26.367,47.363,31.250,59.082,81.543,0
1486284246.949,35.156,49.805,32.715,57.617,62.012,0
1486284246.952,43.457,48.828,27.832,45.410,60.059,0
1486284246.956,48.828,52.734,22.461,48.340,87.402,0
1486284246.960,48.828,57.129,25.879,46.875,36.133,0
1486284246.964,46.875,55.664,35.156,51.270,29.297,0
1486284246.968,47.363,53.711,45.410,55.664,107.910,0
1486284246.972,46.387,55.664,44.922,59.082,105.469,4
1486284246.976,58.594,55.176,35.645,64.453,57.129,0
1486284246.980,59.570,51.270,33.691,53.223,44.434,0
1486284246.984,50.293,56.152,44.922,62.988,45.898,0
1486284246.988,45.410,57.129,47.363,67.383,40.039,0
1486284246.992,37.598,45.898,29.297,56.152,65.918,0
1486284246.995,35.156,42.969,19.043,50.293,59.570,0
1486284246.999,38.086,45.410,27.344,41.504,34.180,0
1486284247.003,41.504,46.875,38.574,39.062,25.879,0
1486284247.007,38.574,44.434,36.621,43.457,15.137,0
1486284247.011,37.598,36.133,36.133,36.133,58.105,0
1486284247.015,45.410,42.969,43.457,49.316,72.754,0
1486284247.019,44.434,50.293,46.875,65.918,68.359,0
1486284247.023,44.434,47.363,41.016,57.129,69.824,0
1486284247.027,50.781,42.480,35.156,52.734,62.012,0
1486284247.031,44.434,41.016,36.133,44.922,77.637,0
1486284247.035,39.062,43.945,37.109,43.457,46.387,0
1486284247.038,38.574,43.945,33.691,46.875,41.016,0
1486284247.042,43.457,48.828,40.527,43.457,72.266,0
1486284247.046,45.410,50.781,44.434,39.551,50.293,0
1486284247.050,45.410,52.734,45.410,52.246,43.457,0
1486284247.054,46.387,52.734,44.922,66.895,45.410,0
1486284247.058,43.945,47.852,46.875,69.824,60.059,0
1486284247.062,45.898,47.363,49.805,60.059,63.477,0
1486284247.066,38.086,42.969,43.457,40.039,45.898,0
1486284247.070,39.551,41.016,38.086,37.109,56.152,0
1486284247.074,44.434,39.551,35.156,50.781,64.453,0
1486284247.077,48.828,38.574,34.180,62.012,65.430,0
1486284247.081,52.734,44.434,41.504,65.918,95.703,0
1486284247.085,55.176,46.875,49.805,58.105,116.211,0
1486284247.089,56.152,45.898,51.758,55.664,104.980,0
1486284247.093,50.293,45.898,56.641,63.965,83.008,0
1486284247.097,45.410,44.922,55.664,63.477,83.008,0
1486284247.101,44.922,44.434,48.340,58.105,106.445,0
1486284247.105,48.340,47.852,47.852,52.734,115.723,0
1486284247.109,47.852,48.340,51.270,42.969,84.473,0
1486284247.113,34.668,45.410,49.805,54.199,89.844,0
1486284247.117,32.715,43.457,42.969,64.941,104.980,0
1486284247.120,31.250,42.969,41.504,50.781,78.125,0
1486284247.124,24.414,39.551,38.086,32.715,111.816,0
1486284247.128,30.762,38.086,34.180,28.809,144.531,0
1486284247.132,40.039,45.410,38.086,42.969,141.113,0
1486284247.136,42.969,52.246,43.945,50.293,157.715,0
1486284247.140,38.574,51.758,39.551,58.594,136.719,0
1486284247.144,37.598,49.316,35.156,55.176,131.836,0
1486284247.148,50.293,49.316,43.457,40.527,162.598,0
1486284247.152,54.688,55.176,46.387,42.480,164.062,0
1486284247.156,45.898,52.734,44.922,54.688,165.039,0
1486284247.160,39.062,42.969,44.922,61.035,141.602,0
1486284247.163,34.668,41.504,40.527,43.457,141.602,0
1486284247.167,35.156,46.387,44.922,43.945,122.070,0
1486284247.171,41.016,43.945,43.945,48.828,121.582,0
1486284247.175,47.852,38.086,34.180,43.945,163.086,0
1486284247.179,41.016,36.621,33.203,50.781,154.297,0
1486284247.183,28.809,39.551,38.086,54.199,117.676,0
1486284247.187,31.250,39.551,37.598,53.711,94.727,0
1486284247.191,36.133,31.250,29.785,52.734,125.000,0
1486284247.195,40.039,28.809,32.715,48.340,174.316,0
1486284247.199,43.945,36.133,36.133,63.477,175.293,0
1486284247.202,50.781,37.598,36.133,58.594,129.395,0
1486284247.206,52.246,35.156,42.969,40.039,156.250,0
1486284247.210,40.527,34.668,37.598,49.805,185.547,0
1486284247.214,33.203,35.156,33.203,57.129,143.555,0
1486284247.218,36.133,37.598,36.133,54.199,134.277,0
1486284247.222,37.109,42.480,38.574,48.340,159.668,0
1486284247.226,35.156,40.527,33.203,36.133,151.367,0
1486284247.230,29.785,36.133,24.414,41.504,108.887,0
1486284247.234,33.691,35.156,26.855,40.527,86.426,0
1486284247.238,42.969,34.668,33.203,31.250,119.629,0
1486284247.242,35.156,32.227,30.762,29.297,132.812,0
1486284247.245,26.855,30.273,28.320,29.785,120.605,0
1486284247.249,27.832,33.203,33.691,38.086,133.301,0
1486284247.253,35.645,39.062,38.086,39.062,135.254,0
1486284247.257,46.387,44.922,36.133,50.293,115.723,0
1486284247.261,37.109,49.316,32.715,62.988,77.148,0
1486284247.265,29.297,53.223,32.715,57.617,113.770,0
1486284247.269,33.203,50.293,29.785,46.875,137.695,0
1486284247.273,35.645,46.875,29.297,49.805,99.609,0
1486284247.277,33.203,46.875,31.250,49.316,80.078,0
1486284247.281,28.320,37.598,27.832,28.809,76.660,0
1486284247.285,36.133,33.691,29.785,27.344,79.590,0
1486284247.288,41.504,39.551,34.180,44.922,51.270,0
1486284247.292,32.227,40.039,32.715,47.363,68.359,0
1486284247.296,29.785,41.992,34.180,33.203,80.566,0
1486284247.300,34.668,49.316,37.109,39.062,80.566,0
1486284247.304,40.039,50.781,41.016,53.223,66.895,0
1486284247.308,31.738,46.387,43.457,47.852,58.105,0
1486284247.312,28.809,47.852,41.504,39.551,116.211,0
1486284247.316,34.180,50.293,35.645,49.316,124.023,0
1486284247.320,37.109,53.223,33.691,57.129,66.895,0
1486284247.324,41.992,52.246,33.691,54.688,76.660,0
1486284247.327,41.504,45.898,31.738,47.363,129.395,0
1486284247.331,42.480,51.758,33.203,43.457,104.004,0
1486284247.335,38.574,59.082,36.133,50.293,54.199,0
1486284247.339,38.086,59.082,39.062,47.363,75.195,0
1486284247.343,41.992,59.082,40.527,53.223,103.027,0
1486284247.347,34.180,54.199,41.504,64.941,85.938,0
1486284247.351,44.922,56.641,41.992,57.129,81.543,0
1486284247.355,49.805,58.105,39.062,41.016,80.078,0
1486284247.359,42.969,54.688,39.062,45.410,80.566,0
1486284247.363,43.457,50.293,35.156,50.293,91.309,0
1486284247.367,34.668,42.969,28.809,50.293,94.238,0
1486284247.370,32.715,42.969,32.715,41.992,94.727,0
1486284247.374,33.691,41.504,29.297,34.180,121.094,0
1486284247.378,27.344,39.551,29.785,46.875,113.770,0
1486284247.382,30.762,43.945,41.992,60.547,78.613,0
1486284247.386,46.387,46.875,47.363,58.105,81.055,0
1486284247.390,43.457,43.457,38.086,59.082,79.102,0
1486284247.394,37.598,40.527,32.227,60.547,75.195,0
1486284247.398,37.598,40.039,32.715,59.082,54.199,0
1486284247.402,28.809,36.621,35.156,59.570,64.453,0
1486284247.406,37.109,40.527,42.480,65.430,90.332,0
1486284247.410,45.410,39.551,37.109,55.176,51.270,0
1486284247.413,44.434,33.691,26.367,34.668,62.012,0
1486284247.417,40.527,40.527,28.809,49.316,72.754,0
1486284247.421,29.297,41.992,29.297,58.105,73.242,0
1486284247.425,31.250,42.969,31.250,54.199,77.637,0
1486284247.429,38.574,46.875,35.645,53.223,48.340,0
1486284247.433,42.480,48.828,41.504,48.828,71.289,0
1486284247.437,44.922,50.781,47.363,51.758,70.312,0
1486284247.441,49.316,51.758,40.039,59.082,86.914,0
1486284247.445,45.898,46.387,29.297,54.199,116.699,0
1486284247.449,43.945,47.852,35.156,53.223,107.422,0
1486284247.452,39.551,50.293,38.574,55.176,87.402,0
1486284247.456,26.855,45.410,30.273,41.504,58.594,0
1486284247.460,26.855,41.504,31.250,40.527,62.500,0
1486284247.464,23.438,33.691,32.227,37.109,68.359,0
1486284247.468,25.879,32.227,33.203,31.738,50.781,0
1486284247.472,34.668,36.133,41.992,41.504,54.688,5
1486284247.476,36.621,39.062,46.387,46.387,78.125,0
1486284247.480,37.598,40.527,39.551,44.922,53.711,0
1486284247.484,47.363,50.293,40.527,54.199,32.715,0
1486284247.488,51.270,55.176,49.316,66.895,43.457,0
1486284247.492,44.434,49.316,49.316,68.359,89.844,0
1486284247.495,40.527,45.410,48.828,56.152,85.938,0
1486284247.499,47.363,43.457,45.410,48.340,71.289,0
1486284247.503,53.711,46.387,42.969,44.434,70.801,0
1486284247.507,49.316,47.852,40.039,40.527,50.781,0
1486284247.511,42.969,51.270,41.504,49.316,37.109,0
1486284247.515,45.898,48.340,45.898,56.152,33.203,0
1486284247.519,44.922,43.457,44.434,54.199,22.949,0
1486284247.523,30.273,41.016,37.598,56.641,38.574,0
1486284247.527,27.344,40.527,33.203,58.105,41.992,0
1486284247.531,40.039,47.852,40.527,62.500,32.227,0
1486284247.535,47.363,52.246,47.363,60.059,13.184,0
1486284247.538,42.480,46.387,41.504,55.664,43.457,0
1486284247.542,47.363,46.875,39.551,54.688,38.086,0
1486284247.546,51.270,51.758,46.875,60.059,11.719,0
1486284247.550,45.410,50.781,53.711,66.895,39.062,0
1486284247.554,46.875,46.387,52.734,53.711,45.410,0
1486284247.558,39.062,47.852,46.875,46.875,12.695,0
1486284247.562,31.250,49.316,44.434,42.969,-5.371,0
1486284247.566,33.203,45.410,40.527,42.969,-3.418,0
1486284247.570,41.504,48.340,42.480,60.547,-7.812,0
1486284247.574,45.410,48.340,39.062,59.082,-9.277,0
1486284247.577,31.250,41.992,33.691,48.340,-21.973,0
1486284247.581,28.809,44.922,40.527,52.246,0.000,0
1486284247.585,36.621,47.852,46.875,48.340,12.695,0
1486284247.589,34.180,39.062,40.527,47.852,15.625,0
1486284247.593,38.086,35.645,38.086,41.016,11.719,0
1486284247.597,43.457,36.621,39.551,25.879,21.484,0
1486284247.601,42.969,34.180,47.363,30.762,-1.465,0
1486284247.605,34.668,24.902,43.457,28.809,-51.270,0
1486284247.609,27.832,17.090,26.367,27.832,-32.227,0
1486284247.613,30.762,21.484,33.203,39.551,-12.207,0
1486284247.617,29.785,27.344,43.945,37.598,-46.387,0
1486284247.620,25.391,27.344,41.016,30.273,-104.980,0
1486284247.624,29.785,29.297,35.645,26.367,-67.871,0
1486284247.628,41.992,37.598,40.039,32.715,-46.875,0
1486284247.632,41.504,38.574,38.574,39.551,-54.688,0
1486284247.636,37.598,34.180,28.320,32.227,-73.730,0
1486284247.640,46.875,37.598,36.621,27.344,-88.867,0
1486284247.644,56.641,48.340,51.270,41.504,-68.848,0
1486284247.648,48.340,52.246,51.270,52.246,-82.031,0
1486284247.652,41.016,45.410,40.527,44.434,-100.098,0
1486284247.656,47.852,44.922,36.133,44.434,-88.867,0
1486284247.660,51.270,48.340,37.598,59.570,-77.148,0
1486284247.663,53.711,54.199,45.410,67.383,-97.168,0
1486284247.667,54.688,53.711,46.875,49.805,-100.098,0
1486284247.671,57.617,43.945,37.598,34.180,-73.242,0
1486284247.675,62.988,41.016,41.992,40.039,-77.637,0
1486284247.679,62.012,42.480,46.387,45.410,-105.469,0
1486284247.683,57.617,45.410,39.062,44.434,-133.789,0
1486284247.687,61.523,49.316,42.480,45.410,-123.535,0
1486284247.691,55.176,46.387,53.711,60.547,-101.562,0
1486284247.695,42.480,46.387,57.129,58.105,-107.422,0
1486284247.699,48.828,51.758,57.129,50.781,-135.742,0
1486284247.702,52.734,44.434,54.199,57.617,-116.699,0
1486284247.706,51.270,42.969,59.570,55.664,-81.055,0
1486284247.710,52.734,48.828,61.523,52.734,-108.398,0
1486284247.714,50.781,43.457,53.223,48.340,-135.254,0
1486284247.718,58.594,44.922,58.105,45.898,-73.242,0
1486284247.722,62.988,45.410,59.082,42.969,-60.059,0
1486284247.726,61.523,46.387,52.734,43.457,-60.547,0
1486284247.730,60.547,50.781,58.594,52.734,-35.156,0
1486284247.734,48.340,45.410,62.012,61.035,-65.918,0
1486284247.738,37.109,40.039,57.129,50.781,-69.336,0
1486284247.742,42.480,46.387,55.664,47.363,-77.148,0
1486284247.745,51.758,50.781,57.129,52.734,-49.316,0
1486284247.749,53.223,50.781,56.152,52.734,-70.801,0
1486284247.753,51.758,53.223,59.570,55.176,-60.547,0
1486284247.757,58.105,56.152,61.035,47.852,-11.719,0
1486284247.761,52.734,52.246,52.246,43.457,-41.992,0
1486284247.765,42.480,48.340,53.223,48.828,-80.078,0
1486284247.769,48.340,50.293,52.734,51.270,-69.824,0
1486284247.773,58.105,52.734,56.641,48.828,-33.203,0
1486284247.777,66.406,56.152,67.383,45.898,-11.719,0
1486284247.781,66.406,58.594,64.453,51.270,-26.855,0
1486284247.785,59.082,51.758,51.758,46.387,-46.875,0
1486284247.788,61.035,50.293,49.805,49.805,-25.391,0
1486284247.792,67.383,55.664,62.012,62.500,-26.367,0
1486284247.796,64.453,53.711,65.430,55.176,-44.434,0
1486284247.800,54.199,50.293,58.594,51.758,-32.227,0
1486284247.804,48.340,45.410,53.711,50.781,12.695,0
1486284247.808,53.711,43.945,51.270,44.922,-24.902,0
1486284247.812,59.082,46.875,50.293,37.598,-88.867,0
1486284247.816,54.688,44.922,51.270,33.203,-13.672,0
1486284247.820,57.129,40.039,46.387,30.762,41.504,0
1486284247.824,64.941,41.016,42.480,26.855,-22.461,0
1486284247.827,57.129,39.062,39.551,25.879,-61.035,0
1486284247.831,49.805,29.785,34.180,27.344,-10.254,0
1486284247.835,49.805,26.855,35.156,36.621,0.488,0
1486284247.839,47.363,33.691,40.039,48.340,-22.949,0
1486284247.843,42.969,36.621,41.992,41.016,0.977,0
1486284247.847,42.969,38.086,40.527,30.273,23.438,0
1486284247.851,50.781,44.434,44.922,33.691,1.465,0
1486284247.855,55.664,43.945,44.922,31.738,-5.371,0
1486284247.859,55.176,40.039,33.691,24.414,4.883,0
1486284247.863,49.316,42.480,39.062,27.344,-16.113,0
1486284247.867,47.363,42.480,50.293,31.738,-22.949,0
1486284247.870,43.457,41.992,44.434,26.855,0.488,0
1486284247.874,41.992,42.480,40.527,34.180,66.895,0
1486284247.878,45.410,41.992,42.480,37.598,65.918,0
1486284247.882,48.340,46.875,45.410,24.902,19.043,0
1486284247.886,48.340,46.875,44.922,17.578,-11.230,0
1486284247.890,32.715,41.016,42.969,29.785,-35.645,0
1486284247.894,25.391,39.551,39.551,35.645,-44.434,0
1486284247.898,39.551,46.875,42.969,32.227,-13.672,0
1486284247.902,46.875,53.711,51.270,35.156,37.598,0
1486284247.906,44.922,52.246,58.594,41.992,6.836,0
1486284247.910,50.781,54.199,54.199,40.527,-54.199,0
1486284247.913,48.828,53.223,46.875,29.297,-28.320,0
1486284247.917,43.457,49.805,49.316,26.855,5.371,0
1486284247.921,44.922,48.340,46.875,32.715,-9.277,0
1486284247.925,42.969,47.363,41.504,34.180,9.277,0
1486284247.929,39.062,47.852,43.457,29.785,75.684,0
1486284247.933,41.504,53.223,55.176,38.574,79.102,0
1486284247.937,42.969,55.664,56.641,47.363,11.719,0
1486284247.941,43.945,46.875,49.316,41.016,5.859,0
1486284247.945,49.805,41.016,46.387,32.227,47.363,0
1486284247.949,45.898,41.016,44.434,35.645,24.902,0
1486284247.952,39.062,44.434,42.480,33.203,20.508,0
1486284247.956,34.668,42.969,45.898,33.691,52.734,0
1486284247.960,40.527,42.969,55.176,48.828,42.480,0
1486284247.964,52.734,49.316,54.688,42.480,22.949,0
1486284247.968,56.641,50.781,53.711,31.250,17.578,0
1486284247.972,56.152,53.223,60.547,42.480,5.371,0
1486284247.976,48.340,52.246,56.641,50.293,1.465,0
1486284247.980,48.828,52.246,50.781,50.781,15.625,0
1486284247.984,56.152,56.641,50.781,56.641,34.180,0
1486284247.988,61.035,61.035,51.758,57.129,-3.418,0
1486284247.992,62.988,62.012,50.781,49.316,-21.973,0
1486284247.995,57.129,55.176,47.852,46.875,34.668,0
1486284247.999,58.594,51.270,47.363,53.711,49.316,0
1486284248.003,64.453,50.781,41.504,50.293,75.195,0
1486284248.007,63.477,58.594,45.898,47.363,44.922,0
1486284248.011,47.852,50.781,50.293,54.199,8.789,0
1486284248.015,47.363,46.387,46.387,50.293,28.320,0
1486284248.019,45.898,46.875,47.363,50.781,21.484,0
1486284248.023,32.227,37.109,42.480,55.176,41.992,0
1486284248.027,36.133,35.156,36.621,48.340,28.809,0
1486284248.031,40.039,34.180,34.180,48.340,40.527,0
1486284248.035,43.945,35.156,32.715,49.316,67.871,0
1486284248.038,48.340,39.551,35.645,39.551,48.828,0
1486284248.042,54.688,43.945,35.156,36.621,3.906,0
1486284248.046,46.875,40.527,27.344,47.363,-17.578,0
1486284248.050,41.992,38.086,25.391,42.969,24.414,0
1486284248.054,50.293,41.992,34.668,36.133,85.449,0
1486284248.058,47.852,41.504,36.621,38.086,71.289,0
1486284248.062,43.945,44.434,31.250,40.527,1.465,0
1486284248.066,36.621,44.434,34.668,42.480,-0.488,0
1486284248.070,37.109,46.875,36.133,56.641,-18.555,0
1486284248.074,49.316,48.340,34.668,53.223,20.020,0
1486284248.077,54.199,45.410,28.320,40.039,104.004,0
1486284248.081,55.176,48.340,30.762,58.594,52.246,0
1486284248.085,58.105,48.340,42.480,64.941,33.691,0
1486284248.089,50.293,41.016,43.457,62.988,56.641,0
1486284248.093,42.480,39.062,40.039,71.289,26.367,0
1486284248.097,37.598,38.574,41.992,52.246,40.527,0
1486284248.101,44.922,40.039,47.852,37.598,59.082,0
1486284248.105,61.035,48.828,54.199,57.617,89.844,0
1486284248.109,64.453,45.410,52.734,57.617,114.746,0
1486284248.113,55.664,36.133,45.898,53.223,81.055,0
1486284248.117,45.898,37.109,44.922,68.359,52.246,0
1486284248.120,45.898,43.457,50.781,77.148,41.992,0
1486284248.124,52.734,47.363,55.176,69.824,49.805,0
1486284248.128,53.711,44.922,53.223,55.176,17.090,0
1486284248.132,55.176,44.922,53.711,41.992,-15.137,0
1486284248.136,56.152,44.922,55.176,56.641,-6.836,0
1486284248.140,58.105,39.062,48.828,72.266,22.461,0
1486284248.144,63.965,43.457,47.363,66.895,27.344,0
1486284248.148,63.477,49.316,49.316,70.312,41.016,0
1486284248.152,58.105,47.363,48.340,67.383,64.453,0
1486284248.156,56.152,46.875,46.387,62.500,21.973,0
1486284248.160,66.406,52.734,52.246,74.219,20.996,0
1486284248.163,62.500,52.246,52.246,84.961,3.906,0
1486284248.167,58.594,45.898,42.480,85.938,-41.992,0
1486284248.171,63.965,42.969,40.527,82.031,24.902,0
1486284248.175,52.246,34.668,37.598,66.895,28.320,0
1486284248.179,47.852,31.738,40.527,62.988,4.395,0
1486284248.183,62.012,41.016,46.387,73.242,-8.301,0
1486284248.187,62.012,45.898,47.852,77.148,26.367,0
1486284248.191,58.105,44.922,59.570,82.031,27.832,0
1486284248.195,55.664,42.480,58.105,77.148,-41.016,0
1486284248.199,47.363,36.133,43.457,60.547,5.859,0
1486284248.202,39.551,31.738,35.645,44.434,19.043,0
1486284248.206,37.109,27.832,36.133,37.109,-26.367,0
1486284248.210,41.016,27.832,40.527,38.086,13.184,0
1486284248.214,24.414,28.320,36.133,40.527,64.941,0
1486284248.218,21.973,27.832,32.715,36.133,43.457,0
1486284248.222,36.133,24.414,32.715,34.180,23.926,0
1486284248.226,40.039,24.902,30.762,32.227,46.875,0
1486284248.230,40.039,28.809,33.691,25.391,28.809,0
1486284248.234,34.668,31.738,39.551,29.785,52.734,0
1486284248.238,41.016,35.156,39.551,36.133,96.191,0
1486284248.242,50.781,33.203,37.109,46.387,72.754,0
1486284248.245,43.457,33.203,35.156,54.199,38.574,0
1486284248.249,47.363,36.621,34.180,45.898,33.691,0
1486284248.253,50.781,32.227,30.762,44.434,30.762,0
1486284248.257,51.270,27.832,28.809,44.434,75.684,0
1486284248.261,55.664,32.715,30.273,57.617,86.426,0
1486284248.265,46.387,32.715,26.855,63.477,48.828,0
1486284248.269,52.734,32.227,31.250,52.246,92.285,0
1486284248.273,61.523,31.250,37.598,53.223,83.496,0
1486284248.277,55.664,34.180,33.203,50.781,55.176,0
1486284248.281,52.246,42.969,33.203,49.805,44.434,0
1486284248.285,50.781,45.410,41.992,57.129,-16.113,0
1486284248.288,57.617,44.922,46.387,68.359,-43.945,0
1486284248.292,66.406,43.945,46.875,63.477,-3.906,0
1486284248.296,56.641,41.992,43.945,57.617,28.320,0
1486284248.300,53.711,45.898,44.434,59.570,55.176,0
1486284248.304,68.848,49.316,46.875,57.617,104.980,0
1486284248.308,68.359,50.293,47.363,59.082,69.824,0
1486284248.312,61.035,50.293,44.434,55.664,11.230,0
1486284248.316,60.059,46.875,42.969,49.805,0.977,0
1486284248.320,61.523,50.293,46.875,49.805,46.875,0
1486284248.324,61.523,49.805,43.945,51.758,41.504,0
1486284248.327,51.270,39.551,37.109,50.293,10.254,0
1486284248.331,46.387,39.062,41.992,46.387,47.852,0
1486284248.335,48.340,42.480,46.387,52.734,66.406,0
1486284248.339,39.551,38.574,42.480,53.223,32.227,0
1486284248.343,43.945,45.898,46.875,55.176,53.711,0
1486284248.347,54.199,48.828,55.664,62.500,80.566,0
1486284248.351,52.734,43.457,58.105,56.641,102.051,0
1486284248.355,49.805,46.875,61.523,60.059,71.777,0
1486284248.359,50.293,46.875,61.523,63.965,50.293,0
1486284248.363,47.852,39.062,54.688,62.500,30.273,0
1486284248.367,49.316,42.969,57.617,64.453,54.199,0
1486284248.370,52.246,49.805,64.941,58.105,92.285,0
1486284248.374,55.176,44.922,57.129,44.922,53.711,0
1486284248.378,55.176,38.086,45.898,51.758,65.430,0
1486284248.382,47.852,36.621,44.922,55.664,28.809,0
1486284248.386,46.387,35.645,41.016,54.199,10.742,0
1486284248.390,50.781,32.227,39.062,61.035,29.785,0
1486284248.394,57.129,34.180,45.898,65.430,26.855,0
1486284248.398,47.852,35.156,42.969,60.547,98.633,0
1486284248.402,46.875,45.410,45.898,61.035,55.664,0
1486284248.406,65.918,52.734,57.617,65.430,25.879,0
1486284248.410,69.824,53.711,52.734,60.059,105.957,0
1486284248.413,63.965,53.711,50.293,53.711,125.977,0
1486284248.417,55.664,49.805,53.711,52.734,52.734,0
1486284248.421,55.176,44.434,54.688,60.547,-27.832,0
1486284248.425,57.617,48.828,57.129,73.730,25.879,0
1486284248.429,51.270,51.270,54.688,61.523,58.594,0
1486284248.433,50.293,39.551,47.363,44.922,43.457,0
1486284248.437,48.340,35.156,42.480,48.340,63.965,0
1486284248.441,34.668,31.738,34.180,45.898,76.172,0
1486284248.445,28.809,27.832,30.273,47.363,85.449,0
1486284248.449,35.645,35.645,28.320,47.852,41.016,0
1486284248.452,40.039,39.551,31.738,45.898,-0.488,0
1486284248.456,45.410,35.156,33.203,41.504,61.523,0
1486284248.460,45.898,33.691,29.785,41.992,68.359,0
1486284248.464,46.387,38.086,32.227,56.152,19.043,0
1486284248.468,49.805,37.598,34.668,65.430,11.230,0
1486284248.472,54.688,41.016,41.016,60.059,9.277,0
1486284248.476,59.570,48.340,45.898,57.129,9.766,0
1486284248.480,62.012,45.898,41.992,59.570,29.297,0
1486284248.484,61.523,42.480,37.109,65.918,9.766,0
1486284248.488,58.594,42.480,38.574,60.547,10.742,0
1486284248.492,52.246,42.969,39.551,52.734,27.832,0
1486284248.495,45.410,44.922,42.969,66.895,37.598,0
1486284248.499,57.129,50.293,51.758,72.754,45.410,0
1486284248.503,57.617,43.945,48.340,55.664,20.508,0
1486284248.507,50.781,35.645,38.086,39.551,39.551,0
1486284248.511,44.434,38.086,35.645,43.457,70.312,0
1486284248.515,38.574,40.527,36.133,48.340,79.590,0
1486284248.519,39.062,39.551,37.109,52.246,70.801,0
1486284248.523,34.180,34.668,36.133,58.594,60.547,0
1486284248.527,35.156,37.598,37.598,51.270,53.711,0
1486284248.531,41.504,40.039,38.574,49.805,75.684,0
1486284248.535,49.316,38.086,41.992,50.781,54.199,0
1486284248.538,46.387,38.574,41.504,61.035,-41.504,0
1486284248.542,49.316,40.527,45.410,57.129,-37.109,0
1486284248.546,63.965,45.410,49.805,46.875,9.766,0
1486284248.550,66.895,49.805,42.480,55.664,22.461,0
1486284248.554,58.594,46.875,41.504,56.152,96.680,0
1486284248.558,54.688,51.270,42.480,55.176,57.617,0
1486284248.562,54.199,52.734,38.574,49.805,11.230,0
1486284248.566,49.805,45.898,34.180,48.828,12.207,0
1486284248.570,45.898,43.945,31.250,51.270,69.824,0
1486284248.574,49.316,42.480,30.762,41.504,86.914,0
1486284248.577,50.781,41.992,34.668,38.574,26.367,0
1486284248.581,41.504,42.480,40.527,47.363,-8.789,0
1486284248.585,42.969,43.945,41.016,53.711,-25.391,0
1486284248.589,57.129,43.457,42.480,46.875,-15.625,0
1486284248.593,56.152,36.133,35.156,34.668,-28.809,0
1486284248.597,44.922,34.180,27.832,34.668,40.039,0
1486284248.601,42.480,36.621,33.203,45.410,73.242,0
1486284248.605,55.176,42.480,45.898,57.617,55.176,0
1486284248.609,54.199,43.945,46.875,55.176,65.430,0
1486284248.613,55.176,41.016,40.039,45.898,37.598,0
1486284248.617,67.871,45.410,47.363,57.617,-7.324,0
1486284248.620,53.711,41.504,46.387,58.105,-65.918,0
1486284248.624,41.992,36.133,37.598,60.547,-8.789,0
1486284248.628,43.945,33.691,36.621,68.848,75.684,0
1486284248.632,51.758,34.180,36.133,57.129,76.172,0
1486284248.636,60.547,42.480,33.691,49.316,60.059,0
1486284248.640,53.223,40.039,34.668,49.805,30.273,0
1486284248.644,47.852,33.691,32.227,51.758,14.160,0
1486284248.648,53.711,35.156,35.156,57.129,91.797,0
1486284248.652,55.176,41.992,42.969,55.664,117.188,0
1486284248.656,56.152,42.969,39.062,54.199,48.828,0
1486284248.660,57.617,42.480,43.457,55.664,42.480,0
1486284248.663,58.594,49.316,51.758,51.758,43.945,0
1486284248.667,60.059,50.781,45.410,50.781,53.223,0
1486284248.671,62.012,46.387,45.410,60.059,103.516,0
1486284248.675,61.035,41.016,46.875,63.965,58.594,0
1486284248.679,58.594,39.062,42.969,62.988,20.508,0
1486284248.683,61.035,40.527,41.992,62.988,43.945,0
1486284248.687,59.570,41.504,42.480,58.594,41.992,0
1486284248.691,52.246,33.691,37.109,47.852,62.988,0
1486284248.695,50.781,29.785,35.156,41.992,80.566,0
1486284248.699,50.293,34.668,38.086,30.762,78.613,0
1486284248.702,45.410,31.738,41.016,28.320,68.359,0
1486284248.706,53.711,29.785,45.410,43.945,35.645,0
1486284248.710,53.223,31.738,43.457,56.641,9.766,0
1486284248.714,50.293,30.762,43.457,58.105,25.391,0
1486284248.718,57.129,35.645,56.152,63.965,33.203,0
1486284248.722,64.941,43.457,58.594,62.012,27.344,0
1486284248.726,60.547,45.898,47.363,50.781,54.688,0
1486284248.730,56.152,43.457,42.969,49.805,75.684,0
1486284248.734,60.059,43.457,45.898,47.852,68.359,0
1486284248.738,58.594,43.945,47.363,39.062,10.254,0
1486284248.742,67.383,48.828,48.340,44.922,22.461,0
1486284248.745,67.383,50.293,48.828,53.223,37.109,0
1486284248.749,56.152,40.039,45.898,56.641,29.785,0
1486284248.753,51.758,34.668,49.316,65.430,35.156,0
1486284248.757,53.223,41.016,58.105,63.477,1.465,0
1486284248.761,50.293,40.527,59.570,53.711,-48.340,0
1486284248.765,49.316,37.598,56.641,57.129,-12.207,0
1486284248.769,60.547,41.992,60.059,54.199,43.457,0
1486284248.773,64.453,45.410,63.965,56.641,44.434,0
1486284248.777,55.176,48.340,63.477,59.570,16.113,0
1486284248.781,46.875,45.898,58.594,40.039,-20.020,0
1486284248.785,41.504,40.527,55.664,40.039,-19.531,0
1486284248.788,50.781,44.434,60.547,52.246,-49.805,0
1486284248.792,60.059,51.758,61.035,55.664,37.598,0
1486284248.796,49.805,48.828,56.152,53.223,72.266,0
1486284248.800,45.410,46.387,54.199,44.922,41.992,0
1486284248.804,46.875,44.434,54.199,41.016,-4.883,0
1486284248.808,43.457,44.434,56.152,42.969,-44.434,0
1486284248.812,46.387,49.316,58.105,40.039,22.461,0
1486284248.816,43.457,48.340,60.059,33.691,26.855,0
1486284248.820,36.133,37.598,56.152,28.809,44.922,0
1486284248.824,43.457,38.574,54.688,37.598,46.875,0
1486284248.827,44.922,41.992,56.641,48.828,45.410,0
1486284248.831,39.062,40.039,56.641,49.805,39.551,0
1486284248.835,27.832,33.691,50.293,44.434,2.441,0
1486284248.839,36.621,31.738,48.828,24.414,46.387,0
1486284248.843,53.223,35.156,54.688,29.785,25.391,0
1486284248.847,46.387,32.227,62.012,51.270,21.973,0
1486284248.851,41.992,35.156,67.871,50.781,75.684,0
1486284248.855,46.387,37.598,61.035,45.898,55.664,0
1486284248.859,42.969,30.273,52.246,51.758,36.621,0
1486284248.863,38.574,30.273,50.293,55.664,62.988,0
1486284248.867,31.738,28.320,46.387,45.410,21.484,0
1486284248.870,29.297,26.367,49.805,41.992,-5.859,0
1486284248.874,35.156,31.250,49.805,38.086,32.227,0
1486284248.878,39.062,31.250,44.434,45.898,63.965,0
1486284248.882,39.062,28.320,43.945,41.016,52.246,0
1486284248.886,33.691,32.715,49.316,48.340,-1.953,0
1486284248.890,31.738,41.504,54.688,71.289,46.387,0
1486284248.894,39.551,46.875,50.781,64.453,49.805,0
1486284248.898,45.898,50.293,52.246,55.664,55.664,0
1486284248.902,44.922,48.828,54.199,44.434,86.426,0
1486284248.906,46.387,42.480,46.387,33.691,71.777,0
1486284248.910,47.852,38.574,44.434,38.574,105.957,0
1486284248.913,50.293,40.039,45.410,51.758,111.328,0
1486284248.917,46.387,38.574,43.945,63.477,84.473,0
1486284248.921,39.551,39.062,43.945,73.730,40.039,0
1486284248.925,52.246,48.828,53.711,79.102,22.949,0
1486284248.929,59.570,48.340,51.758,75.195,54.688,0
1486284248.933,56.641,43.457,42.969,68.848,34.668,0
1486284248.937,49.805,42.480,42.969,71.777,45.410,0
1486284248.941,39.551,38.574,39.551,71.777,24.902,0
1486284248.945,47.852,42.969,44.434,68.848,15.137,0
1486284248.949,57.617,47.363,52.734,77.637,40.527,0
1486284248.952,50.293,38.086,46.875,70.312,73.730,0
1486284248.956,48.340,37.109,42.480,59.570,24.902,0
1486284248.960,50.781,41.992,43.457,61.523,16.602,0
1486284248.964,42.969,38.574,38.574,55.664,18.066,0
1486284248.968,33.691,37.109,36.133,51.758,-9.277,0
1486284248.972,35.645,37.109,41.016,53.711,81.055,0
1486284248.976,40.527,34.180,40.527,45.898,51.270,0
1486284248.980,44.922,37.598,41.992,47.852,-22.949,0
1486284248.984,47.363,42.480,48.828,52.734,-8.301,0
1486284248.988,51.758,49.805,54.688,57.129,5.859,0
1486284248.992,57.129,55.664,59.082,58.594,41.016,0
1486284248.995,56.152,53.711,51.270,57.617,45.898,0
1486284248.999,58.105,53.223,47.363,61.523,46.387,0
1486284249.003,55.176,53.711,53.711,64.941,76.660,0
1486284249.007,49.805,51.270,52.246,57.129,71.777,0
1486284249.011,50.293,46.875,44.922,47.363,48.340,0
1486284249.015,43.945,43.945,41.992,46.875,41.504,0
1486284249.019,47.852,44.434,48.340,51.270,-5.371,0
1486284249.023,51.758,43.457,40.039,47.852,3.906,0
1486284249.027,50.293,41.504,35.156,49.316,91.309,0
1486284249.031,45.898,41.504,44.922,54.688,82.520,0
1486284249.035,43.457,40.039,47.852,57.129,82.031,0
1486284249.038,45.898,40.527,50.293,62.988,57.617,0
1486284249.042,47.852,39.062,52.246,62.012,25.879,0
1486284249.046,50.781,35.645,48.340,56.152,64.453,0
1486284249.050,52.246,39.062,41.504,47.363,43.457,0
1486284249.054,49.805,41.016,41.016,44.434,40.527,0
1486284249.058,45.410,35.645,41.016,44.434,24.902,0
1486284249.062,54.199,35.156,37.109,48.340,23.438,0
1486284249.066,63.477,39.551,36.133,53.223,73.730,0
1486284249.070,49.805,38.574,29.297,47.852,33.691,0
1486284249.074,40.527,34.668,23.926,37.598,-14.160,0
1486284249.077,48.340,32.715,24.902,35.156,3.906,0
1486284249.081,49.316,33.203,22.949,31.250,40.527,0
1486284249.085,48.340,36.621,22.461,26.855,19.531,0
1486284249.089,52.246,41.992,25.879,36.133,10.254,0
1486284249.093,53.711,40.039,27.832,46.875,41.992,0
1486284249.097,59.082,41.992,33.203,49.805,52.246,0
1486284249.101,61.523,46.875,32.227,35.645,41.016,0
1486284249.105,56.641,41.992,27.344,33.203,61.523,0
1486284249.109,53.223,40.527,29.297,38.086,82.031,0
1486284249.113,55.664,42.969,35.156,46.387,99.609,0
1486284249.117,53.711,40.527,37.598,51.758,83.984,0
1486284249.120,47.363,34.180,29.297,39.551,62.988,0
1486284249.124,47.852,34.180,27.344,41.504,73.242,0
1486284249.128,44.434,36.621,29.297,47.363,47.363,0
1486284249.132,44.434,39.062,30.762,51.270,44.922,0
1486284249.136,41.016,38.086,29.785,57.129,19.043,0
1486284249.140,37.109,35.645,30.762,54.688,-8.301,0
1486284249.144,39.551,36.621,36.133,48.340,4.395,0
1486284249.148,37.598,37.109,37.598,57.617,7.324,0
1486284249.152,42.480,40.527,43.457,67.383,16.113,0
1486284249.156,43.457,44.434,45.898,57.129,53.223,0
1486284249.160,38.574,42.480,36.621,46.387,27.344,0
1486284249.163,40.039,45.410,24.902,32.715,64.453,0
1486284249.167,40.039,47.852,18.066,31.738,88.379,0
1486284249.171,35.156,40.527,20.020,28.320,1.953,0
1486284249.175,35.156,37.109,21.973,26.367,10.742,0
1486284249.179,22.949,30.273,20.020,37.598,49.805,0
1486284249.183,16.113,20.996,18.555,37.109,62.500,0
1486284249.187,35.645,25.391,23.438,32.715,49.805,0
1486284249.191,30.273,25.879,27.832,30.762,-1.465,0
1486284249.195,17.090,21.484,30.273,31.250,16.113,0
1486284249.199,21.484,20.996,40.039,41.992,47.852,0
1486284249.202,20.020,18.066,36.133,49.805,47.852,0
1486284249.206,22.949,19.531,33.203,44.922,82.031,0
1486284249.210,16.113,17.090,33.691,37.109,35.156,0
1486284249.214,9.277,10.742,32.715,45.410,26.367,0
1486284249.218,22.949,15.137,33.691,46.875,44.922,0
1486284249.222,18.555,15.137,28.320,47.363,39.062,0
1486284249.226,9.277,11.719,26.855,50.781,45.410,0
1486284249.230,24.414,20.020,32.715,47.363,57.617,0
1486284249.234,37.109,23.438,29.785,40.039,67.383,0
1486284249.238,47.363,28.809,26.367,48.828,71.289,0
1486284249.242,61.523,38.574,39.551,67.871,71.289,0
1486284249.245,59.570,38.574,50.293,65.918,20.508,0
1486284249.249,51.270,34.180,39.551,69.824,15.137,0
1486284249.253,50.781,37.598,34.668,67.871,28.320,0
1486284249.257,53.711,45.410,43.457,56.152,49.316,0
1486284249.261,45.410,36.621,39.062,47.852,78.613,0
1486284249.265,46.387,37.109,40.039,41.992,48.828,0
1486284249.269,57.617,46.387,43.457,43.945,0.488,0
1486284249.273,51.270,40.527,33.691,46.875,35.645,0
1486284249.277,45.898,37.109,33.203,49.316,64.941,0
1486284249.281,49.316,41.016,42.969,57.129,53.711,0
1486284249.285,42.969,36.621,44.434,54.199,45.898,0
1486284249.288,39.551,27.832,33.203,41.504,17.090,0
1486284249.292,48.340,30.762,30.273,51.758,37.598,0
1486284249.296,48.828,31.250,38.086,65.430,43.945,0
1486284249.300,49.805,32.227,45.410,64.453,79.590,0
1486284249.304,51.270,38.574,50.781,61.523,61.523,0
1486284249.308,37.598,30.762,43.945,52.246,0.977,0
1486284249.312,41.992,23.438,38.574,46.387,35.645,0
1486284249.316,44.434,21.973,37.598,54.199,3.418,0
1486284249.320,39.551,19.043,34.180,56.641,1.465,0
1486284249.324,53.711,25.391,37.598,45.410,72.754,0
1486284249.327,52.246,32.227,38.574,48.340,60.547,0
1486284249.331,46.875,32.715,34.180,45.410,39.062,0
1486284249.335,58.105,32.715,36.133,50.781,32.715,0
1486284249.339,55.664,33.691,38.086,62.500,50.781,0
1486284249.343,48.340,32.715,35.156,54.688,96.191,0
1486284249.347,42.480,31.738,35.156,41.504,74.219,0
1486284249.351,40.039,31.738,37.109,45.898,58.594,0
1486284249.355,51.270,31.250,42.480,49.805,20.020,0
1486284249.359,49.316,31.738,44.434,53.711,29.297,0
1486284249.363,42.969,33.691,43.457,65.430,41.992,0
1486284249.367,47.852,29.785,39.062,60.547,-16.113,0
1486284249.370,49.316,29.785,34.180,57.617,-27.832,0
1486284249.374,45.410,33.691,36.621,51.270,47.852,0
1486284249.378,41.992,32.715,40.039,51.270,99.121,0
1486284249.382,46.875,33.691,37.598,62.500,61.035,0
1486284249.386,46.387,43.457,37.598,66.895,20.508,0
1486284249.390,38.086,43.457,38.086,68.359,81.055,0
1486284249.394,41.992,40.039,39.551,61.523,81.543,0
1486284249.398,42.969,40.527,40.039,62.500,46.387,0
1486284249.402,42.969,38.086,42.969,73.242,56.641,0
1486284249.406,47.363,32.715,39.551,50.293,-27.344,0
1486284249.410,45.898,30.273,34.668,39.551,-37.109,0
1486284249.413,53.223,31.738,34.180,58.594,8.789,0
1486284249.417,49.805,30.762,34.180,56.641,11.230,0
1486284249.421,41.016,27.344,31.250,38.574,17.090,0
1486284249.425,41.504,25.879,26.855,34.180,5.371,0
1486284249.429,41.992,29.297,30.273,42.480,31.250,0
1486284249.433,44.434,27.344,35.156,45.410,31.738,0
1486284249.437,47.852,26.367,39.062,45.898,29.785,0
1486284249.441,47.363,32.227,41.016,48.340,82.031,0
1486284249.445,45.410,30.762,40.039,48.340,104.004,0
1486284249.449,37.598,28.809,40.527,53.711,83.496,0
1486284249.452,32.715,31.738,37.109,46.875,56.152,0
1486284249.456,46.875,34.180,37.598,48.828,62.500,0
1486284249.460,55.664,38.086,45.410,60.059,47.852,0
1486284249.464,51.758,38.574,50.293,65.918,23.926,0
1486284249.468,43.457,39.062,53.223,63.965,37.598,0
1486284249.472,56.641,41.504,56.152,56.641,65.918,0
1486284249.476,64.941,50.293,63.965,68.359,38.574,0
1486284249.480,55.176,54.199,64.453,68.359,29.297,0
1486284249.484,53.223,43.945,54.688,67.871,57.617,0
1486284249.488,53.711,38.574,44.922,66.406,46.875,0
1486284249.492,59.570,41.504,42.480,59.570,50.781,0
1486284249.495,63.965,44.922,51.758,61.035,22.949,0
1486284249.499,64.941,44.922,52.246,65.918,7.324,0
1486284249.503,64.453,43.457,50.781,75.195,9.766,0
1486284249.507,53.223,40.039,53.223,84.473,46.875,0
1486284249.511,47.363,41.016,53.223,73.730,60.059,0
1486284249.515,60.547,48.340,55.176,62.012,27.344,0
1486284249.519,62.500,46.387,46.875,55.664,38.574,0
1486284249.523,54.199,44.922,42.969,60.059,61.523,0
1486284249.527,59.082,47.363,48.340,58.594,32.227,0
1486284249.531,54.688,42.969,47.852,57.129,0.488,0
1486284249.535,44.922,41.992,43.457,68.848,14.160,0
1486284249.538,46.387,43.457,40.527,55.176,97.656,0
1486284249.542,54.199,46.387,42.969,45.410,57.129,0
1486284249.546,55.664,43.945,43.945,39.062,20.508,0
1486284249.550,54.199,43.945,43.945,40.527,42.969,0
1486284249.554,47.852,44.434,44.922,62.012,-27.344,0
1486284249.558,50.781,41.992,45.898,57.617,55.664,0
1486284249.562,57.617,39.551,42.480,44.922,95.703,0
1486284249.566,64.941,41.992,45.410,49.316,38.086,0
1486284249.570,69.336,44.434,46.875,49.316,49.805,0
1486284249.574,57.617,39.062,41.016,49.316,52.246,0
1486284249.577,56.641,43.945,42.969,64.453,39.551,0
1486284249.581,54.199,44.922,44.922,68.359,101.562,0
1486284249.585,54.199,44.434,44.922,58.594,94.238,0
1486284249.589,67.871,50.293,45.410,47.852,59.082,0
1486284249.593,69.824,51.758,44.922,48.340,75.684,0
1486284249.597,69.336,57.617,48.340,56.641,123.535,0
1486284249.601,69.336,58.594,49.805,59.082,114.746,0
1486284249.605,72.266,55.664,50.293,68.359,65.430,0
1486284249.609,79.102,54.688,55.664,69.824,63.965,0
1486284249.613,66.406,48.828,54.688,66.406,47.852,0
1486284249.617,48.340,44.434,45.410,63.477,45.898,0
1486284249.620,46.875,46.875,42.969,51.270,61.035,0
1486284249.624,51.758,43.457,42.480,41.016,5.371,0
1486284249.628,63.477,47.363,48.340,48.828,21.484,0
1486284249.632,67.383,56.641,55.664,61.523,40.527,0
1486284249.636,62.500,47.852,41.504,50.293,53.223,0
1486284249.640,64.941,46.875,34.180,55.176,84.961,0
1486284249.644,62.500,54.199,42.480,66.406,46.387,0
1486284249.648,55.664,49.805,39.062,66.895,9.766,0
1486284249.652,57.129,47.363,38.086,73.730,35.645,0
1486284249.656,53.223,43.457,39.551,70.312,34.180,0
1486284249.660,45.410,39.062,38.574,55.664,0.488,0
1486284249.663,56.152,41.992,38.086,48.828,35.645,0
1486284249.667,59.570,43.945,36.133,50.293,46.875,0
1486284249.671,45.410,39.551,35.645,54.688,16.602,0
1486284249.675,43.945,39.551,39.062,60.059,74.707,0
1486284249.679,54.199,42.969,41.504,61.035,122.070,0
1486284249.683,56.641,43.457,41.504,60.059,42.969,0
1486284249.687,53.223,42.969,38.574,52.734,13.184,0
1486284249.691,51.758,43.945,36.621,53.711,44.922,0
1486284249.695,56.152,47.852,40.527,57.617,61.035,0
1486284249.699,54.688,46.875,42.480,51.270,58.105,0
1486284249.702,46.387,45.410,41.992,57.617,58.594,0
1486284249.706,47.363,46.875,41.504,57.129,71.777,0
1486284249.710,49.316,44.922,39.551,50.781,68.359,0
1486284249.714,45.410,41.504,38.086,52.734,81.055,0
1486284249.718,44.434,40.527,33.203,48.828,78.613,0
1486284249.722,42.480,37.598,32.227,46.875,59.570,0
1486284249.726,34.668,30.273,28.809,45.410,73.730,0
1486284249.730,27.344,27.344,24.414,43.457,75.195,0
1486284249.734,23.926,26.855,23.926,36.621,75.195,0
1486284249.738,25.391,25.879,26.367,29.785,78.613,0
1486284249.742,24.414,24.414,32.227,41.016,90.332,0
1486284249.745,20.996,18.066,27.344,44.922,105.469,0
1486284249.749,16.602,14.160,22.949,43.945,55.176,0
1486284249.753,21.973,14.160,23.926,48.828,15.137,0
1486284249.757,35.645,21.484,24.414,47.852,26.367,0
1486284249.761,37.598,27.832,23.926,52.734,41.504,0
1486284249.765,39.551,28.809,27.344,57.617,5.859,0
1486284249.769,37.598,26.855,25.879,53.223,-16.113,0
1486284249.773,40.527,28.320,28.320,54.688,29.297,0
1486284249.777,51.270,38.574,41.504,66.895,66.895,0
1486284249.781,52.734,39.551,39.062,71.289,28.320,0
1486284249.785,51.758,37.598,31.738,50.293,46.875,0
1486284249.788,52.734,38.574,24.414,31.250,67.383,0
1486284249.792,52.246,38.086,24.414,36.621,7.812,0
1486284249.796,49.805,42.969,29.297,55.664,23.438,0
1486284249.800,54.199,40.527,29.297,58.105,25.391,0
1486284249.804,55.664,33.691,31.250,53.711,27.832,0
1486284249.808,40.527,34.668,27.832,61.035,-7.324,0
1486284249.812,31.250,33.691,16.602,55.664,-24.414,0
1486284249.816,40.039,33.203,19.043,52.246,45.410,0
1486284249.820,45.898,34.668,23.438,39.551,30.273,0
1486284249.824,40.039,34.180,17.578,37.109,24.902,0
1486284249.827,40.527,33.691,19.043,49.316,57.617,0
1486284249.831,39.062,28.320,20.020,55.176,101.074,0
1486284249.835,43.457,26.855,20.996,57.617,119.141,0
1486284249.839,54.688,32.227,30.762,54.688,32.715,0
1486284249.843,49.316,36.621,32.715,55.176,20.020,0
1486284249.847,48.828,37.109,34.668,70.312,57.129,0
1486284249.851,54.688,43.945,39.551,67.871,67.383,0
1486284249.855,51.758,49.316,42.969,54.688,61.035,0
1486284249.859,55.176,42.969,39.062,49.805,39.062,0
1486284249.863,53.223,39.062,33.691,62.012,0.488,0
1486284249.867,47.852,40.039,38.086,67.871,0.977,0
1486284249.870,48.828,40.527,38.574,51.758,39.551,0
1486284249.874,52.734,40.527,35.156,46.387,73.730,0
1486284249.878,55.176,38.574,31.250,45.410,62.500,0
1486284249.882,46.875,39.062,28.809,46.387,74.707,0
1486284249.886,36.133,36.133,23.438,45.410,104.004,0
1486284249.890,41.016,31.250,24.902,49.805,58.594,0
1486284249.894,43.457,31.250,34.180,53.711,51.758,0
1486284249.898,34.180,26.367,32.715,42.969,76.172,0
1486284249.902,34.668,27.832,29.785,42.480,24.902,0
1486284249.906,42.969,36.133,30.762,46.875,14.648,0
1486284249.910,46.387,34.180,35.156,50.781,43.945,0
1486284249.913,50.293,40.527,50.781,65.918,48.828,0
1486284249.917,50.781,45.410,56.152,76.660,59.570,0
1486284249.921,48.340,38.086,47.363,64.941,16.602,0
1486284249.925,54.199,39.062,43.945,49.316,9.766,0
1486284249.929,46.387,40.039,45.898,47.852,21.484,0
1486284249.933,36.133,38.574,44.922,52.246,16.113,0
1486284249.937,47.363,40.527,46.387,55.664,17.578,0
1486284249.941,56.641,45.410,50.293,49.805,44.434,0
1486284249.945,51.758,43.457,45.410,45.410,63.477,0
1486284249.949,52.734,41.992,43.945,52.734,34.180,0
1486284249.952,49.805,44.922,44.922,61.035,32.715,0
1486284249.956,40.527,40.039,40.527,59.082,96.191,0
1486284249.960,41.992,40.039,42.480,55.176,84.961,0
1486284249.964,47.363,41.504,45.898,61.035,52.246,0
1486284249.968,50.781,40.527,47.363,68.848,47.852,0
1486284249.972,36.133,35.156,41.504,62.988,25.391,0
1486284249.976,34.668,34.668,36.133,45.898,69.824,0
1486284249.980,49.316,44.434,41.992,41.016,63.477,0
1486284249.984,45.898,42.969,52.246,51.270,37.598,0
1486284249.988,41.504,39.062,58.105,51.758,55.664,0
1486284249.992,40.039,39.551,54.688,38.086,76.172,0
1486284249.995,28.809,36.133,42.969,37.598,65.918,0
1486284249.999,30.273,36.133,43.945,48.340,21.484,0
1486284250.003,37.598,39.062,52.246,52.734,27.832,0
1486284250.007,36.621,39.062,54.199,47.852,78.613,0
1486284250.011,31.738,35.156,52.246,48.828,57.617,0
1486284250.015,28.320,41.504,54.199,47.852,-20.996,0
1486284250.019,38.574,54.199,63.965,46.387,-43.457,0
1486284250.023,34.180,52.734,59.570,46.387,4.883,0
1486284250.027,26.855,47.852,55.664,49.316,18.555,0
1486284250.031,33.203,51.758,60.547,54.199,7.812,0
1486284250.035,34.668,53.711,58.105,42.969,24.414,0
1486284250.038,31.250,42.969,47.363,32.227,40.527,0
1486284250.042,30.762,38.086,38.574,36.133,65.430,0
1486284250.046,32.715,46.387,39.551,45.410,69.336,0
1486284250.050,29.785,47.363,41.504,51.758,82.520,0
1486284250.054,30.273,41.504,40.039,50.293,42.969,0
1486284250.058,32.227,41.016,41.504,63.477,37.109,0
1486284250.062,36.621,43.457,41.992,59.082,71.777,0
1486284250.066,39.062,44.922,44.434,40.039,33.691,0
1486284250.070,40.527,44.922,52.734,54.688,76.172,0
1486284250.074,41.016,41.016,48.340,60.547,108.398,0
1486284250.077,41.016,40.039,39.551,36.621,46.875,0
1486284250.081,36.133,40.039,37.109,37.109,-9.766,0
1486284250.085,35.156,39.551,40.039,40.527,18.066,0
1486284250.089,36.133,40.527,41.992,41.504,32.715,0
1486284250.093,40.039,43.457,42.480,57.129,21.973,0
1486284250.097,44.434,42.480,43.457,50.293,29.785,0
1486284250.101,42.480,42.480,47.363,43.457,75.684,0
1486284250.105,41.504,42.969,47.852,48.340,66.895,0
1486284250.109,37.598,42.969,47.363,44.922,3.418,0
1486284250.113,42.480,48.340,51.758,48.340,28.809,0
1486284250.117,41.016,48.340,54.688,55.664,81.055,0
1486284250.120,25.879,37.598,50.293,45.410,0.488,0
1486284250.124,20.508,31.738,44.922,35.156,-44.434,0
1486284250.128,20.020,28.809,42.969,28.809,55.664,0
1486284250.132,24.414,32.715,46.875,32.715,66.406,0
1486284250.136,26.855,39.551,48.340,48.828,69.824,0
1486284250.140,22.949,38.574,39.551,51.270,49.316,0
1486284250.144,25.391,37.598,37.598,39.551,21.973,0
1486284250.148,34.668,41.016,45.410,42.480,39.551,0
1486284250.152,37.109,41.992,47.852,49.316,18.066,0
1486284250.156,32.715,39.551,42.969,51.758,36.133,0
1486284250.160,40.527,42.480,45.410,47.852,85.449,0
1486284250.163,39.551,41.504,46.387,41.504,80.566,0
1486284250.167,28.809,26.855,34.180,35.645,57.129,0
1486284250.171,30.273,21.973,26.367,39.551,82.031,0
1486284250.175,32.227,29.297,26.855,30.762,38.574,0
1486284250.179,33.691,31.250,28.320,20.996,-8.789,0
1486284250.183,34.668,28.320,28.809,22.949,24.902,0
1486284250.187,31.250,23.438,28.809,31.250,12.207,0
1486284250.191,37.598,26.367,33.203,48.828,-5.859,0
1486284250.195,51.270,36.621,41.992,38.574,40.039,0
1486284250.199,47.852,35.156,40.039,20.508,76.660,0
1486284250.202,42.969,28.320,35.645,23.926,48.340,0
1486284250.206,55.176,39.551,47.852,47.363,64.941,0
1486284250.210,42.969,39.551,47.852,55.176,89.355,0
1486284250.214,31.738,30.762,32.715,40.039,39.551,0
1486284250.218,42.969,39.062,35.156,43.457,19.531,0
1486284250.222,45.898,43.945,43.945,47.363,32.227,0
1486284250.226,41.992,41.016,45.898,43.945,88.867,0
1486284250.230,38.086,38.086,45.898,37.598,138.672,0
1486284250.234,37.598,34.668,42.480,45.410,41.016,0
1486284250.238,45.898,36.133,41.992,50.293,20.020,0
1486284250.242,46.387,37.109,43.457,45.898,65.430,0
1486284250.245,48.340,39.062,45.410,50.781,44.922,0
1486284250.249,58.105,42.480,49.316,52.246,39.551,0
1486284250.253,50.293,34.180,41.016,48.340,59.082,0
1486284250.257,38.574,26.367,30.273,38.086,79.590,0
1486284250.261,38.574,27.344,31.738,30.273,81.543,0
1486284250.265,50.293,32.715,41.016,23.438,81.055,0
1486284250.269,54.688,37.598,38.574,27.832,112.793,0
1486284250.273,46.875,37.109,35.156,45.410,137.695,0
1486284250.277,37.598,33.691,37.109,46.387,123.047,0
1486284250.281,34.180,26.367,35.156,43.945,131.348,0
1486284250.285,42.480,27.344,36.133,41.504,157.227,0
1486284250.288,42.480,33.203,42.480,34.180,180.664,0
1486284250.292,34.668,26.855,41.504,33.203,180.664,0
1486284250.296,32.715,19.043,32.227,34.180,215.332,0
1486284250.300,39.551,22.461,31.250,22.461,269.531,0
1486284250.304,41.504,29.297,36.621,25.391,231.934,0
1486284250.308,38.574,30.273,36.133,40.527,211.914,0
1486284250.312,40.039,28.809,33.203,49.316,239.258,0
1486284250.316,43.457,34.668,38.086,50.293,233.398,0
1486284250.320,41.992,41.016,37.109,41.992,248.535,0
1486284250.324,49.805,42.969,37.109,49.316,238.281,0
1486284250.327,54.688,44.434,43.945,50.781,229.492,0
1486284250.331,49.316,39.551,36.133,45.898,235.840,0
1486284250.335,52.734,43.457,34.180,55.664,193.359,0
1486284250.339,51.758,43.457,34.668,46.875,201.660,0
1486284250.343,47.363,37.109,27.344,31.738,260.254,0
1486284250.347,56.152,38.574,27.832,34.668,235.352,0
1486284250.351,55.664,39.551,33.691,41.992,235.352,0
1486284250.355,47.852,36.621,35.156,47.363,259.277,0
1486284250.359,54.199,35.156,35.645,42.969,234.863,0
1486284250.363,62.012,45.410,50.293,46.387,212.402,0
1486284250.367,56.152,45.898,56.641,52.246,201.660,0
1486284250.370,46.875,39.551,48.828,49.316,211.914,0
1486284250.374,47.363,38.574,40.527,48.828,244.629,0
1486284250.378,53.711,37.109,40.527,45.410,242.188,0
1486284250.382,53.223,40.527,47.363,44.434,171.387,0
1486284250.386,52.734,39.551,48.828,45.898,161.133,0
1486284250.390,52.246,36.621,47.363,42.480,215.820,0
1486284250.394,46.387,41.504,47.852,51.270,192.383,0
1486284250.398,42.480,37.598,48.828,52.734,154.297,0
1486284250.402,51.270,42.969,50.293,58.594,180.664,0
1486284250.406,59.570,48.340,47.852,60.547,189.453,0
1486284250.410,56.152,46.875,50.781,63.477,145.508,0
1486284250.413,48.828,47.363,47.852,62.500,138.672,0
1486284250.417,44.922,47.852,42.480,54.199,181.641,0
1486284250.421,47.363,52.246,44.434,55.664,169.434,0
1486284250.425,54.688,51.270,43.457,54.199,139.160,0
1486284250.429,58.105,51.758,43.457,61.035,124.023,0
1486284250.433,59.570,56.641,50.293,64.453,160.156,0
1486284250.437,47.852,48.340,50.781,56.152,175.781,0
1486284250.441,36.621,45.898,52.246,61.523,151.367,0
1486284250.445,38.574,49.316,54.199,67.871,157.227,0
1486284250.449,44.922,47.363,51.758,60.059,159.668,0
1486284250.452,59.082,47.852,53.223,54.199,144.531,0
1486284250.456,68.359,44.434,54.688,53.223,145.020,0
1486284250.460,71.777,40.527,50.781,49.805,132.812,0
1486284250.464,68.848,40.039,45.410,53.711,116.211,0
1486284250.468,66.406,39.551,44.922,60.547,122.070,0
1486284250.472,64.453,38.574,46.387,59.570,119.629,0
1486284250.476,57.129,35.645,46.387,48.828,141.113,0
1486284250.480,64.453,39.551,49.316,56.152,134.277,0
1486284250.484,71.289,43.945,54.199,73.242,100.586,0
1486284250.488,62.988,38.574,52.734,67.871,105.469,0
1486284250.492,60.547,35.645,46.875,51.758,130.371,0
1486284250.495,63.477,40.039,42.969,48.340,107.910,0
1486284250.499,56.152,40.527,47.852,56.152,81.055,0
1486284250.503,51.270,38.574,50.293,62.500,86.426,0
1486284250.507,57.617,41.016,48.340,54.199,110.352,0
1486284250.511,59.570,46.387,52.246,54.688,87.891,0
1486284250.515,54.199,48.828,53.711,64.941,63.965,0
1486284250.519,56.152,46.387,50.293,61.523,96.680,0
1486284250.523,62.500,46.387,50.293,61.523,99.609,0
1486284250.527,55.176,44.922,45.898,73.730,88.379,0
1486284250.531,44.922,41.992,42.969,79.590,47.363,0
1486284250.535,41.504,34.668,41.016,77.637,39.062,0
1486284250.538,41.504,26.855,35.645,71.777,87.891,0
1486284250.542,43.945,29.785,41.504,72.266,83.496,0
1486284250.546,52.246,32.715,44.922,59.082,52.246,0
1486284250.550,56.152,27.344,37.598,56.152,54.688,0
1486284250.554,60.547,27.832,41.992,77.148,76.660,0
1486284250.558,65.430,36.133,51.270,98.633,83.008,0
1486284250.562,63.965,39.062,46.387,87.402,47.852,0
1486284250.566,61.035,40.039,40.527,83.008,39.551,0
1486284250.570,58.105,39.062,35.156,80.566,76.172,0
1486284250.574,60.059,40.527,33.691,66.895,71.777,0
1486284250.577,61.523,41.992,36.621,67.383,47.852,0
1486284250.581,54.199,38.574,39.551,60.059,53.711,0
1486284250.585,47.363,33.203,35.156,49.316,68.359,0
1486284250.589,43.945,26.855,26.367,45.898,55.664,0
1486284250.593,49.805,29.785,27.832,61.523,21.973,0
1486284250.597,61.035,35.156,32.227,67.871,47.363,0
1486284250.601,51.270,33.691,28.809,57.617,92.773,0
1486284250.605,41.016,36.133,27.344,51.758,45.898,0
1486284250.609,40.039,39.551,30.762,57.617,-0.488,0
1486284250.613,41.016,39.551,30.762,62.012,17.090,0
1486284250.617,43.945,42.969,35.156,78.613,30.762,0
1486284250.620,48.340,50.293,45.410,81.055,2.930,0
1486284250.624,46.875,45.898,40.527,59.570,32.715,0
1486284250.628,44.434,34.668,27.344,49.805,56.641,0
1486284250.632,49.316,37.598,30.273,54.199,34.668,0
1486284250.636,50.293,36.621,37.598,64.941,35.156,0
1486284250.640,46.875,33.691,35.156,66.406,32.715,0
1486284250.644,45.410,39.062,37.598,77.148,47.852,0
1486284250.648,41.504,40.039,45.410,78.613,25.879,0
1486284250.652,35.645,36.621,42.480,66.406,9.766,0
1486284250.656,44.434,36.133,40.039,67.871,36.621,0
1486284250.660,48.340,41.504,43.945,65.918,36.621,0
1486284250.663,44.922,38.086,48.340,59.082,21.973,0
1486284250.667,50.781,32.227,45.410,55.664,-0.488,0
1486284250.671,54.688,34.668,40.527,57.129,27.344,0
1486284250.675,57.617,39.062,40.039,62.012,47.852,0
1486284250.679,52.246,36.133,36.133,62.012,17.578,0
1486284250.683,52.246,33.203,34.668,50.781,-1.465,0
1486284250.687,59.570,34.668,41.016,46.875,12.695,0
1486284250.691,46.875,29.785,44.922,50.781,38.086,0
1486284250.695,38.086,25.391,45.410,44.922,46.875,0
1486284250.699,42.480,32.227,46.875,51.270,19.531,0
1486284250.702,51.270,41.016,54.199,68.848,11.719,0
1486284250.706,48.340,38.574,52.734,63.477,29.785,0
1486284250.710,37.598,35.156,41.992,41.992,-1.953,0
1486284250.714,36.133,31.738,37.598,43.945,-2.441,0
1486284250.718,42.969,35.156,40.039,54.199,43.945,0
1486284250.722,49.805,42.480,45.898,56.152,45.898,0
1486284250.726,47.363,40.527,45.898,63.477,34.668,0
1486284250.730,43.945,39.551,43.945,63.477,33.691,0
1486284250.734,52.246,47.852,51.758,62.500,30.273,0
1486284250.738,46.387,44.434,56.152,62.012,33.691,0
1486284250.742,38.086,38.086,52.734,59.570,43.945,0
1486284250.745,37.598,37.598,52.246,59.082,9.277,0
1486284250.749,33.203,36.133,50.293,59.570,3.418,0
1486284250.753,25.391,37.109,44.922,52.734,11.230,0
1486284250.757,23.926,35.645,39.551,47.363,-5.371,0
1486284250.761,36.621,36.133,43.945,58.105,39.551,0
1486284250.765,40.039,37.109,48.340,59.570,62.012,0
1486284250.769,33.691,35.156,40.527,49.805,38.086,0
1486284250.773,34.668,35.156,37.598,60.547,16.602,0
1486284250.777,37.109,33.203,40.039,65.430,19.043,0
1486284250.781,41.992,35.645,45.410,46.875,15.137,0
1486284250.785,46.875,36.133,46.875,45.898,-15.625,0
1486284250.788,50.781,35.156,41.992,59.570,2.930,0
1486284250.792,43.945,33.203,43.457,67.383,24.902,0
1486284250.796,39.062,30.273,41.504,65.918,7.812,0
1486284250.800,47.852,36.133,40.039,62.012,5.859,0
1486284250.804,46.875,35.645,41.504,56.641,20.508,0
1486284250.808,50.293,35.156,40.039,51.270,69.824,0
1486284250.812,55.176,41.504,45.898,62.012,70.801,0
1486284250.816,53.711,43.945,47.852,78.125,35.156,0
1486284250.820,52.246,43.457,48.340,75.684,66.406,0
1486284250.824,53.223,39.551,50.781,52.734,63.477,0
1486284250.827,53.711,40.527,50.293,47.363,15.625,0
1486284250.831,63.477,50.781,46.875,62.012,6.348,0
1486284250.835,58.105,47.852,41.992,61.523,39.062,0
1486284250.839,41.504,37.109,39.551,54.688,65.918,0
1486284250.843,45.410,39.551,40.527,57.129,40.527,0
1486284250.847,49.316,40.039,41.992,54.688,10.254,0
1486284250.851,48.828,38.086,44.434,51.758,31.738,0
1486284250.855,52.246,45.410,51.270,61.523,26.855,0
1486284250.859,56.152,49.316,55.664,70.312,-3.906,0
1486284250.863,55.176,49.316,52.246,64.453,12.207,0
1486284250.867,49.316,43.457,42.480,61.523,38.086,0
1486284250.870,54.688,39.062,43.945,62.500,20.996,0
1486284250.874,61.523,40.527,50.293,64.941,20.020,0
1486284250.878,53.711,35.645,44.434,60.547,27.344,0
1486284250.882,51.758,33.203,45.410,61.523,19.043,0
1486284250.886,51.270,41.504,51.758,69.824,16.602,0
1486284250.890,53.711,42.480,50.293,63.965,25.391,0
1486284250.894,53.711,36.621,43.945,57.617,28.320,0
1486284250.898,48.828,35.645,42.969,54.199,23.438,0
1486284250.902,53.223,38.086,44.434,57.129,19.043,0
1486284250.906,60.547,41.016,43.945,63.965,8.789,0
1486284250.910,64.453,42.969,47.363,64.941,-4.883,0
1486284250.913,56.152,41.504,49.316,63.477,0.000,0
1486284250.917,51.270,44.434,49.316,60.059,4.395,0
1486284250.921,54.199,53.711,55.176,65.918,-22.461,0
1486284250.925,55.664,52.246,56.641,66.895,-27.832,0
1486284250.929,49.316,43.945,49.805,59.570,6.836,0
1486284250.933,48.828,47.852,54.688,65.430,32.715,0
1486284250.937,44.922,47.852,58.105,61.523,16.113,0
1486284250.941,31.738,34.180,46.387,48.828,23.438,0
1486284250.945,29.297,35.156,42.480,44.434,26.367,0
1486284250.949,28.809,40.039,48.828,49.316,1.465,0
1486284250.952,26.367,39.062,47.852,57.617,0.488,0
1486284250.956,29.785,39.551,42.969,58.105,21.484,0
1486284250.960,31.250,39.062,42.480,46.875,21.973,0
1486284250.964,25.879,35.645,34.668,32.715,3.906,0
1486284250.968,22.949,34.668,31.250,25.879,-15.625,0
1486284250.972,33.691,39.062,43.457,35.156,1.465,0
1486284250.976,33.691,36.133,42.480,49.316,28.809,0
1486284250.980,28.320,31.250,30.762,47.852,37.598,0
1486284250.984,27.832,30.273,27.832,44.434,34.668,0
1486284250.988,31.250,32.227,30.273,41.016,35.156,0
1486284250.992,37.109,40.527,36.621,40.039,46.875,0
1486284250.995,39.551,49.316,47.852,57.129,-9.766,0
1486284250.999,44.434,52.734,49.316,73.730,-31.250,0
1486284251.003,44.434,50.293,41.016,53.711,12.207,0
1486284251.007,39.062,46.875,38.086,41.992,-7.324,0
1486284251.011,37.598,43.945,36.133,44.922,-28.320,0
1486284251.015,42.969,42.480,36.621,37.598,-4.883,0
1486284251.019,45.898,44.434,41.016,40.039,16.113,0
1486284251.023,40.527,41.016,42.969,48.828,37.109,0
1486284251.027,41.016,35.156,40.527,57.129,36.621,0
1486284251.031,42.969,35.156,37.598,62.988,7.812,0
1486284251.035,43.945,43.945,38.086,57.617,6.836,0
1486284251.038,46.387,41.016,38.574,46.875,-16.602,0
1486284251.042,40.527,37.598,40.527,45.410,-45.410,0
1486284251.046,40.039,46.387,41.016,51.758,-9.277,0
1486284251.050,40.527,47.363,38.574,51.758,-3.906,0
1486284251.054,30.273,39.551,30.273,42.480,9.277,0
1486284251.058,26.367,38.086,28.809,39.551,37.109,0
1486284251.062,29.297,44.922,35.156,45.410,9.766,0
1486284251.066,27.344,42.969,35.156,47.363,9.766,0
1486284251.070,23.438,40.527,32.227,43.945,39.062,0
1486284251.074,30.273,44.922,39.551,38.086,31.738,0
1486284251.077,44.434,50.293,54.199,49.316,30.273,0
1486284251.081,41.016,47.852,51.758,50.293,50.781,0
1486284251.085,27.832,42.480,39.551,35.645,-2.441,0
1486284251.089,29.785,40.039,36.621,31.250,-19.531,0
1486284251.093,34.668,38.086,39.551,31.738,43.457,0
1486284251.097,32.715,38.086,41.992,41.016,50.781,0
1486284251.101,34.668,39.551,45.410,47.363,5.859,0
1486284251.105,29.297,36.621,44.922,47.852,-16.113,0
1486284251.109,32.715,39.062,45.410,45.410,3.906,0
1486284251.113,44.434,38.574,44.434,39.062,17.578,0
1486284251.117,42.480,33.691,39.062,32.715,-1.465,0
1486284251.120,33.203,33.691,34.180,26.367,2.930,0
1486284251.124,36.621,34.180,27.832,24.902,5.371,0
1486284251.128,37.109,33.203,28.320,25.391,-9.766,0
1486284251.132,32.227,33.691,28.320,36.133,-22.461,0
1486284251.136,33.691,31.738,23.926,51.758,1.465,0
1486284251.140,37.598,26.367,27.344,44.922,45.898,0
1486284251.144,46.387,29.785,34.180,30.762,16.602,0
1486284251.148,48.828,34.180,39.062,40.527,-13.672,0
1486284251.152,45.898,33.203,42.480,47.363,-1.465,0
1486284251.156,45.410,35.156,49.316,44.922,18.066,0
1486284251.160,44.434,37.109,43.457,51.270,-23.438,0
1486284251.163,36.621,31.250,30.762,44.922,-20.020,0
1486284251.167,33.691,25.879,30.273,34.668,15.625,0
1486284251.171,41.504,30.762,35.645,39.551,-6.836,0
1486284251.175,49.316,37.598,42.480,46.387,0.488,0
1486284251.179,60.547,38.086,47.852,41.016,2.930,0
1486284251.183,65.918,42.480,56.152,51.758,0.000,0
1486284251.187,72.754,54.199,57.617,64.941,8.789,0
1486284251.191,75.684,53.223,52.734,61.035,29.297,0
1486284251.195,79.590,54.199,58.594,66.406,14.648,0
1486284251.199,75.684,52.734,62.012,64.941,18.555,0
1486284251.202,62.988,43.945,51.270,57.617,45.410,0
1486284251.206,61.523,42.969,44.922,53.223,43.457,0
1486284251.210,61.035,40.527,55.664,50.781,31.250,0
1486284251.214,56.152,39.551,70.801,55.176,22.949,0
1486284251.218,51.270,40.039,76.172,63.477,29.297,0
1486284251.222,51.270,36.621,73.242,62.988,2.930,0
1486284251.226,54.199,36.133,71.289,59.082,-1.953,0
1486284251.230,46.387,36.133,71.289,57.129,40.527,0
1486284251.234,46.387,35.156,63.477,53.223,36.621,0
1486284251.238,49.805,36.621,61.035,49.805,15.137,0
1486284251.242,42.480,33.203,62.500,50.293,2.930,0
1486284251.245,41.016,34.180,66.895,45.410,16.602,0
1486284251.249,42.480,35.156,63.477,34.180,5.371,0
1486284251.253,39.551,26.367,49.805,30.762,11.719,0
1486284251.257,39.551,22.461,48.340,40.527,39.551,0
1486284251.261,47.363,26.855,51.758,38.086,35.156,0
1486284251.265,52.246,31.738,51.758,39.062,33.203,0
1486284251.269,50.781,28.809,48.340,44.922,55.176,0
1486284251.273,47.363,27.344,50.293,41.504,53.711,0
1486284251.277,39.062,26.367,53.711,44.434,41.504,0
1486284251.281,37.109,23.926,53.223,45.898,67.383,0
1486284251.285,42.969,27.832,60.059,49.316,54.688,0
1486284251.288,53.711,37.109,69.824,57.129,37.109,0
1486284251.292,50.293,34.668,62.012,50.781,42.480,0
1486284251.296,47.852,31.738,54.199,45.898,45.898,0
1486284251.300,53.223,32.227,56.152,47.363,60.547,0
1486284251.304,51.270,29.785,52.246,44.434,63.965,0
1486284251.308,44.434,32.227,53.223,52.246,43.945,0
1486284251.312,41.504,37.109,56.152,56.641,17.090,0
1486284251.316,44.434,36.621,50.781,49.316,5.371,0
1486284251.320,43.457,31.250,52.246,48.828,43.945,0
1486284251.324,39.551,30.273,54.199,51.758,60.059,0
1486284251.327,35.156,28.320,45.898,57.617,23.438,0
1486284251.331,48.340,32.227,49.316,59.082,26.367,0
1486284251.335,55.176,38.086,51.758,48.828,52.734,0
1486284251.339,45.898,33.203,45.898,46.875,53.223,0
1486284251.343,44.922,29.297,46.387,49.316,63.965,0
1486284251.347,50.781,31.738,45.410,42.480,55.176,0
1486284251.351,40.039,29.297,45.898,37.598,24.414,0
1486284251.355,24.414,24.414,51.270,51.758,50.781,0
1486284251.359,39.062,31.250,48.828,47.852,59.570,0
1486284251.363,45.410,32.227,37.598,23.438,43.457,0
1486284251.367,41.992,34.668,40.527,21.973,52.246,0
1486284251.370,38.086,37.109,50.781,32.715,37.598,0
1486284251.374,33.203,29.297,48.340,36.133,51.758,0
1486284251.378,37.598,30.762,48.340,43.457,80.078,0
1486284251.382,39.062,33.691,48.828,44.922,77.148,0
1486284251.386,30.273,22.461,38.574,31.738,66.406,0
1486284251.390,37.109,20.020,33.203,34.668,65.430,0
1486284251.394,44.434,23.438,37.109,41.504,68.359,0
1486284251.398,33.691,21.973,39.551,40.039,41.504,0
1486284251.402,31.250,23.438,41.016,41.016,16.113,0
1486284251.406,39.062,23.926,41.992,37.598,41.016,0
1486284251.410,44.922,26.855,42.480,31.738,43.457,0
1486284251.413,45.410,33.203,45.898,40.527,28.320,0
1486284251.417,49.316,32.715,48.828,47.852,18.555,0
1486284251.421,55.664,32.227,54.199,51.270,42.480,0
1486284251.425,59.082,39.551,60.547,55.176,64.941,0
1486284251.429,48.828,42.480,49.316,48.340,44.434,0
1486284251.433,36.133,37.109,43.945,41.992,51.270,0
1486284251.437,34.668,33.691,48.828,40.527,51.270,0
1486284251.441,27.832,33.691,50.781,53.223,46.875,0
1486284251.445,30.762,33.691,50.781,44.922,75.684,0
1486284251.449,39.551,38.086,50.293,35.156,61.523,0
1486284251.452,29.785,34.180,50.781,41.992,54.199,0
1486284251.456,22.949,34.180,52.246,42.480,39.062,0
1486284251.460,34.668,43.457,53.711,45.410,36.621,0
1486284251.464,50.293,47.363,56.152,46.387,54.688,0
1486284251.468,53.223,46.387,57.617,51.270,43.945,0
1486284251.472,46.387,47.852,59.082,60.059,76.660,0
1486284251.476,38.574,43.457,55.664,60.059,38.086,0
1486284251.480,39.551,40.039,51.758,61.523,2.441,0
1486284251.484,41.992,38.086,48.828,63.477,26.367,0
1486284251.488,39.062,41.016,46.875,66.895,50.781,0
1486284251.492,42.969,47.852,49.316,70.801,67.871,0
1486284251.495,42.969,43.457,48.828,58.594,64.453,0
1486284251.499,37.598,41.992,42.969,41.992,58.105,0
1486284251.503,38.086,49.805,49.805,46.875,24.414,0
1486284251.507,37.109,47.363,53.711,58.105,20.508,0
1486284251.511,34.180,36.133,39.551,43.945,60.547,0
1486284251.515,32.715,39.551,37.109,38.086,59.082,0
1486284251.519,28.809,43.945,41.992,39.062,41.016,0
1486284251.523,22.461,36.621,38.574,36.133,76.172,0
1486284251.527,19.531,40.527,48.340,34.668,79.102,0
1486284251.531,20.996,47.852,53.711,39.062,83.008,0
1486284251.535,15.625,47.852,48.340,44.922,63.965,0
1486284251.538,16.113,50.293,50.781,45.410,39.062,0
1486284251.542,24.902,47.852,50.781,48.828,77.637,0
1486284251.546,32.715,46.387,48.340,39.551,73.730,0
1486284251.550,33.203,50.293,53.223,39.551,39.062,0
1486284251.554,30.273,48.340,54.199,50.293,30.762,0
1486284251.558,21.484,42.969,45.898,48.340,78.613,0
1486284251.562,20.996,45.410,47.363,50.781,81.543,0
1486284251.566,29.297,53.223,57.617,49.805,58.105,0
1486284251.570,23.926,47.363,52.246,36.621,75.195,0
1486284251.574,29.297,47.852,42.480,32.227,53.223,0
1486284251.577,32.227,50.293,41.992,34.668,25.879,0
1486284251.581,21.973,44.922,44.434,29.297,20.508,0
1486284251.585,27.832,47.852,48.340,33.203,34.668,0
1486284251.589,33.691,50.781,48.340,52.246,24.902,0
1486284251.593,20.996,42.969,42.969,59.570,16.602,0
1486284251.597,13.672,37.598,39.551,45.898,8.301,0
1486284251.601,19.531,34.668,34.180,28.809,20.996,0
1486284251.605,24.414,34.668,30.273,29.785,42.480,0
1486284251.609,20.996,34.180,28.320,41.016,12.695,0
1486284251.613,19.531,36.133,28.320,43.945,7.812,0
1486284251.617,26.855,40.527,26.367,45.410,35.156,0
1486284251.620,40.527,41.992,27.832,47.852,53.223,0
1486284251.624,48.340,39.551,28.809,74.219,24.902,0
1486284251.628,46.387,42.480,30.762,114.258,45.410,0
1486284251.632,36.133,42.969,33.691,114.258,41.992,0
1486284251.636,25.879,37.109,28.320,101.074,14.648,0
1486284251.640,31.738,42.480,27.344,94.238,31.250,0
1486284251.644,41.016,42.969,21.973,70.312,28.320,0
1486284251.648,39.551,37.598,22.461,69.824,38.086,0
1486284251.652,35.645,41.992,34.668,85.938,44.434,0
1486284251.656,40.527,45.410,38.086,79.102,51.270,0
1486284251.660,41.016,40.527,35.156,74.219,70.801,0
1486284251.663,42.969,40.527,36.133,66.895,62.988,0
1486284251.667,43.945,47.363,38.086,61.035,46.875,0
1486284251.671,32.715,45.410,31.250,55.176,45.898,0
1486284251.675,32.715,40.527,21.484,53.711,83.008,0
1486284251.679,37.109,41.992,17.090,62.012,97.656,0
1486284251.683,31.250,47.852,18.066,62.012,46.387,0
1486284251.687,33.203,47.363,20.996,46.875,13.184,0
1486284251.691,37.109,44.434,27.832,36.621,61.035,0
1486284251.695,34.668,48.340,34.668,42.480,110.840,0
1486284251.699,32.715,46.387,29.297,46.875,111.816,0
1486284251.702,26.855,42.969,20.996,52.734,115.234,0
1486284251.706,25.391,42.480,17.578,43.457,116.699,0
1486284251.710,23.438,44.922,17.578,40.039,120.605,0
1486284251.714,16.113,42.480,10.254,40.527,111.816,0
1486284251.718,15.625,36.133,4.883,33.203,93.750,0
1486284251.722,20.020,37.109,9.766,31.738,109.375,0
1486284251.726,24.414,37.598,14.160,22.949,133.789,0
1486284251.730,25.879,44.434,19.531,29.785,121.582,0
1486284251.734,16.113,43.945,18.066,42.969,108.887,0
1486284251.738,14.648,41.992,16.602,38.574,112.305,0
1486284251.742,20.020,43.945,19.531,34.180,116.699,0
1486284251.745,17.578,41.992,16.602,38.574,115.723,0
1486284251.749,25.391,40.039,18.555,39.551,100.098,0
1486284251.753,31.738,39.551,24.414,41.016,113.770,0
1486284251.757,29.785,38.574,24.902,39.062,102.051,0
1486284251.761,32.715,44.434,26.855,39.062,89.844,0
1486284251.765,29.297,45.898,25.391,45.898,110.352,0
1486284251.769,22.949,38.574,19.043,34.668,142.090,0
1486284251.773,14.160,33.691,12.207,28.809,122.070,0
1486284251.777,13.184,34.180,16.113,25.391,81.543,0
1486284251.781,29.785,32.227,18.555,28.320,113.281,0
1486284251.785,41.504,38.086,25.391,50.293,112.793,0
1486284251.788,45.410,45.898,34.668,51.758,88.379,0
1486284251.792,45.410,45.410,34.180,41.992,83.008,0
1486284251.796,43.945,40.527,37.109,49.316,130.859,0
1486284251.800,39.551,36.133,33.691,48.828,148.926,0
1486284251.804,31.250,30.762,22.461,42.480,135.254,0
1486284251.808,26.855,26.855,19.531,45.410,128.906,0
1486284251.812,20.996,28.809,23.926,42.969,95.215,0
1486284251.816,20.996,34.180,27.832,47.852,116.699,0
1486284251.820,28.320,40.039,30.273,61.035,118.652,0
1486284251.824,27.832,41.504,32.715,55.664,95.703,0
1486284251.827,35.156,45.410,38.086,57.129,81.055,0
1486284251.831,36.621,47.363,35.156,66.406,79.102,0
1486284251.835,37.598,43.945,26.855,62.500,65.430,0
1486284251.839,45.898,44.434,24.902,58.594,43.945,0
1486284251.843,35.156,43.457,29.785,63.477,80.566,0
1486284251.847,24.902,44.434,35.645,61.523,106.445,0
1486284251.851,24.414,44.922,32.227,49.805,47.363,0
1486284251.855,23.438,40.039,28.809,41.504,38.574,0
1486284251.859,25.391,36.621,29.785,37.109,85.449,0
1486284251.863,26.855,36.133,32.227,38.574,83.496,0
1486284251.867,22.949,30.273,29.297,39.062,55.664,0
1486284251.870,21.484,31.250,33.691,42.480,55.176,0
1486284251.874,23.438,35.156,36.621,48.828,79.102,0
1486284251.878,18.555,26.367,23.926,53.223,74.219,0
1486284251.882,11.230,21.973,20.020,44.922,62.988,0
1486284251.886,12.695,25.391,23.438,45.410,84.961,0
1486284251.890,19.043,26.367,31.738,46.387,93.262,0
1486284251.894,26.855,34.180,44.922,38.574,89.355,0
1486284251.898,23.926,32.227,42.969,42.969,72.754,0
1486284251.902,25.391,24.902,37.598,58.105,86.914,0
1486284251.906,39.551,27.832,41.016,69.336,115.234,0
1486284251.910,40.039,31.738,41.504,67.871,55.664,0
1486284251.913,36.621,35.645,41.504,66.895,51.758,0
1486284251.917,38.086,36.133,46.387,73.730,84.961,0
1486284251.921,41.016,35.156,50.293,76.660,93.750,0
1486284251.925,43.457,33.691,50.293,62.500,138.184,0
1486284251.929,41.504,34.180,55.664,60.547,122.559,0
1486284251.933,43.945,37.109,56.152,68.359,110.840,0
1486284251.937,44.434,37.109,51.758,63.965,116.699,0
1486284251.941,51.758,36.621,51.758,60.059,99.121,0
1486284251.945,47.852,37.109,53.223,55.176,131.836,0
1486284251.949,37.109,36.621,55.176,59.082,132.812,0
1486284251.952,40.527,34.668,56.152,70.312,108.887,0
1486284251.956,33.203,32.227,53.711,72.754,106.445,0
1486284251.960,31.738,27.344,44.922,60.547,106.445,0
1486284251.964,44.434,30.762,41.016,58.105,105.957,0
1486284251.968,43.945,35.645,43.945,71.289,114.746,0
1486284251.972,34.668,35.156,40.527,73.242,102.539,0
1486284251.976,30.762,36.133,37.598,61.523,135.254,0
1486284251.980,36.133,36.621,35.156,64.941,151.855,0
1486284251.984,40.039,42.969,40.039,72.754,117.188,0
1486284251.988,36.621,39.062,43.457,65.430,81.055,0
1486284251.992,35.156,29.297,36.621,64.453,89.355,0
1486284251.995,26.855,24.414,27.344,67.383,114.746,0
1486284251.999,27.832,28.320,26.367,63.965,113.770,0
1486284252.003,37.109,29.785,33.203,68.359,117.188,0
1486284252.007,42.969,28.809,39.062,68.848,97.656,0
1486284252.011,38.086,30.273,41.016,68.848,80.078,0
1486284252.015,34.180,25.391,36.133,65.430,63.477,0
1486284252.019,34.668,25.879,37.109,62.500,77.637,0
1486284252.023,35.156,24.902,38.086,59.570,101.562,0
1486284252.027,45.410,30.273,39.062,68.848,114.258,0
1486284252.031,53.711,41.016,40.527,66.895,87.402,0
1486284252.035,44.434,39.551,35.156,56.641,60.547,0
1486284252.038,38.086,36.621,36.621,63.965,101.074,0
1486284252.042,37.109,34.668,36.621,68.848,103.516,0
1486284252.046,41.992,39.551,40.527,67.383,89.355,0
1486284252.050,46.875,43.457,52.246,63.965,109.863,0
1486284252.054,55.176,48.828,56.641,75.195,98.145,0
1486284252.058,50.293,52.734,57.617,84.961,76.660,0
1486284252.062,37.109,38.574,49.805,76.172,58.105,0
1486284252.066,39.551,31.738,45.410,65.918,64.453,0
1486284252.070,42.969,40.039,41.504,55.664,81.543,0
1486284252.074,33.203,38.086,32.227,48.828,64.453,0
1486284252.077,32.715,33.691,32.715,51.758,73.242,0
1486284252.081,49.805,39.062,40.039,58.594,96.680,0
1486284252.085,50.781,44.922,46.387,57.617,94.238,0
1486284252.089,40.527,43.945,51.270,52.246,85.938,0
1486284252.093,40.527,41.992,50.293,47.363,104.004,0
1486284252.097,41.992,47.852,51.270,62.012,99.609,0
1486284252.101,46.387,55.664,57.129,78.613,99.609,0
1486284252.105,41.504,51.758,51.758,67.383,125.488,0
1486284252.109,42.969,45.410,41.992,60.059,99.121,0
1486284252.113,50.781,43.945,42.969,55.176,79.102,0
1486284252.117,42.480,44.434,44.434,53.223,105.469,0
1486284252.120,28.809,45.410,45.898,63.477,88.379,0
1486284252.124,30.273,45.898,42.969,60.547,88.867,0
1486284252.128,31.250,43.945,43.457,53.223,122.559,0
1486284252.132,29.785,44.434,50.781,60.059,100.098,0
1486284252.136,33.203,43.457,45.898,64.941,104.004,0
1486284252.140,43.457,43.945,48.340,58.594,136.230,0
1486284252.144,32.715,39.551,48.340,52.734,119.141,0
1486284252.148,17.578,34.668,41.016,50.781,98.145,0
1486284252.152,41.016,38.574,45.898,50.293,70.312,0
1486284252.156,46.875,38.574,49.805,61.035,74.219,0
1486284252.160,32.227,37.109,43.945,54.199,99.121,0
1486284252.163,25.391,38.574,38.574,41.016,79.590,0
1486284252.167,26.855,39.551,43.945,57.129,62.988,0
1486284252.171,40.527,42.969,45.410,71.777,52.734,0
1486284252.175,41.992,42.480,43.457,62.988,82.031,0
1486284252.179,33.203,38.574,47.852,55.176,94.727,0
1486284252.183,30.762,35.645,46.387,67.871,72.266,0
1486284252.187,41.992,33.691,38.574,64.453,97.168,0
1486284252.191,41.992,27.832,34.180,56.152,113.281,0
1486284252.195,23.438,29.297,38.086,62.988,63.965,0
1486284252.199,24.414,34.180,42.480,66.895,56.152,0
1486284252.202,42.969,36.133,45.898,61.523,74.707,0
1486284252.206,54.199,39.062,44.922,52.734,79.590,0
1486284252.210,48.340,41.016,41.016,56.152,40.039,0
1486284252.214,34.668,41.016,37.598,62.988,17.578,0
1486284252.218,27.344,34.668,34.668,52.246,58.594,0
1486284252.222,28.809,29.785,34.668,55.664,64.941,0
1486284252.226,33.691,26.367,30.762,56.152,76.660,0
1486284252.230,37.109,23.438,35.156,47.852,79.590,0
1486284252.234,40.039,29.297,48.828,55.176,78.613,0
1486284252.238,40.039,30.762,45.410,44.434,91.309,0
1486284252.242,36.621,26.855,39.062,36.621,78.125,0
1486284252.245,37.598,31.738,44.434,41.992,86.426,0
1486284252.249,39.551,33.691,48.340,47.852,88.867,0
1486284252.253,41.504,35.645,56.152,58.594,52.246,0
1486284252.257,34.180,39.062,58.594,63.477,40.527,0
1486284252.261,22.949,38.574,48.828,61.523,61.523,0
1486284252.265,17.578,34.180,39.062,52.734,60.547,0
1486284252.269,26.855,39.551,39.551,47.363,20.996,0
1486284252.273,29.785,46.875,39.551,52.246,-1.953,0
1486284252.277,28.320,45.898,36.621,59.082,39.062,0
1486284252.281,35.156,48.828,39.551,58.594,69.336,0
1486284252.285,28.809,41.016,39.551,52.246,61.035,0
1486284252.288,26.367,34.668,34.668,41.016,50.293,0
1486284252.292,39.551,41.016,35.645,37.598,27.832,0
1486284252.296,30.273,41.504,40.039,54.199,44.434,0
1486284252.300,9.766,41.504,42.969,57.129,57.617,0
1486284252.304,11.230,41.016,44.922,42.480,13.672,0
1486284252.308,25.391,44.434,50.781,41.504,34.668,0
1486284252.312,17.090,46.387,55.176,49.805,60.547,0
1486284252.316,15.137,42.480,53.223,52.246,38.086,0
1486284252.320,29.785,41.016,59.082,46.387,45.898,0
1486284252.324,31.250,39.062,69.824,59.570,88.867,0
1486284252.327,10.254,29.785,62.012,57.617,98.633,0
1486284252.331,6.348,26.855,62.012,47.363,114.258,0
1486284252.335,22.461,34.180,73.242,59.570,94.727,0
1486284252.339,21.484,36.621,59.570,60.547,64.941,0
1486284252.343,20.020,38.086,54.199,59.570,64.941,0
1486284252.347,26.855,39.551,63.477,59.082,37.109,0
1486284252.351,31.250,40.039,63.965,57.617,19.043,0
1486284252.355,28.809,41.504,63.965,60.059,47.852,0
1486284252.359,27.344,41.016,69.336,56.641,75.684,0
1486284252.363,27.832,39.551,74.707,52.246,62.012,0
1486284252.367,31.738,38.086,78.125,62.988,72.266,0
1486284252.370,35.645,41.504,77.637,71.777,56.641,0
1486284252.374,32.227,41.992,69.336,63.477,21.973,0
1486284252.378,29.297,42.480,65.430,41.992,12.695,0
1486284252.382,20.508,36.133,61.523,38.086,20.508,0
1486284252.386,11.719,29.297,59.082,44.922,18.066,0
1486284252.390,11.719,32.227,64.453,44.434,5.371,0
1486284252.394,21.973,37.109,69.824,46.875,12.207,0
1486284252.398,27.832,33.691,64.941,45.410,60.059,0
1486284252.402,31.738,37.109,70.801,57.617,61.523,0
1486284252.406,32.227,43.945,83.496,70.312,33.203,0
1486284252.410,25.879,37.109,74.707,58.594,46.387,0
1486284252.413,23.438,32.227,61.523,44.434,56.641,0
1486284252.417,20.020,29.297,53.223,50.293,59.082,0
1486284252.421,18.555,29.297,52.734,52.734,69.336,0
1486284252.425,20.508,31.250,54.199,47.852,86.426,0
1486284252.429,27.832,32.227,57.129,53.223,97.656,0
1486284252.433,23.438,36.133,54.688,60.547,79.102,0
1486284252.437,20.020,38.574,54.199,59.082,76.660,0
1486284252.441,30.273,41.992,60.059,50.293,96.680,0
1486284252.445,40.527,45.410,64.453,60.547,99.609,0
1486284252.449,38.574,43.945,65.430,62.988,78.613,0
1486284252.452,33.203,36.133,56.641,45.410,51.758,0
1486284252.456,20.508,30.273,51.270,51.758,71.289,0
1486284252.460,4.883,31.738,51.270,57.617,94.727,0
1486284252.464,8.789,28.809,44.922,23.926,73.242,0
1486284252.468,19.531,29.297,41.504,23.926,68.359,0
1486284252.472,26.855,32.227,46.875,50.781,89.355,0
1486284252.476,17.578,26.367,46.387,52.246,83.008,0
1486284252.480,11.230,25.879,49.316,33.203,62.012,0
1486284252.484,18.555,32.227,49.805,24.902,61.035,0
1486284252.488,24.414,34.668,48.340,39.551,95.703,0
1486284252.492,34.668,33.691,49.316,54.199,121.094,0
1486284252.495,38.086,36.133,44.922,53.711,86.914,0
1486284252.499,31.738,36.621,46.875,45.898,64.941,0
1486284252.503,18.066,27.832,42.480,39.551,65.918,0
1486284252.507,6.836,27.832,40.527,52.246,66.406,0
1486284252.511,8.789,32.227,50.293,70.801,51.270,0
1486284252.515,24.902,37.109,53.223,70.312,53.711,0
1486284252.519,37.598,41.992,43.945,62.500,54.688,0
1486284252.523,31.250,39.062,35.645,49.316,53.711,0
1486284252.527,24.414,31.250,34.180,42.480,45.410,0
1486284252.531,20.508,24.902,32.715,51.270,53.223,0
1486284252.535,22.461,26.367,28.809,65.430,72.754,0
1486284252.538,40.039,34.668,30.273,69.336,38.574,0
1486284252.542,44.434,33.203,36.133,61.035,21.484,0
1486284252.546,31.250,25.391,31.250,48.828,37.109,0
1486284252.550,35.156,25.879,28.809,41.992,64.453,0
1486284252.554,39.551,29.297,35.645,45.410,34.668,0
1486284252.558,31.738,29.297,36.621,50.781,35.645,0
1486284252.562,39.062,29.785,32.227,54.688,69.824,0
1486284252.566,45.410,28.320,34.668,54.688,33.203,0
1486284252.570,43.945,25.391,33.691,51.270,22.949,0
1486284252.574,34.180,24.414,25.391,48.340,58.105,0
1486284252.577,33.203,24.414,23.926,46.387,60.547,0
1486284252.581,43.945,26.855,25.879,43.945,24.414,0
1486284252.585,33.203,26.855,24.902,41.016,18.066,0
1486284252.589,22.461,25.879,28.320,54.688,6.836,0
1486284252.593,28.809,26.855,30.762,58.105,9.277,0
1486284252.597,37.598,35.156,32.715,46.875,3.906,0
1486284252.601,42.969,39.062,41.992,42.480,5.859,0
1486284252.605,36.621,33.203,46.875,51.758,21.973,0
1486284252.609,33.203,32.715,41.504,71.289,29.297,0
1486284252.613,37.109,36.133,38.574,60.059,10.742,0
1486284252.617,46.875,39.062,43.945,47.852,0.977,0
1486284252.620,54.199,38.086,44.922,49.805,30.273,0
1486284252.624,47.852,37.598,37.598,39.551,34.180,0
1486284252.628,37.109,39.062,36.621,48.828,27.832,0
1486284252.632,28.809,29.785,30.762,53.223,6.348,0
1486284252.636,26.367,30.762,32.227,55.176,12.207,0
1486284252.640,36.621,43.945,43.457,61.035,42.480,0
1486284252.644,35.645,44.922,43.945,56.152,-10.254,0
1486284252.648,29.297,35.645,38.574,40.039,-31.738,0
1486284252.652,38.086,31.738,36.133,41.992,28.320,0
1486284252.656,36.133,32.715,39.062,59.570,52.734,0
1486284252.660,30.273,34.668,38.086,52.246,26.855,0
1486284252.663,22.949,38.086,40.527,50.293,-28.320,0
1486284252.667,23.438,41.016,48.340,52.734,-37.109,0
1486284252.671,27.344,42.480,47.363,46.875,-31.250,0
1486284252.675,30.273,44.922,45.898,35.645,-20.020,0
1486284252.679,32.227,41.992,45.410,29.785,-40.039,0
1486284252.683,37.109,39.551,42.480,33.691,-59.082,0
1486284252.687,39.551,47.852,44.434,43.945,-37.109,0
1486284252.691,38.574,43.457,41.016,49.805,-26.855,0
1486284252.695,34.180,38.086,39.062,43.945,-3.906,0
1486284252.699,30.273,40.039,41.992,43.945,33.691,0
1486284252.702,37.109,41.992,53.223,53.711,23.438,0
1486284252.706,43.457,42.969,59.082,57.617,-31.250,0
1486284252.710,43.457,32.227,49.805,51.758,-45.410,0
1486284252.714,43.457,30.273,46.875,48.828,1.953,0
1486284252.718,45.410,39.062,45.410,55.664,-31.250,0
1486284252.722,35.156,32.227,37.109,50.781,-37.598,0
1486284252.726,34.668,33.691,38.574,46.387,7.812,0
1486284252.730,41.016,39.062,46.387,51.270,-2.930,0
1486284252.734,38.574,41.504,54.688,57.617,-19.531,0
1486284252.738,39.551,47.852,62.012,55.176,-28.320,0
1486284252.742,44.434,44.922,60.059,55.664,-21.484,0
1486284252.745,52.734,41.992,53.223,59.082,-7.812,0
1486284252.749,58.105,45.410,50.293,62.500,-20.996,0
1486284252.753,59.082,45.410,52.246,65.918,-55.664,0
1486284252.757,66.895,41.992,51.270,63.477,-17.578,0
1486284252.761,67.383,43.457,50.293,58.105,20.508,0
1486284252.765,66.406,53.223,59.570,62.988,-22.461,0
1486284252.769,65.430,52.246,61.035,60.547,-31.738,0
1486284252.773,63.965,50.781,53.711,49.805,16.113,0
1486284252.777,65.430,52.246,52.734,52.734,-7.324,0
1486284252.781,56.641,44.922,46.387,51.758,-34.668,0
1486284252.785,44.434,37.598,45.898,56.641,-34.180,0
1486284252.788,39.551,36.621,49.316,60.059,4.883,0
1486284252.792,41.504,41.992,47.363,53.223,12.695,0
1486284252.796,38.086,40.527,43.945,48.340,-22.949,0
1486284252.800,33.691,38.086,46.875,53.223,-0.488,0
1486284252.804,34.668,45.898,55.664,63.965,12.695,0
1486284252.808,35.645,48.340,59.570,66.895,-12.207,0
1486284252.812,34.180,40.527,49.805,48.340,15.137,0
1486284252.816,38.086,38.574,46.875,26.367,22.949,0
1486284252.820,38.086,42.969,53.711,30.273,-20.996,0
1486284252.824,38.574,44.922,53.711,52.734,-20.996,0
1486284252.827,44.434,43.457,51.758,62.988,6.836,0
1486284252.831,47.363,43.945,56.152,70.801,-2.441,0
1486284252.835,35.156,42.969,57.617,81.543,-16.602,0
1486284252.839,28.320,41.504,53.223,73.730,-18.066,0
1486284252.843,39.062,42.480,52.734,40.527,0.488,0
1486284252.847,36.133,38.574,56.152,30.273,11.230,0
1486284252.851,36.133,40.039,53.223,47.363,-2.930,0
1486284252.855,43.457,47.852,45.898,70.312,-29.297,0
1486284252.859,33.691,43.457,42.480,75.684,-39.062,0
1486284252.863,37.109,36.133,41.016,63.965,7.812,0
1486284252.867,45.898,36.621,39.551,55.176,14.160,0
1486284252.870,34.180,38.574,39.062,40.527,-23.438,0
1486284252.874,28.320,37.109,37.109,45.410,-23.438,0
1486284252.878,34.180,40.039,38.086,60.547,14.648,0
1486284252.882,47.363,46.875,43.457,60.547,16.113,0
1486284252.886,54.688,44.434,34.668,49.316,-7.812,0
1486284252.890,51.758,39.551,22.461,39.062,17.578,0
1486284252.894,52.246,42.969,26.367,54.199,18.555,0
1486284252.898,41.992,41.504,29.785,63.477,-12.695,0
1486284252.902,36.133,31.250,26.855,57.129,-7.324,0
1486284252.906,37.598,26.367,24.414,57.617,19.043,0
1486284252.910,32.227,32.715,28.320,53.711,20.996,0
1486284252.913,27.832,33.203,27.344,43.945,6.348,0
1486284252.917,17.578,24.902,20.020,44.434,-17.578,0
1486284252.921,24.902,26.367,28.320,45.898,10.742,0
1486284252.925,38.086,27.832,34.180,38.574,27.832,0
1486284252.929,24.414,21.973,25.879,35.645,0.488,0
1486284252.933,13.672,19.531,22.461,33.691,6.348,0
1486284252.937,13.184,21.484,22.949,28.320,6.348,0
1486284252.941,9.766,21.484,20.996,37.109,17.578,0
1486284252.945,7.812,20.996,16.602,40.527,26.367,0
1486284252.949,1.465,26.855,18.555,43.945,11.230,0
1486284252.952,10.254,32.227,27.344,45.898,5.371,0
1486284252.956,23.438,32.227,34.180,41.504,22.461,0
1486284252.960,28.809,38.086,40.527,55.176,3.906,0
1486284252.964,34.668,37.598,38.086,49.805,-6.836,0
1486284252.968,32.227,28.809,29.297,33.691,16.113,0
1486284252.972,35.156,34.668,36.621,47.363,-4.883,0
1486284252.976,34.180,35.645,36.133,53.223,-15.137,0
1486284252.980,22.949,25.879,29.785,41.992,9.766,0
1486284252.984,20.996,30.273,33.691,45.898,1.465,0
1486284252.988,25.879,33.203,34.180,53.223,19.043,0
1486284252.992,30.762,28.320,34.180,55.664,19.043,0
1486284252.995,31.738,32.227,31.738,59.570,12.207,0
1486284252.999,24.902,33.203,28.809,49.316,26.855,0
1486284253.003,24.902,31.738,33.691,41.992,-4.395,0
1486284253.007,28.320,36.133,40.039,52.246,2.930,0
1486284253.011,30.273,35.645,35.645,63.477,45.898,0
1486284253.015,25.879,31.738,34.180,58.594,-0.977,0
1486284253.019,20.996,27.344,37.598,41.016,-21.484,0
1486284253.023,33.691,29.297,36.621,48.828,3.906,0
1486284253.027,37.109,26.855,34.668,57.129,6.836,0
1486284253.031,29.785,28.809,36.621,50.293,21.484,0
1486284253.035,33.203,31.738,31.250,45.898,13.672,0
1486284253.038,33.203,27.832,22.949,52.246,-0.488,0
1486284253.042,27.832,27.832,27.344,61.035,-11.230,0
1486284253.046,31.738,26.367,33.203,68.359,-13.184,0
1486284253.050,41.016,27.344,34.668,62.012,-32.227,0
1486284253.054,40.527,27.344,38.086,50.293,-14.648,0
1486284253.058,35.156,27.344,45.898,55.664,20.508,0
1486284253.062,37.109,28.320,48.828,54.688,-0.488,0
1486284253.066,48.340,29.297,46.875,58.105,-5.859,0
1486284253.070,41.992,23.926,43.457,56.641,24.414,0
1486284253.074,29.785,17.578,33.203,39.551,49.316,0
1486284253.077,27.832,18.066,25.391,25.879,32.227,0
1486284253.081,25.879,21.973,30.762,33.203,10.742,0
1486284253.085,18.066,22.461,34.668,43.945,18.555,0
1486284253.089,11.719,20.508,31.738,42.480,42.480,0
1486284253.093,15.625,22.461,34.180,33.203,20.020,0
1486284253.097,16.602,15.625,34.180,31.738,-24.414,0
1486284253.101,18.555,14.648,34.668,48.828,8.301,0
1486284253.105,22.949,23.438,42.969,52.246,46.387,0
1486284253.109,26.855,20.996,41.504,41.992,55.664,0
1486284253.113,28.809,18.066,29.297,24.902,63.965,0
1486284253.117,28.320,19.531,22.949,16.113,52.734,0
1486284253.120,20.996,21.484,21.484,27.344,48.340,0
1486284253.124,19.043,20.508,22.949,41.016,82.520,0
1486284253.128,27.344,23.438,27.832,57.617,92.773,0
1486284253.132,26.855,28.809,31.738,62.012,78.125,0
1486284253.136,33.203,26.855,30.762,60.547,69.336,0
1486284253.140,46.875,33.203,36.621,54.199,39.062,0
1486284253.144,42.969,31.250,37.109,40.527,44.434,0
1486284253.148,24.414,18.555,27.832,30.273,83.496,0
1486284253.152,18.555,23.438,25.391,31.250,72.754,0
1486284253.156,19.043,21.973,23.438,29.785,69.824,0
1486284253.160,15.137,17.090,20.508,26.855,97.168,0
1486284253.163,15.137,22.949,23.926,33.203,105.957,0
1486284253.167,19.531,33.203,32.715,40.527,67.383,0
1486284253.171,22.949,36.621,36.621,47.852,62.500,0
1486284253.175,26.855,32.227,33.691,51.758,96.191,0
1486284253.179,34.180,35.156,29.297,44.922,98.633,0
1486284253.183,35.156,41.992,31.738,38.086,88.867,0
1486284253.187,27.344,33.203,29.297,33.691,92.773,0
1486284253.191,18.555,21.973,27.344,28.320,89.844,0
1486284253.195,20.508,23.926,30.273,26.855,80.566,0
1486284253.199,20.996,24.902,28.320,25.391,65.430,0
1486284253.202,14.648,22.949,29.297,32.715,33.691,0
1486284253.206,20.020,22.949,33.203,38.086,71.289,0
1486284253.210,27.344,25.391,37.109,47.852,125.977,0
1486284253.214,21.484,24.902,36.621,47.363,108.398,0
1486284253.218,24.414,24.902,32.227,40.039,77.637,0
1486284253.222,30.762,25.879,30.762,37.109,110.352,0
1486284253.226,24.902,19.043,28.320,30.762,104.492,0
1486284253.230,17.090,13.672,23.926,29.785,35.156,0
1486284253.234,18.555,13.184,31.250,31.250,68.359,0
1486284253.238,20.508,8.301,32.715,43.457,104.492,0
1486284253.242,20.508,8.301,27.344,41.504,76.660,0
1486284253.245,26.855,13.672,33.691,23.926,66.406,0
1486284253.249,29.785,14.160,35.156,38.574,67.383,0
1486284253.253,21.484,13.184,29.785,50.293,66.895,0
1486284253.257,20.996,14.648,26.855,39.062,78.613,0
1486284253.261,32.715,18.066,24.902,36.621,69.824,0
1486284253.265,38.086,20.996,29.297,38.086,57.617,0
1486284253.269,29.297,17.090,30.762,27.832,71.777,0
1486284253.273,15.137,14.648,26.855,29.785,65.918,0
1486284253.277,16.602,22.461,33.691,44.434,59.570,0
1486284253.281,28.320,31.738,41.504,47.363,65.918,0
1486284253.285,29.297,33.203,37.109,39.551,77.637,0
1486284253.288,29.785,26.367,31.738,40.527,78.613,0
1486284253.292,34.668,27.344,34.180,49.805,47.852,0
1486284253.296,44.434,29.297,36.621,52.734,28.809,0
1486284253.300,42.969,25.879,35.645,46.387,50.293,0
1486284253.304,32.715,27.344,35.156,39.551,43.945,0
1486284253.308,24.902,28.809,34.180,38.086,33.691,0
1486284253.312,22.949,30.762,29.785,40.527,55.664,0
1486284253.316,24.902,30.762,27.832,49.316,63.477,0
1486284253.320,32.715,34.180,36.133,57.129,35.645,0
1486284253.324,37.109,34.180,40.527,41.992,43.945,0
1486284253.327,34.180,31.250,36.621,25.391,56.152,0
1486284253.331,27.832,27.832,32.715,40.039,35.645,0
1486284253.335,20.996,22.461,31.738,41.992,-8.789,0
1486284253.339,24.902,28.320,36.133,41.992,-11.230,0
1486284253.343,34.180,28.809,34.180,54.688,41.016,0
1486284253.347,37.598,26.855,30.762,44.922,59.082,0
1486284253.351,26.855,30.762,34.180,33.691,39.062,0
1486284253.355,28.809,30.762,35.645,38.086,36.621,0
1486284253.359,36.133,28.320,36.133,42.480,51.758,0
