timestamps,TP9,AF7,AF8,TP10,Right AUX,Marker0
1512881285.700,31.250,8.301,33.691,7.324,-47.363,0
1512881285.704,29.785,29.785,21.973,52.246,-100.586,0
1512881285.708,31.738,41.992,19.531,62.500,63.477,0
1512881285.711,26.367,28.320,24.414,30.273,144.531,0
1512881285.715,31.250,23.926,33.203,29.297,14.160,0
1512881285.719,55.664,61.035,61.523,58.594,-101.074,0
1512881285.723,46.875,59.082,62.500,52.734,-14.648,0
1512881285.727,35.156,20.020,41.992,40.039,91.797,0
1512881285.731,33.691,5.859,34.180,44.434,53.223,0
1512881285.735,30.273,19.043,41.504,41.016,-108.398,0
1512881285.739,19.043,33.691,24.414,36.133,-91.797,0
1512881285.743,2.930,37.598,5.859,26.855,87.402,0
1512881285.747,26.855,27.344,21.973,38.574,105.957,0
1512881285.751,34.668,24.414,22.949,23.926,-29.297,0
1512881285.754,20.996,36.133,25.391,8.301,-84.473,0
1512881285.758,30.273,44.922,22.461,27.832,67.871,0
1512881285.762,44.922,36.133,23.926,39.551,124.023,0
1512881285.766,39.062,13.672,30.762,21.973,-13.184,0
1512881285.770,26.855,3.418,45.898,14.648,-68.848,0
1512881285.774,39.062,45.898,61.035,44.922,66.406,0
1512881285.778,40.039,71.289,66.406,61.523,163.086,0
1512881285.782,41.992,39.062,58.594,50.781,63.965,0
1512881285.786,50.293,15.137,21.973,38.574,-111.328,0
1512881285.790,35.156,14.160,9.277,30.273,-33.691,0
1512881285.793,37.598,43.457,17.578,40.527,142.090,0
1512881285.797,32.227,24.902,41.016,22.461,54.199,0
1512881285.801,12.695,-2.441,25.391,6.348,-98.633,0
1512881285.805,7.324,18.555,10.254,17.578,-53.223,0
1512881285.809,6.348,38.086,41.016,35.645,134.277,0
1512881285.813,31.250,49.316,61.035,60.547,103.027,0
1512881285.817,69.336,52.246,69.824,72.266,-61.035,0
1512881285.821,60.059,19.043,46.387,50.781,-58.594,0
1512881285.825,34.180,3.906,-12.695,25.879,112.793,0
1512881285.829,37.598,34.180,4.395,37.109,164.062,0
1512881285.833,42.969,35.156,51.758,50.293,12.207,0
1512881285.836,36.133,22.949,50.293,44.922,-50.781,0
1512881285.840,30.762,30.762,51.758,44.922,39.551,0
1512881285.844,43.945,61.523,57.129,58.105,110.840,0
1512881285.848,47.852,58.594,42.480,52.246,24.414,0
1512881285.852,29.297,20.020,25.879,33.203,-93.750,0
1512881285.856,18.555,17.578,27.832,33.691,-10.742,0
1512881285.860,26.367,24.414,7.324,32.715,127.930,0
1512881285.864,47.852,20.996,20.996,36.621,56.641,0
1512881285.868,42.969,18.066,50.293,47.852,-65.430,0
1512881285.872,31.738,32.227,57.617,56.641,-69.824,0
1512881285.876,42.480,56.152,51.758,60.547,52.246,0
1512881285.879,46.387,43.945,48.828,57.617,100.098,0
1512881285.883,65.430,54.688,72.266,68.359,-10.742,0
1512881285.887,59.082,50.781,65.430,64.453,-74.707,0
1512881285.891,25.879,30.762,39.062,61.523,53.223,0
1512881285.895,17.578,31.250,38.574,59.570,140.137,0
1512881285.899,12.695,0.488,26.855,12.695,14.648,0
1512881285.903,31.738,-2.441,32.227,3.906,-98.633,0
1512881285.907,46.875,40.039,29.297,41.992,-3.906,0
1512881285.911,40.527,59.570,2.441,62.988,165.527,0
1512881285.915,35.156,30.273,7.324,45.410,56.641,0
1512881285.918,34.180,27.832,45.898,41.504,-109.863,0
1512881285.922,41.992,46.387,56.152,75.195,-31.250,0
1512881285.926,25.879,40.527,38.574,60.547,125.977,0
1512881285.930,27.832,33.203,52.246,33.691,94.238,0
1512881285.934,55.176,29.785,67.871,39.551,-61.035,0
1512881285.938,49.316,20.508,25.879,35.645,-70.312,0
1512881285.942,15.625,0.977,-11.230,23.438,104.004,0
1512881285.946,6.348,-4.883,-12.695,16.602,143.066,0
1512881285.950,44.434,25.879,20.508,23.926,-13.184,0
1512881285.954,74.219,82.031,71.777,53.223,-93.262,0
1512881285.958,47.363,64.453,56.152,36.621,28.320,0
1512881285.961,22.949,24.414,22.949,19.043,102.539,0
1512881285.965,35.156,32.227,46.387,34.668,-50.293,0
1512881285.969,30.273,24.902,56.152,35.156,-154.297,0
1512881285.973,-0.488,14.648,42.480,23.438,0.488,0
1512881285.977,-11.719,19.043,23.926,15.625,152.832,0
1512881285.981,24.414,22.949,5.371,22.461,52.246,0
1512881285.985,61.523,30.762,50.293,50.293,-118.652,0
1512881285.989,38.574,48.340,50.293,57.617,-72.754,0
1512881285.993,9.277,45.410,11.719,47.852,86.914,0
1512881285.997,31.738,28.809,39.551,55.176,83.496,0
1512881286.001,49.316,24.902,44.434,47.852,-63.477,0
1512881286.004,20.020,21.484,0.977,30.762,-83.984,0
1512881286.008,9.277,31.738,22.461,22.949,70.312,0
1512881286.012,20.020,29.785,45.898,18.066,104.004,0
1512881286.016,21.484,17.090,36.133,6.836,-20.996,0
1512881286.020,34.668,28.320,46.387,11.719,-88.867,0
1512881286.024,43.457,48.828,47.852,42.969,35.156,0
1512881286.028,33.691,35.156,21.973,36.621,141.602,0
1512881286.032,34.180,17.090,18.555,41.016,20.020,0
1512881286.036,35.645,19.531,30.273,53.711,-95.215,0
1512881286.040,28.809,38.086,29.297,53.711,-21.973,0
1512881286.043,36.133,48.828,60.547,59.082,104.004,0
1512881286.047,12.695,13.184,50.293,27.832,44.434,0
1512881286.051,2.930,24.414,37.109,20.508,-85.449,0
1512881286.055,25.879,60.547,47.363,38.086,-85.938,0
1512881286.059,26.367,29.785,29.297,24.902,53.711,0
1512881286.063,37.109,16.602,26.855,28.320,84.473,0
1512881286.067,58.594,39.551,12.207,49.805,-47.852,0
1512881286.071,38.086,17.090,4.883,47.363,-48.828,0
1512881286.075,21.973,14.648,21.484,47.363,104.492,0
1512881286.079,24.414,18.066,21.973,40.039,159.668,0
1512881286.083,23.438,1.465,38.574,20.996,9.766,0
1512881286.086,43.945,21.484,49.805,40.527,-90.332,0
1512881286.090,62.988,65.918,57.617,62.988,7.812,0
1512881286.094,52.734,76.660,56.641,58.105,141.113,0
1512881286.098,52.246,55.176,45.410,55.664,26.855,0
1512881286.102,46.875,48.340,60.059,52.734,-134.766,0
1512881286.106,15.625,33.691,29.297,24.414,-60.059,0
1512881286.110,11.719,9.766,-12.207,9.277,134.277,0
1512881286.114,43.457,20.996,33.203,31.738,114.746,0
1512881286.118,34.180,13.184,38.086,25.391,-29.785,0
1512881286.122,-3.906,5.859,10.742,22.949,-29.297,0
1512881286.126,14.648,21.973,57.129,47.852,104.004,0
1512881286.129,46.387,41.016,74.219,57.617,122.559,0
1512881286.133,29.785,34.180,44.922,39.062,-51.758,0
1512881286.137,19.043,33.203,20.996,18.555,-88.867,0
1512881286.141,5.859,36.621,2.441,13.184,70.312,0
1512881286.145,4.883,24.414,22.949,20.996,136.719,0
1512881286.149,41.504,38.086,15.625,39.062,-10.742,0
1512881286.153,35.645,22.949,-2.441,25.879,-102.539,0
1512881286.157,15.137,4.883,23.926,21.484,38.574,0
1512881286.161,11.719,8.301,35.156,26.367,148.926,0
1512881286.165,44.434,35.645,49.805,29.785,56.152,0
1512881286.168,64.941,50.781,41.992,53.223,-51.758,0
1512881286.172,28.809,17.578,44.922,52.734,-6.836,0
1512881286.176,28.809,37.598,81.055,56.152,148.438,0
1512881286.180,47.852,59.570,51.270,55.176,147.461,0
1512881286.184,45.410,42.480,22.461,40.039,-41.016,0
1512881286.188,19.043,12.695,13.672,39.062,-50.293,0
1512881286.192,-0.977,-2.441,10.742,26.855,103.516,0
1512881286.196,22.461,13.672,38.574,18.555,130.859,0
1512881286.200,48.340,32.715,56.152,45.410,27.344,0
1512881286.204,54.688,43.945,67.383,61.035,-26.367,0
1512881286.208,23.926,22.949,29.785,29.785,102.539,0
1512881286.211,4.395,-8.301,-3.906,18.066,214.844,0
1512881286.215,31.738,27.832,28.809,45.898,89.844,0
1512881286.219,61.035,69.824,39.551,61.035,-55.664,0
1512881286.223,41.504,68.359,22.949,42.480,34.180,0
1512881286.227,20.020,36.133,39.062,35.645,162.598,0
1512881286.231,21.484,-8.301,48.340,38.574,75.195,0
1512881286.235,31.738,2.930,43.945,29.785,-49.805,0
1512881286.239,41.504,22.949,45.410,36.621,-9.277,0
1512881286.243,28.320,14.648,48.340,38.086,153.809,0
1512881286.247,20.020,14.160,36.133,38.574,158.203,0
1512881286.251,31.738,11.719,13.184,46.875,-10.742,0
1512881286.254,25.879,6.348,30.273,34.668,-43.945,0
1512881286.258,25.879,36.133,63.477,46.875,106.934,0
1512881286.262,54.199,58.105,53.223,61.523,154.297,0
1512881286.266,51.270,50.293,8.789,45.410,-24.414,0
1512881286.270,23.438,56.152,-8.301,54.199,-94.238,0
1512881286.274,24.902,29.785,28.809,64.941,75.684,0
1512881286.278,28.809,-9.766,62.500,50.293,166.016,0
1512881286.282,26.855,-18.555,37.598,33.691,44.434,0
1512881286.286,32.227,-2.441,38.086,22.949,-58.594,0
1512881286.290,14.160,20.996,33.203,33.203,24.414,0
1512881286.293,-1.953,23.926,47.363,41.504,152.832,0
1512881286.297,14.648,26.367,46.387,38.574,58.594,0
1512881286.301,24.414,21.973,-20.020,28.809,-84.473,0
1512881286.305,36.621,31.738,14.160,28.809,-51.758,0
1512881286.309,52.734,49.316,59.082,47.363,87.402,1
1512881286.313,53.223,32.227,54.199,47.852,122.559,0
1512881286.317,53.711,24.414,47.363,41.016,-68.848,0
1512881286.321,36.621,18.066,33.691,28.809,-127.930,0
1512881286.325,1.953,-0.488,38.574,10.742,88.867,0
1512881286.329,10.254,5.859,28.809,16.602,160.645,0
1512881286.333,56.152,41.016,62.500,42.969,-18.555,0
1512881286.336,53.223,45.898,74.219,41.504,-130.371,0
1512881286.340,15.625,22.949,14.160,23.438,-31.250,0
1512881286.344,14.648,21.973,-0.977,26.367,124.023,0
1512881286.348,31.738,18.555,-6.348,27.344,67.871,0
1512881286.352,42.969,27.832,2.441,26.855,-79.102,0
1512881286.356,25.879,31.250,39.062,28.320,-49.316,0
1512881286.360,6.836,23.926,41.992,45.898,108.398,0
1512881286.364,24.414,16.602,58.594,49.805,137.695,0
1512881286.368,44.922,21.973,90.332,47.363,-16.113,0
1512881286.372,22.949,6.836,65.918,35.645,-57.617,0
1512881286.376,15.137,15.625,28.320,42.480,69.824,0
1512881286.379,21.484,52.246,18.066,58.105,120.605,0
1512881286.383,33.691,43.945,6.348,46.875,-0.977,0
1512881286.387,52.246,45.410,23.438,50.293,-93.750,0
1512881286.391,46.387,48.828,25.391,52.246,16.602,0
1512881286.395,31.738,28.320,31.250,41.016,102.539,0
1512881286.399,1.465,-14.648,29.297,23.438,0.977,0
1512881286.403,-16.113,-9.766,32.715,23.438,-97.656,0
1512881286.407,10.254,31.250,53.223,47.852,-1.953,0
1512881286.411,29.785,14.648,33.691,36.621,125.000,0
1512881286.415,36.133,18.555,19.043,30.762,66.895,0
1512881286.418,41.016,41.504,40.527,39.551,-72.754,0
1512881286.422,23.926,35.645,56.152,18.555,-39.062,0
1512881286.426,25.391,31.250,51.758,18.555,119.141,0
1512881286.430,40.527,12.695,24.414,34.668,75.195,0
1512881286.434,36.133,10.254,14.160,39.062,-98.633,0
1512881286.438,31.250,31.738,52.246,43.945,-92.285,0
1512881286.442,21.973,30.762,48.340,47.363,85.449,0
1512881286.446,33.203,19.531,25.879,45.410,108.887,0
1512881286.450,24.902,10.742,31.250,39.551,-51.758,0
1512881286.454,-6.348,23.926,5.371,29.785,-96.191,0
1512881286.458,20.508,39.062,37.598,45.898,39.062,0
1512881286.461,40.039,13.184,74.219,56.152,105.469,0
1512881286.465,33.691,21.973,46.875,44.922,6.836,0
1512881286.469,31.738,30.762,37.109,35.645,-105.469,0
1512881286.473,0.488,-0.488,33.691,17.090,-42.480,0
1512881286.477,4.883,26.367,37.598,28.809,83.496,0
1512881286.481,44.434,54.199,44.434,50.293,45.898,0
1512881286.485,31.738,23.926,26.367,32.227,-69.336,0
1512881286.489,15.625,25.391,22.949,24.414,-80.078,0
1512881286.493,21.484,39.551,9.766,37.598,82.520,0
1512881286.497,16.113,15.625,17.578,31.738,128.418,0
1512881286.501,33.691,10.254,70.312,39.551,-35.156,0
1512881286.504,37.598,38.086,72.754,27.832,-72.266,0
1512881286.508,17.090,11.719,53.711,18.066,96.191,0
1512881286.512,12.207,-11.230,50.781,27.832,120.117,0
1512881286.516,14.648,15.625,46.875,30.762,-21.484,0
1512881286.520,32.715,46.875,38.574,52.734,-107.422,0
1512881286.524,42.969,48.828,28.320,52.246,-21.484,0
1512881286.528,11.230,47.852,11.719,23.438,128.906,0
1512881286.532,13.184,45.410,4.883,19.043,59.570,0
1512881286.536,34.180,12.207,27.344,27.344,-98.633,0
1512881286.540,34.668,13.184,63.965,43.457,-22.949,0
1512881286.543,17.090,11.719,42.969,38.574,154.297,0
1512881286.547,14.160,-0.488,22.461,26.367,96.680,0
1512881286.551,25.391,12.695,37.109,16.602,-44.434,0
1512881286.555,36.133,42.480,63.965,31.738,-46.387,0
1512881286.559,27.344,19.531,52.246,45.410,90.332,0
1512881286.563,23.926,13.184,16.113,45.410,76.660,0
1512881286.567,34.180,57.617,13.672,48.828,-81.055,0
1512881286.571,35.156,40.527,26.367,31.738,-75.684,0
1512881286.575,31.738,17.090,39.062,41.992,84.961,0
1512881286.579,13.184,0.488,42.480,49.805,144.531,0
1512881286.583,35.645,7.812,21.973,37.109,2.930,0
1512881286.586,53.711,41.016,23.926,25.391,-101.074,0
1512881286.590,31.250,50.781,52.734,40.039,12.695,0
1512881286.594,28.320,35.156,66.406,39.062,143.066,0
1512881286.598,42.969,26.855,55.176,45.410,64.941,0
1512881286.602,61.523,65.918,56.641,82.520,-55.664,0
1512881286.606,53.711,76.660,68.359,67.383,1.953,0
1512881286.610,14.160,21.973,29.785,39.062,152.344,0
1512881286.614,22.949,3.906,25.879,37.109,119.629,0
1512881286.618,38.574,4.883,40.527,32.227,-40.039,0
1512881286.622,22.461,2.441,11.719,20.996,-63.477,0
1512881286.626,18.555,9.766,3.418,22.461,70.312,0
1512881286.629,39.551,28.320,19.043,33.203,121.582,0
1512881286.633,42.969,34.668,18.066,34.668,8.789,0
1512881286.637,21.973,34.668,41.016,30.762,-50.781,0
1512881286.641,29.785,62.012,73.242,46.875,53.223,0
1512881286.645,38.574,46.875,54.688,45.898,134.766,0
1512881286.649,42.969,39.551,38.086,35.156,27.344,0
1512881286.653,47.363,46.387,49.316,29.297,-82.520,0
1512881286.657,29.297,13.184,48.340,31.738,-6.836,0
1512881286.661,-4.395,-7.812,41.504,33.203,114.258,0
1512881286.665,-3.418,16.602,42.969,41.016,51.758,0
1512881286.668,17.578,18.066,21.484,31.250,-63.477,0
1512881286.672,1.953,8.301,10.742,17.090,-35.645,0
1512881286.676,-1.953,19.043,18.066,28.809,111.816,0
1512881286.680,28.809,27.832,38.086,37.109,101.562,0
1512881286.684,50.781,49.805,49.316,40.039,-75.684,0
1512881286.688,37.598,57.617,56.152,38.574,-114.258,0
1512881286.692,28.809,49.805,62.500,48.828,67.871,0
1512881286.696,27.344,38.574,51.758,50.781,139.160,0
1512881286.700,25.879,20.020,17.578,27.344,-32.227,0
1512881286.704,41.504,18.066,-7.812,29.297,-104.004,0
1512881286.708,32.227,15.625,21.973,39.551,32.715,0
1512881286.711,14.648,21.973,57.129,31.738,129.883,0
1512881286.715,14.160,24.414,48.828,34.668,21.973,0
1512881286.719,9.277,17.090,35.645,44.922,-90.332,0
1512881286.723,23.926,22.949,41.016,46.875,-5.371,0
1512881286.727,25.391,30.273,30.762,34.180,119.141,0
1512881286.731,23.438,44.922,43.457,27.344,73.242,0
1512881286.735,42.480,55.176,63.965,27.832,-53.223,0
1512881286.739,51.270,54.688,39.062,40.527,-38.086,0
1512881286.743,48.828,44.434,43.457,53.223,78.125,0
1512881286.747,34.668,12.695,62.012,29.297,77.148,0
1512881286.751,26.855,-1.465,48.340,25.391,-49.316,0
1512881286.754,16.113,10.742,40.527,21.484,-37.109,0
1512881286.758,6.348,27.832,45.410,29.785,101.562,0
1512881286.762,13.184,20.996,35.156,37.598,93.750,0
1512881286.766,45.410,21.973,39.551,32.227,-31.250,0
1512881286.770,48.340,28.809,41.016,38.086,-78.613,0
1512881286.774,24.414,24.414,6.836,52.246,10.742,0
1512881286.778,28.809,17.090,10.254,39.551,137.207,0
1512881286.782,40.039,43.457,54.688,37.109,42.480,0
1512881286.786,50.781,63.965,58.594,58.594,-104.980,0
1512881286.790,39.551,37.598,66.406,33.203,-9.277,0
1512881286.793,8.789,17.578,52.734,30.273,123.535,0
1512881286.797,10.742,3.418,20.508,25.879,70.312,0
1512881286.801,36.133,20.996,39.062,20.508,-28.320,0
1512881286.805,36.133,42.480,70.801,59.570,-21.484,0
1512881286.809,30.762,37.598,63.477,68.359,94.238,0
1512881286.813,41.992,24.902,31.250,36.133,141.602,0
1512881286.817,41.992,6.348,20.508,20.996,32.715,0
1512881286.821,24.902,7.812,0.488,35.645,-51.270,0
1512881286.825,14.648,40.039,27.344,44.434,72.754,0
1512881286.829,42.480,52.246,79.102,64.453,207.031,0
1512881286.833,32.715,16.113,28.809,52.734,63.965,0
1512881286.836,8.789,7.324,9.766,26.367,-47.852,0
1512881286.840,19.043,36.621,66.895,39.062,68.848,0
1512881286.844,27.832,54.688,43.457,55.664,169.922,0
1512881286.848,36.133,35.645,31.738,44.434,75.195,0
1512881286.852,50.781,16.113,35.156,38.574,-52.246,0
1512881286.856,51.758,30.273,17.578,28.320,16.602,0
1512881286.860,47.852,54.199,49.805,48.340,141.602,0
1512881286.864,33.203,30.273,51.758,38.574,98.145,0
1512881286.868,25.879,32.227,37.598,22.949,-60.547,0
1512881286.872,28.809,43.945,46.387,45.410,-46.387,0
1512881286.876,7.812,23.926,26.855,27.344,145.996,0
1512881286.879,13.184,15.625,41.992,24.902,166.016,0
1512881286.883,27.832,19.043,44.434,33.691,-24.414,0
1512881286.887,22.949,22.949,34.180,30.273,-77.148,0
1512881286.891,30.762,34.668,19.531,34.668,89.355,0
1512881286.895,47.852,65.918,24.414,70.801,145.508,0
1512881286.899,41.992,44.922,46.387,74.707,22.461,0
1512881286.903,52.246,28.809,56.641,41.016,-52.734,0
1512881286.907,31.738,14.160,26.855,18.555,51.270,0
1512881286.911,-3.418,-4.395,-18.066,13.672,165.039,0
1512881286.915,31.250,13.184,6.836,17.090,92.285,0
1512881286.918,52.734,19.531,45.410,15.625,-36.621,0
1512881286.922,19.043,26.855,43.457,21.484,-10.254,0
1512881286.926,6.836,36.133,16.602,32.715,161.133,0
1512881286.930,23.438,29.297,44.434,47.852,149.414,0
1512881286.934,38.574,19.531,70.312,51.270,5.371,0
1512881286.938,42.480,20.996,41.504,49.316,-9.277,0
1512881286.942,29.785,31.738,60.059,55.664,122.070,0
1512881286.946,22.461,34.180,49.316,50.293,194.336,0
1512881286.950,22.949,15.625,10.742,29.785,56.641,0
1512881286.954,48.340,31.250,20.020,39.551,-28.809,0
1512881286.958,46.875,40.039,20.996,50.781,56.641,0
1512881286.961,27.832,25.391,15.137,29.785,170.410,0
1512881286.965,31.250,20.996,38.086,19.043,80.078,0
1512881286.969,46.875,24.414,31.250,38.574,-48.340,0
1512881286.973,24.414,33.691,23.438,52.246,61.523,0
1512881286.977,-6.348,10.742,40.527,34.668,166.016,0
1512881286.981,13.672,6.348,51.270,26.855,88.379,0
1512881286.985,24.414,21.484,23.926,22.949,-14.648,0
1512881286.989,35.645,21.484,25.879,31.250,-6.836,0
1512881286.993,34.668,23.438,44.434,42.480,128.906,0
1512881286.997,10.742,29.297,8.789,22.461,120.117,0
1512881287.001,29.297,53.223,27.344,41.016,-70.312,0
1512881287.004,48.828,76.660,65.918,74.707,-99.121,0
1512881287.008,29.785,35.645,44.434,42.480,70.312,0
1512881287.012,24.902,13.184,36.621,34.668,146.484,0
1512881287.016,22.461,30.273,61.523,41.016,-4.395,0
1512881287.020,15.137,2.930,35.156,10.742,-112.793,0
1512881287.024,15.625,-2.930,22.461,3.906,14.648,0
1512881287.028,22.949,9.277,29.785,18.555,125.000,0
1512881287.032,32.715,17.578,1.465,23.438,26.855,0
1512881287.036,16.113,3.906,17.090,5.859,-110.840,0
1512881287.040,28.320,41.016,40.527,33.691,-59.082,0
1512881287.043,44.434,82.520,34.180,67.871,82.031,0
1512881287.047,41.992,48.340,47.363,23.926,20.996,0
1512881287.051,20.020,17.578,48.828,-5.371,-90.332,0
1512881287.055,6.836,11.230,24.902,9.277,-41.992,0
1512881287.059,20.020,41.016,34.668,23.926,82.031,0
1512881287.063,18.066,45.410,35.156,28.320,69.824,0
1512881287.067,44.434,32.715,72.754,41.016,-47.852,0
1512881287.071,34.668,23.438,77.637,36.621,-54.688,0
1512881287.075,-0.977,15.137,30.273,13.672,58.594,0
1512881287.079,4.395,22.461,28.809,13.184,114.258,0
1512881287.083,33.691,24.902,13.672,33.691,5.371,0
1512881287.086,20.508,15.625,13.184,27.832,-65.918,0
1512881287.090,-14.160,15.625,26.855,9.277,20.020,0
1512881287.094,8.301,22.461,19.531,40.039,119.629,0
1512881287.098,34.180,34.180,43.945,43.457,57.617,0
1512881287.102,36.133,42.969,70.801,22.461,-92.773,0
1512881287.106,21.484,38.086,73.730,44.434,-36.621,0
1512881287.110,19.531,18.555,67.871,44.922,160.156,0
1512881287.114,39.062,30.762,41.016,35.645,151.367,0
1512881287.118,60.059,44.434,52.734,54.199,-3.906,0
1512881287.122,59.570,38.086,38.086,53.223,-37.598,0
1512881287.126,38.086,36.133,-4.395,54.199,76.172,0
1512881287.129,41.016,31.738,5.371,52.734,136.719,0
1512881287.133,48.340,15.137,3.906,33.691,-1.465,0
1512881287.137,28.809,8.789,25.879,29.297,-79.102,0
1512881287.141,-0.488,11.719,39.551,21.973,66.406,0
1512881287.145,9.277,11.719,30.273,21.973,156.250,0
1512881287.149,49.805,25.391,70.312,37.109,33.691,0
1512881287.153,55.176,36.133,70.801,50.781,-85.938,0
1512881287.157,45.898,53.711,35.156,58.105,5.371,0
1512881287.161,39.062,42.480,35.645,43.945,154.297,0
1512881287.165,33.203,28.320,5.859,34.668,81.543,0
1512881287.168,33.203,35.645,-13.672,41.016,-64.941,0
1512881287.172,52.734,46.875,33.203,64.941,-34.668,0
1512881287.176,39.062,37.109,51.758,62.012,107.422,0
1512881287.180,22.949,28.809,47.852,34.668,78.613,0
1512881287.184,43.945,37.109,50.781,51.758,-83.496,0
1512881287.188,44.434,31.250,61.035,61.035,-85.938,0
1512881287.192,24.902,37.598,64.453,50.781,71.289,0
1512881287.196,13.184,47.852,50.293,34.668,90.820,0
1512881287.200,18.555,31.250,42.480,29.785,-49.316,0
1512881287.204,21.973,16.113,33.691,36.621,-104.980,0
1512881287.208,14.648,9.277,34.668,40.527,24.902,0
1512881287.211,26.855,31.738,34.668,54.688,149.902,0
1512881287.215,54.688,40.527,42.480,63.477,34.668,0
1512881287.219,50.781,22.461,33.203,37.598,-87.891,0
1512881287.223,29.785,15.625,10.254,18.066,-4.883,0
1512881287.227,15.625,18.555,21.973,31.250,92.773,0
1512881287.231,18.066,27.832,53.223,40.039,67.383,0
1512881287.235,38.086,31.250,58.105,30.762,-15.625,0
1512881287.239,46.875,48.828,51.758,40.527,-43.945,0
1512881287.243,34.668,65.918,62.988,60.547,78.613,0
1512881287.247,31.250,47.852,59.082,51.270,158.203,0
1512881287.251,55.664,26.367,58.594,45.898,4.395,0
1512881287.254,46.387,26.855,48.828,48.828,-59.570,0
1512881287.258,-3.906,3.418,24.902,27.344,95.703,0
1512881287.262,13.184,4.883,43.945,23.438,183.105,0
1512881287.266,59.082,48.340,44.434,34.180,52.246,0
1512881287.270,38.086,45.410,8.301,44.922,-81.543,0
1512881287.274,16.113,30.273,25.879,41.504,14.648,0
1512881287.278,24.902,33.203,40.527,23.438,176.270,0
1512881287.282,27.832,27.832,62.500,21.484,133.301,0
1512881287.286,28.320,20.020,64.941,30.273,-23.438,0
1512881287.290,21.484,27.832,38.086,44.922,5.371,0
1512881287.293,-3.418,38.086,40.039,56.641,166.992,0
1512881287.297,-15.625,11.719,31.738,25.391,156.738,0
1512881287.301,9.277,16.602,16.602,8.789,14.648,0
1512881287.305,39.062,25.879,36.133,51.270,-13.184,0
1512881287.309,34.668,35.645,43.457,60.547,134.277,0
1512881287.313,38.086,63.965,73.242,48.828,160.645,0
1512881287.317,64.941,56.152,68.848,56.152,-8.301,0
1512881287.321,39.551,24.902,30.273,34.180,-70.801,0
1512881287.325,-20.996,9.766,40.039,3.418,71.289,0
1512881287.329,-13.672,0.488,43.457,6.348,138.672,0
1512881287.333,30.273,8.789,26.855,18.555,23.926,0
1512881287.336,32.715,21.973,11.719,23.438,-61.035,0
1512881287.340,37.109,39.551,24.414,47.852,35.645,0
1512881287.344,45.898,59.570,48.828,58.105,175.781,0
1512881287.348,58.594,53.223,49.805,51.758,80.566,0
1512881287.352,55.664,19.531,27.344,41.504,-79.102,0
1512881287.356,18.066,5.859,13.672,27.344,-49.316,0
1512881287.360,12.695,14.160,46.875,21.484,93.750,0
1512881287.364,34.180,35.156,59.570,24.414,90.820,0
1512881287.368,51.758,53.711,37.598,43.945,-71.777,0
1512881287.372,43.945,42.480,17.090,63.477,-96.680,0
1512881287.376,31.738,32.715,45.410,59.082,68.848,0
1512881287.379,50.293,33.691,62.500,47.852,155.273,0
1512881287.383,64.453,46.875,39.551,48.340,36.133,0
1512881287.387,58.105,47.852,38.574,52.246,-35.645,0
1512881287.391,16.113,27.832,16.602,38.574,104.004,0
1512881287.395,2.930,5.859,13.672,19.531,230.957,0
1512881287.399,18.555,1.465,33.691,16.602,127.441,0
1512881287.403,21.484,9.277,24.902,26.367,-18.066,0
1512881287.407,22.461,15.137,47.852,51.270,55.176,0
1512881287.411,20.996,39.551,67.383,60.059,203.125,0
1512881287.415,32.715,56.152,54.199,52.246,188.477,0
1512881287.418,61.523,55.664,78.125,50.781,31.738,0
1512881287.422,49.805,64.453,55.176,46.387,30.762,0
1512881287.426,26.855,54.688,26.855,39.062,218.750,0
1512881287.430,30.762,25.879,42.480,35.156,252.441,0
1512881287.434,26.855,20.508,24.414,34.668,55.664,0
1512881287.438,22.461,18.555,13.672,28.320,-2.930,0
1512881287.442,28.320,19.043,14.160,36.133,186.523,0
1512881287.446,38.086,33.691,10.254,48.340,247.070,0
1512881287.450,34.180,40.527,26.855,35.645,93.750,0
1512881287.454,48.828,42.969,65.918,62.012,-5.859,0
1512881287.458,41.992,41.992,70.801,60.547,145.020,0
1512881287.461,16.113,25.391,34.180,32.715,270.508,0
1512881287.465,25.879,13.184,27.832,33.203,117.676,0
1512881287.469,42.969,27.344,42.969,50.293,-26.855,0
1512881287.473,38.086,28.809,29.785,50.293,97.168,0
1512881287.477,39.062,47.852,33.691,39.062,256.836,0
1512881287.481,49.805,63.965,31.250,62.500,161.133,0
1512881287.485,41.992,32.715,25.391,69.824,-12.207,0
1512881287.489,12.207,20.020,57.129,56.152,44.434,0
1512881287.493,16.602,18.555,43.945,55.176,219.238,0
1512881287.497,48.828,23.438,43.457,56.641,199.219,0
1512881287.501,35.645,21.973,55.176,25.391,11.719,0
1512881287.504,20.996,34.180,39.062,20.996,-17.090,0
1512881287.508,21.484,36.621,52.246,50.781,160.645,0
1512881287.512,41.992,25.879,49.316,66.895,209.961,0
1512881287.516,62.012,27.344,28.809,54.688,82.520,0
1512881287.520,42.969,28.320,22.461,35.156,-3.906,0
1512881287.524,31.738,47.852,24.902,34.180,93.262,0
1512881287.528,28.320,35.156,40.527,42.480,210.938,0
1512881287.532,32.227,14.160,43.945,35.645,132.812,0
1512881287.536,34.668,18.555,37.598,28.809,-27.344,0
1512881287.540,15.625,6.836,46.875,36.621,7.812,0
1512881287.543,15.625,20.020,54.199,35.645,169.922,0
1512881287.547,31.250,43.945,64.453,41.992,143.066,0
1512881287.551,28.320,28.320,59.570,39.551,-17.090,0
1512881287.555,20.996,11.719,27.344,32.715,-47.363,0
1512881287.559,43.457,45.898,30.762,44.922,116.699,0
1512881287.563,51.758,65.918,40.039,49.805,204.590,2
1512881287.567,51.270,31.738,25.879,51.270,38.574,0
1512881287.571,34.180,11.230,26.855,52.246,-41.504,0
1512881287.575,-0.977,4.883,40.039,44.434,104.492,0
1512881287.579,20.020,22.949,38.574,46.387,198.242,0
1512881287.583,33.203,31.738,21.484,37.109,63.965,0
1512881287.586,23.926,39.062,39.551,41.016,-79.590,0
1512881287.590,34.180,50.781,72.266,40.039,37.109,0
1512881287.594,45.410,33.691,52.734,29.785,193.848,0
1512881287.598,40.039,21.484,28.320,36.133,91.309,0
1512881287.602,19.531,13.672,35.156,41.016,-89.844,0
1512881287.606,9.766,18.555,31.250,45.410,-24.902,0
1512881287.610,14.648,35.645,36.621,38.574,152.344,0
1512881287.614,53.711,47.852,43.457,39.062,114.258,0
1512881287.618,59.570,53.711,4.395,35.645,-62.012,0
1512881287.622,17.578,35.156,9.766,25.391,-46.875,0
1512881287.626,27.344,38.574,21.973,22.461,105.469,0
1512881287.629,65.430,43.945,13.184,34.180,122.559,0
1512881287.633,55.176,9.277,18.555,27.344,-17.090,0
1512881287.637,25.391,19.043,29.297,27.344,-90.332,0
1512881287.641,7.324,18.066,44.434,30.273,61.523,0
1512881287.645,5.371,11.230,48.340,22.949,145.996,0
1512881287.649,31.250,33.691,61.035,37.109,4.883,0
1512881287.653,40.527,32.227,61.035,45.898,-94.727,0
1512881287.657,29.297,40.039,43.457,39.062,-3.906,0
1512881287.661,31.250,54.688,26.855,45.410,132.812,0
1512881287.665,28.320,30.762,5.371,31.250,78.125,0
1512881287.668,35.645,51.758,0.488,22.461,-82.031,0
1512881287.672,22.949,43.945,26.855,31.738,-55.176,0
1512881287.676,8.789,10.254,57.617,41.016,109.375,0
1512881287.680,43.457,29.297,48.828,49.805,118.652,0
1512881287.684,58.594,42.969,45.410,71.289,-36.133,0
1512881287.688,45.410,39.551,65.430,69.824,-97.656,0
1512881287.692,14.160,14.160,35.645,21.973,46.387,0
1512881287.696,-7.324,5.859,8.789,6.836,133.301,0
1512881287.700,19.531,30.273,19.531,20.508,-13.184,0
1512881287.704,35.156,30.273,7.812,32.227,-119.629,0
1512881287.708,20.020,32.227,9.277,32.227,-21.973,0
1512881287.711,23.438,54.688,53.711,33.203,114.746,0
1512881287.715,53.711,60.547,60.547,55.176,30.273,0
1512881287.719,50.293,33.691,37.598,53.223,-138.672,0
1512881287.723,25.879,6.836,47.852,34.180,-60.547,0
1512881287.727,21.484,7.324,42.969,20.020,135.254,0
1512881287.731,37.109,16.113,41.016,19.043,71.289,0
1512881287.735,59.570,32.227,15.137,33.203,-131.348,0
1512881287.739,51.758,40.527,1.953,45.410,-127.441,0
1512881287.743,6.836,21.973,20.020,40.527,38.574,0
1512881287.747,6.836,25.879,37.109,35.645,75.684,0
1512881287.751,53.223,50.293,68.359,48.340,-93.750,0
1512881287.754,69.336,73.242,72.754,73.242,-170.410,0
1512881287.758,33.203,46.875,51.758,57.129,12.695,0
1512881287.762,21.484,15.625,38.574,34.180,135.742,0
1512881287.766,35.156,12.695,35.156,30.273,-7.812,0
1512881287.770,28.320,28.809,29.785,28.320,-137.695,0
1512881287.774,10.254,18.066,53.711,27.832,14.160,0
1512881287.778,9.766,-12.695,26.855,29.297,152.344,0
1512881287.782,38.574,4.395,2.930,34.180,22.461,0
1512881287.786,46.387,25.879,31.250,46.387,-97.168,0
1512881287.790,34.668,39.062,62.988,50.781,-6.348,0
1512881287.793,30.762,41.016,79.102,45.898,136.719,0
1512881287.797,22.461,41.992,34.668,35.156,97.656,0
1512881287.801,12.207,14.648,1.465,19.531,-62.500,0
1512881287.805,21.484,12.207,32.715,34.180,-47.363,0
1512881287.809,44.922,58.105,50.293,65.430,105.957,0
1512881287.813,35.156,29.297,19.043,46.387,121.582,0
1512881287.817,12.695,2.930,24.902,25.391,-13.184,0
1512881287.821,19.531,36.133,54.688,46.387,-82.031,0
1512881287.825,33.203,45.898,52.246,62.500,44.434,0
1512881287.829,27.832,14.160,43.945,38.574,172.363,0
1512881287.833,13.672,6.836,31.738,16.113,46.387,0
1512881287.836,15.137,19.043,14.648,17.090,-113.281,0
1512881287.840,14.648,25.879,-12.207,17.090,1.465,0
1512881287.844,11.719,26.367,13.672,16.113,167.969,0
1512881287.848,34.668,38.574,59.082,46.875,80.078,0
1512881287.852,57.129,61.035,49.316,63.477,-67.871,0
1512881287.856,55.176,44.434,33.691,41.504,-46.875,0
1512881287.860,36.133,20.020,39.551,35.156,129.395,0
1512881287.864,35.156,21.484,37.109,34.668,132.324,0
1512881287.868,48.828,28.320,31.250,34.180,-67.871,0
1512881287.872,26.367,41.504,40.527,41.992,-90.820,0
1512881287.876,-11.230,17.578,31.250,19.043,74.707,0
1512881287.879,4.395,-3.906,8.789,21.484,158.203,0
1512881287.883,19.043,18.066,20.508,30.273,23.438,0
1512881287.887,21.973,33.203,52.246,25.391,-90.820,0
1512881287.891,37.598,31.250,35.645,44.922,38.574,0
1512881287.895,33.691,30.273,32.227,46.875,190.430,0
1512881287.899,34.180,37.109,63.477,46.875,66.406,0
1512881287.903,37.109,29.785,35.156,47.363,-87.891,0
1512881287.907,34.180,52.734,18.066,57.617,15.137,0
1512881287.911,19.043,66.406,26.855,58.105,166.504,0
1512881287.915,16.602,17.578,12.695,44.922,98.633,0
1512881287.918,24.902,-7.812,-6.348,37.598,-59.082,0
1512881287.922,18.555,2.441,12.695,22.949,-31.738,0
1512881287.926,14.160,16.602,53.711,24.902,124.023,0
1512881287.930,31.738,50.781,62.988,39.551,117.676,0
1512881287.934,54.199,47.363,68.848,55.176,-71.289,0
1512881287.938,46.387,28.809,85.449,60.059,-87.891,0
1512881287.942,14.648,31.738,27.832,32.715,72.266,0
1512881287.946,-0.977,18.066,9.277,15.625,129.883,0
1512881287.950,20.508,17.578,37.598,14.648,11.230,0
1512881287.954,23.438,11.230,8.789,17.578,-90.820,0
1512881287.958,5.371,8.789,23.926,35.645,28.809,0
1512881287.961,9.766,26.855,30.273,33.203,160.645,0
1512881287.965,36.133,42.480,49.805,44.922,25.391,0
1512881287.969,46.875,35.156,63.965,50.781,-147.461,0
1512881287.973,32.227,34.668,20.020,41.992,-72.266,0
1512881287.977,39.551,56.152,-8.301,45.898,105.957,0
1512881287.981,39.062,51.758,13.184,45.898,67.871,0
1512881287.985,21.973,20.508,58.105,39.062,-101.562,0
1512881287.989,17.090,12.207,56.641,33.691,-74.219,0
1512881287.993,14.160,3.906,44.434,38.086,63.477,0
1512881287.997,19.531,-4.883,38.086,37.598,83.008,0
1512881288.001,36.133,21.484,44.434,44.434,-48.828,0
1512881288.004,27.832,30.273,54.199,51.270,-127.441,0
1512881288.008,24.414,34.180,62.988,51.758,20.508,0
1512881288.012,21.484,41.992,49.316,43.945,121.094,0
1512881288.016,18.066,35.156,13.184,53.223,-32.227,0
1512881288.020,28.809,19.531,8.301,41.992,-159.180,0
1512881288.024,34.668,27.832,4.395,27.832,-47.363,0
1512881288.028,18.555,32.715,23.438,38.574,142.090,0
1512881288.032,14.648,11.230,55.664,41.016,97.168,0
1512881288.036,41.016,36.621,49.805,62.500,-74.219,0
1512881288.040,45.410,41.504,62.500,64.453,-41.992,0
1512881288.043,33.203,14.160,48.828,36.133,128.906,0
1512881288.047,43.945,27.832,32.715,50.781,113.281,0
1512881288.051,21.484,16.602,33.691,37.109,-45.898,0
1512881288.055,18.555,18.555,25.391,23.926,-53.223,0
1512881288.059,42.480,43.945,43.457,54.199,91.309,0
1512881288.063,30.273,41.504,57.129,58.105,145.996,0
1512881288.067,32.227,35.645,71.289,49.316,-31.738,3
1512881288.071,52.246,49.805,66.406,60.059,-110.352,0
1512881288.075,56.641,58.105,52.246,72.266,64.453,0
1512881288.079,21.973,18.066,14.160,30.273,165.039,0
1512881288.083,0.000,0.977,2.441,3.906,17.090,0
1512881288.086,9.277,20.996,24.414,24.414,-81.543,0
1512881288.090,10.742,22.461,7.812,30.273,48.340,0
1512881288.094,16.113,21.973,23.926,34.668,172.852,0
1512881288.098,32.227,21.973,64.941,42.969,96.191,0
1512881288.102,45.898,23.438,77.148,39.551,-74.707,0
1512881288.106,42.969,30.273,54.688,36.621,-41.992,0
1512881288.110,32.227,32.227,42.969,43.457,124.023,0
1512881288.114,34.180,37.598,25.391,49.316,109.375,0
1512881288.118,49.316,30.273,9.277,48.828,-34.180,0
1512881288.122,42.969,36.621,42.969,57.129,-80.566,0
1512881288.126,5.859,20.508,35.645,38.574,50.293,0
1512881288.129,6.348,16.602,30.273,15.625,129.395,0
1512881288.133,32.715,34.668,62.500,21.973,6.348,0
1512881288.137,41.504,34.180,65.918,49.316,-91.309,0
1512881288.141,32.227,26.855,45.898,53.711,27.832,0
1512881288.145,19.531,38.574,43.457,44.434,165.527,0
1512881288.149,5.859,38.086,35.645,42.480,48.828,0
1512881288.153,10.254,15.137,44.434,45.898,-90.820,0
1512881288.157,34.668,33.691,53.223,61.523,-14.160,0
1512881288.161,43.457,51.758,37.598,53.711,98.633,0
1512881288.165,18.066,14.160,6.836,24.414,68.848,0
1512881288.168,11.230,5.859,-1.953,23.926,-92.285,0
1512881288.172,33.691,38.574,40.527,41.016,-106.934,0
1512881288.176,26.855,36.133,54.199,40.039,89.844,0
1512881288.180,20.996,16.602,37.598,16.602,125.000,0
1512881288.184,43.457,22.949,25.391,23.926,-67.871,0
1512881288.188,51.270,33.691,19.043,43.945,-114.258,0
1512881288.192,41.504,31.738,23.438,41.992,51.270,0
1512881288.196,34.668,34.668,36.133,45.410,112.793,0
1512881288.200,36.621,32.227,61.035,55.176,-15.137,0
1512881288.204,61.035,46.875,66.895,87.891,-119.629,0
1512881288.208,51.270,52.246,32.715,79.590,-9.766,0
1512881288.211,22.949,42.480,26.855,44.434,141.602,0
1512881288.215,29.297,27.344,38.086,38.574,34.180,0
1512881288.219,27.344,11.230,24.902,30.273,-146.973,0
1512881288.223,12.207,6.348,22.461,31.738,-51.270,0
1512881288.227,9.277,22.949,29.785,40.527,145.020,0
1512881288.231,41.504,62.012,67.871,52.246,92.285,0
1512881288.235,60.059,49.805,58.594,46.875,-91.309,0
1512881288.239,33.691,16.602,19.531,30.762,-42.480,0
1512881288.243,-3.906,3.906,47.363,32.715,126.953,0
1512881288.247,11.719,20.996,59.570,40.527,154.785,0
1512881288.251,48.340,39.062,41.992,52.246,-2.930,0
1512881288.254,49.316,33.203,34.180,36.133,-82.031,0
1512881288.258,48.340,48.828,39.551,57.617,59.082,0
1512881288.262,42.480,59.082,47.852,84.473,142.090,0
1512881288.266,27.344,29.297,43.945,43.945,30.273,0
1512881288.270,18.066,6.348,40.527,18.555,-49.805,0
1512881288.274,27.344,24.414,46.387,49.805,54.688,0
1512881288.278,21.484,37.598,50.781,50.781,156.250,0
1512881288.282,20.996,43.457,35.156,29.297,58.594,0
1512881288.286,32.715,37.598,19.043,32.227,-57.129,0
1512881288.290,19.043,12.207,38.086,32.715,-4.883,0
1512881288.293,0.488,0.977,31.738,20.996,121.094,0
1512881288.297,7.324,21.484,22.461,31.738,105.957,0
1512881288.301,27.344,33.691,35.156,26.367,-75.195,0
1512881288.305,25.391,2.930,25.391,14.648,-116.699,0
1512881288.309,35.645,19.531,35.645,50.781,58.105,0
1512881288.313,55.176,66.895,69.824,69.336,146.484,0
1512881288.317,65.918,61.523,83.984,46.875,-11.719,0
1512881288.321,58.594,38.574,50.293,51.758,-113.281,0
1512881288.325,26.367,23.926,13.672,54.199,19.531,0
1512881288.329,13.184,50.781,16.602,40.039,132.812,0
1512881288.333,20.508,27.832,29.297,28.320,13.184,0
1512881288.336,30.762,-4.395,68.848,23.438,-134.277,0
1512881288.340,41.504,14.648,66.406,30.273,-33.203,0
1512881288.344,29.297,10.254,-1.465,30.762,149.902,0
1512881288.348,10.254,8.789,11.230,25.391,86.426,0
1512881288.352,7.324,11.719,32.715,12.207,-103.027,0
1512881288.356,24.414,30.273,37.598,29.297,-45.898,0
1512881288.360,54.199,60.547,64.453,62.012,122.559,0
1512881288.364,60.059,80.566,66.895,77.148,109.863,0
1512881288.368,44.922,78.613,57.129,69.824,-47.363,0
1512881288.372,25.879,33.203,22.949,41.992,-62.500,0
1512881288.376,15.625,14.160,13.672,36.133,92.285,0
1512881288.379,21.484,11.230,47.363,38.086,127.441,0
1512881288.383,17.578,-21.973,14.648,12.207,-41.992,0
1512881288.387,20.508,-8.301,11.719,13.672,-112.305,0
1512881288.391,33.691,21.973,57.129,41.992,28.809,0
1512881288.395,36.621,28.809,41.992,47.852,152.344,0
1512881288.399,45.898,50.293,51.270,61.035,42.969,0
1512881288.403,60.547,80.078,95.215,77.637,-91.309,0
1512881288.407,54.199,75.195,64.941,77.637,6.836,0
1512881288.411,33.691,38.574,39.551,65.918,143.555,0
1512881288.415,21.973,3.906,35.156,31.738,68.359,0
1512881288.418,14.648,5.371,13.184,18.066,-76.172,0
1512881288.422,25.879,17.578,23.926,27.832,-64.453,0
1512881288.426,32.227,20.996,41.992,40.039,98.633,0
1512881288.430,17.090,21.973,25.391,46.387,150.879,0
1512881288.434,13.184,12.695,21.973,28.809,3.906,0
1512881288.438,20.020,18.555,59.570,25.879,-66.406,0
1512881288.442,18.066,28.320,56.152,33.203,53.711,0
1512881288.446,33.691,49.805,57.617,55.176,141.113,0
1512881288.450,42.480,47.852,49.805,50.293,44.434,0
1512881288.454,24.902,17.578,23.926,25.879,-76.660,0
1512881288.458,19.531,3.906,35.645,26.855,12.695,0
1512881288.461,37.598,31.250,63.477,51.270,175.781,0
1512881288.465,51.758,47.363,41.992,64.453,81.055,0
1512881288.469,38.574,36.621,9.277,51.270,-97.656,0
1512881288.473,38.086,43.457,48.340,51.270,-24.902,0
1512881288.477,19.531,19.043,54.199,25.391,145.020,0
1512881288.481,20.020,11.719,12.207,9.277,117.676,0
1512881288.485,18.066,25.879,20.508,20.020,-77.637,0
1512881288.489,16.602,38.574,64.453,31.738,-94.238,0
1512881288.493,33.203,62.988,54.688,43.945,117.188,0
1512881288.497,19.531,38.574,25.879,33.691,177.734,0
1512881288.501,43.457,18.066,27.832,39.551,0.977,0
1512881288.504,43.457,22.461,38.086,45.898,-86.914,0
1512881288.508,6.348,35.156,56.641,40.039,87.402,0
1512881288.512,12.695,45.898,57.129,35.156,210.449,0
1512881288.516,33.203,28.320,23.926,34.180,54.199,0
1512881288.520,18.555,20.508,-13.184,30.762,-113.770,0
1512881288.524,6.836,22.949,24.902,27.832,3.418,0
1512881288.528,27.344,41.504,54.199,30.273,182.129,0
1512881288.532,48.828,71.289,55.664,45.410,120.117,0
1512881288.536,44.922,54.199,33.691,57.129,-73.242,0
1512881288.540,36.133,31.250,16.602,52.246,-47.852,0
1512881288.543,17.090,23.926,42.969,36.621,142.090,0
1512881288.547,-1.953,-1.465,42.969,15.625,116.699,0
1512881288.551,24.414,10.254,23.926,32.227,-41.992,0
1512881288.555,42.969,24.414,24.414,50.781,-46.875,0
1512881288.559,38.574,37.109,26.855,37.598,103.027,0
1512881288.563,26.855,25.391,22.461,16.113,129.395,0
1512881288.567,37.109,27.344,47.363,46.875,-16.602,4
1512881288.571,49.316,55.664,62.500,62.012,-67.383,0
1512881288.575,35.156,41.016,48.828,38.086,61.035,0
1512881288.579,14.648,18.555,22.949,25.879,124.023,0
1512881288.583,18.555,9.766,22.949,33.203,13.672,0
1512881288.586,36.621,18.555,42.480,39.551,-115.723,0
1512881288.590,20.996,22.949,39.062,30.273,-51.270,0
1512881288.594,12.207,20.020,36.133,37.598,114.258,0
1512881288.598,48.828,32.227,40.527,47.363,92.285,0
1512881288.602,59.082,44.434,53.711,38.574,-82.031,0
1512881288.606,19.531,50.293,38.574,33.203,-69.336,0
1512881288.610,28.320,57.129,47.852,50.293,114.746,0
1512881288.614,41.016,39.062,40.039,30.762,141.113,0
1512881288.618,31.250,18.555,20.996,20.508,-21.973,0
1512881288.622,9.277,-1.465,8.301,24.902,-62.500,0
1512881288.626,1.465,-10.742,-4.883,22.949,121.582,0
1512881288.629,4.883,2.930,20.508,33.203,189.941,0
1512881288.633,33.203,46.387,25.879,57.617,29.785,0
1512881288.637,57.617,62.500,24.414,71.289,-64.453,0
1512881288.641,24.902,26.855,58.105,46.875,65.430,0
1512881288.645,9.766,14.160,67.383,20.996,207.520,0
1512881288.649,10.254,17.578,49.805,15.625,69.824,0
1512881288.653,28.320,32.227,57.129,25.391,-100.098,0
1512881288.657,43.457,47.852,41.504,24.902,-15.137,0
1512881288.661,23.926,42.969,23.438,33.203,165.527,0
1512881288.665,29.785,61.523,26.367,55.664,134.766,0
1512881288.668,53.711,56.641,32.715,51.270,-9.277,0
1512881288.672,40.039,11.719,28.809,32.227,0.488,0
1512881288.676,18.066,2.930,42.969,22.461,137.207,0
1512881288.680,-3.906,-3.418,18.555,16.113,163.086,0
1512881288.684,12.207,13.184,4.395,17.578,-0.488,0
1512881288.688,48.340,44.434,50.781,43.457,-38.086,0
1512881288.692,41.016,54.199,62.988,42.969,118.164,0
1512881288.696,16.113,28.320,36.133,19.043,223.145,0
1512881288.700,18.066,15.625,23.438,38.574,99.121,0
1512881288.704,41.504,38.574,46.875,64.453,-18.066,0
1512881288.708,35.156,53.223,41.992,47.852,90.332,0
1512881288.711,31.738,45.410,21.484,39.062,207.031,0
1512881288.715,51.758,30.273,21.484,39.062,102.539,0
1512881288.719,56.641,15.625,23.438,31.738,-59.570,0
1512881288.723,29.785,7.324,35.645,27.344,6.836,0
1512881288.727,20.020,30.273,51.758,44.922,145.508,0
1512881288.731,26.855,22.461,28.809,50.293,137.207,0
1512881288.735,36.621,29.297,16.113,51.270,3.906,0
1512881288.739,59.082,64.941,62.988,78.613,-16.602,0
1512881288.743,47.852,53.711,66.406,71.289,104.980,0
1512881288.747,11.719,25.391,33.203,32.715,173.340,0
1512881288.751,33.691,44.922,56.641,51.270,45.898,0
1512881288.754,38.086,48.340,37.109,52.246,-65.430,0
1512881288.758,15.625,25.879,-16.602,23.438,78.613,0
1512881288.762,23.438,29.297,-10.742,13.672,176.270,0
1512881288.766,25.879,19.531,26.367,4.395,49.316,0
1512881288.770,21.973,15.137,34.180,26.367,-86.914,0
1512881288.774,19.043,19.043,40.527,37.598,9.766,0
1512881288.778,13.184,14.648,50.293,24.902,197.266,0
1512881288.782,29.785,28.809,62.988,47.363,122.559,0
1512881288.786,36.621,34.180,47.363,53.711,-31.738,0
1512881288.790,22.949,30.762,35.156,37.598,9.766,0
1512881288.793,24.414,38.086,41.992,34.668,180.176,0
1512881288.797,40.039,37.598,42.480,40.039,173.340,0
1512881288.801,59.082,40.039,45.898,46.387,-20.020,0
1512881288.805,40.039,60.547,24.414,54.199,-20.020,0
1512881288.809,14.160,50.293,8.301,59.082,160.645,0
1512881288.813,15.625,22.461,50.293,36.621,176.270,0
1512881288.817,15.625,-2.441,65.430,9.277,4.883,0
1512881288.821,15.137,-11.719,20.508,22.461,-69.336,0
1512881288.825,17.578,5.371,13.184,24.902,97.168,0
1512881288.829,17.090,10.742,41.992,20.020,219.727,0
1512881288.833,32.715,21.484,34.180,25.879,89.844,0
1512881288.836,43.945,37.598,31.738,35.645,-50.293,0
1512881288.840,24.414,37.109,46.875,37.598,27.344,0
1512881288.844,1.465,14.648,32.227,6.836,220.215,0
1512881288.848,27.344,32.227,37.598,15.625,161.133,0
1512881288.852,49.805,63.965,60.059,41.504,-32.227,0
1512881288.856,30.273,61.523,50.293,43.945,-8.301,0
1512881288.860,19.531,33.203,44.434,43.457,162.598,0
1512881288.864,30.273,23.926,40.039,39.551,168.945,0
1512881288.868,26.855,24.902,14.160,29.297,-4.395,0
1512881288.872,14.648,7.812,0.977,9.766,-52.734,0
1512881288.876,18.066,19.531,21.973,-0.488,97.656,0
1512881288.879,16.113,28.320,39.062,-3.906,155.762,0
1512881288.883,29.297,14.160,28.809,10.254,32.715,0
1512881288.887,38.086,28.809,38.086,31.250,-78.613,0
1512881288.891,16.602,33.203,62.012,36.621,15.137,0
1512881288.895,17.090,42.969,41.992,38.086,165.527,0
1512881288.899,32.227,51.270,33.203,34.668,80.566,0
1512881288.903,25.879,22.949,16.602,24.902,-71.289,0
1512881288.907,32.715,46.875,3.906,34.180,-22.949,0
1512881288.911,30.273,62.012,34.180,44.434,151.855,0
1512881288.915,18.555,21.973,48.828,30.273,157.715,0
1512881288.918,35.645,16.113,42.969,26.855,-20.020,0
1512881288.922,45.410,32.227,45.898,40.039,-64.453,0
1512881288.926,43.945,51.270,54.199,55.176,117.676,0
1512881288.930,56.152,56.152,48.828,63.477,162.598,0
1512881288.934,39.062,32.227,39.551,31.250,-39.551,0
1512881288.938,-7.812,-5.859,5.859,-0.977,-86.914,0
1512881288.942,-33.203,-22.949,13.672,-8.789,92.285,0
1512881288.946,-10.254,6.836,35.156,25.879,204.102,0
1512881288.950,37.109,58.105,15.137,62.500,50.781,0
1512881288.954,52.246,68.359,31.738,49.316,-81.543,0
1512881288.958,23.926,30.762,62.500,41.016,74.219,0
1512881288.961,33.203,45.898,76.172,57.129,215.332,0
1512881288.965,41.016,46.387,46.875,46.875,100.586,0
1512881288.969,38.086,14.160,23.926,33.691,-99.609,0
1512881288.973,37.109,23.926,54.688,39.062,-41.992,0
1512881288.977,13.184,20.996,38.574,31.250,159.668,0
1512881288.981,28.320,12.207,25.391,49.805,99.609,0
1512881288.985,52.734,25.391,46.387,64.453,-91.309,0
1512881288.989,51.758,46.875,29.297,64.941,-60.059,0
1512881288.993,18.066,36.133,10.254,39.062,132.324,0
1512881288.997,17.090,17.090,9.277,27.832,151.855,0
1512881289.001,39.551,31.738,18.555,38.574,-54.688,0
1512881289.004,43.457,54.199,46.387,37.109,-102.051,0
1512881289.008,32.227,38.574,68.359,37.598,43.457,0
1512881289.012,24.902,29.785,58.105,43.945,111.816,0
1512881289.016,24.902,11.719,37.109,31.250,10.254,0
1512881289.020,19.531,-5.371,43.945,26.855,-126.953,0
1512881289.024,26.855,40.039,55.664,39.062,-42.480,0
1512881289.028,41.016,55.176,61.523,45.410,104.492,0
1512881289.032,27.344,6.836,29.297,15.137,37.598,0
1512881289.036,25.879,26.855,13.672,17.090,-119.141,0
1512881289.040,25.391,35.156,-0.488,42.480,-87.402,0
1512881289.043,20.020,25.879,17.090,39.551,85.938,0
1512881289.047,21.484,39.551,30.273,18.555,88.379,0
1512881289.051,25.879,19.531,30.762,24.414,-99.609,0
1512881289.055,27.344,20.508,51.758,37.598,-143.066,0
1512881289.059,33.203,34.180,50.293,48.828,8.301,0
1512881289.063,34.668,32.227,49.805,52.734,109.863,0
1512881289.067,38.574,37.598,49.805,42.969,-20.996,5
1512881289.071,41.504,37.598,54.688,42.480,-159.668,0
1512881289.075,24.414,35.156,51.270,41.504,-40.039,0
1512881289.079,12.207,37.598,19.043,36.133,120.117,0
1512881289.083,25.879,16.113,-9.277,10.742,20.020,0
1512881289.086,44.434,7.812,18.555,8.301,-122.559,0
1512881289.090,32.227,18.066,30.762,17.578,-62.012,0
1512881289.094,23.438,29.297,41.504,33.203,72.754,0
1512881289.098,46.387,43.945,61.035,55.176,32.227,0
1512881289.102,68.359,34.180,67.871,60.547,-132.324,0
1512881289.106,43.945,26.367,83.984,50.781,-108.887,0
1512881289.110,6.836,25.879,62.500,46.875,76.660,0
1512881289.114,7.324,11.719,-13.184,48.828,106.934,0
1512881289.118,33.691,23.926,-8.789,47.363,-105.957,0
1512881289.122,45.410,35.156,40.527,52.734,-142.090,0
1512881289.126,23.438,25.879,39.062,52.246,56.641,0
1512881289.129,5.859,10.254,36.133,27.344,90.332,0
1512881289.133,33.203,22.461,63.965,25.879,-73.730,0
1512881289.137,56.641,60.547,83.496,50.293,-136.719,0
1512881289.141,30.273,36.133,70.801,47.363,-7.812,0
1512881289.145,20.996,0.977,46.875,24.414,103.516,0
1512881289.149,35.645,14.160,19.531,35.645,-8.301,0
1512881289.153,39.062,26.367,14.160,62.012,-159.668,0
1512881289.157,32.227,31.738,11.719,55.176,-64.941,0
1512881289.161,29.297,34.180,19.043,40.527,94.727,0
1512881289.165,20.020,15.625,45.898,24.414,62.012,0
1512881289.168,32.227,28.809,39.062,28.320,-84.473,0
1512881289.172,51.758,62.012,26.367,53.711,-93.750,0
1512881289.176,38.574,36.133,53.223,54.688,76.172,0
1512881289.180,29.297,13.672,54.199,36.133,104.980,0
1512881289.184,28.320,16.602,33.203,38.086,-77.637,0
1512881289.188,20.508,36.133,23.438,50.293,-125.488,0
1512881289.192,14.160,30.762,5.859,41.504,24.414,0
1512881289.196,36.133,15.625,37.109,43.457,107.910,0
1512881289.200,35.156,19.531,57.129,31.250,-27.832,0
1512881289.204,27.832,32.227,36.133,34.668,-157.715,0
1512881289.208,48.828,63.477,51.758,82.031,-48.340,0
1512881289.211,42.969,40.039,48.828,71.289,123.047,0
1512881289.215,46.875,40.527,48.828,62.500,49.316,0
1512881289.219,57.617,64.453,56.641,70.801,-110.840,0
1512881289.223,32.715,34.668,26.855,38.086,-50.781,0
1512881289.227,26.855,15.137,36.133,36.133,130.371,0
1512881289.231,29.785,-2.930,33.691,20.996,97.168,0
1512881289.235,36.621,7.324,9.766,17.090,-72.754,0
1512881289.239,30.762,33.691,15.137,48.828,-83.496,0
1512881289.243,32.715,38.086,19.531,62.500,103.516,0
1512881289.247,57.617,34.668,41.016,65.918,178.223,0
1512881289.251,60.547,35.156,50.781,67.383,-6.836,0
1512881289.254,36.133,51.758,41.016,48.340,-86.426,0
1512881289.258,42.969,60.059,40.039,47.852,77.637,0
1512881289.262,49.316,40.527,53.711,58.594,163.086,0
1512881289.266,40.527,33.203,68.359,49.805,26.855,0
1512881289.270,46.387,38.574,61.035,42.969,-110.352,0
1512881289.274,39.062,23.926,41.992,39.062,-9.277,0
1512881289.278,28.809,17.578,21.484,25.879,142.578,0
1512881289.282,21.973,24.902,4.395,18.555,70.801,0
1512881289.286,21.484,21.484,2.441,31.250,-106.445,0
1512881289.290,4.883,0.000,-21.973,18.555,-79.590,0
1512881289.293,18.066,13.184,-6.836,20.020,96.680,0
1512881289.297,43.457,27.832,51.758,32.715,70.312,0
1512881289.301,40.039,26.855,70.801,31.738,-93.262,0
1512881289.305,30.273,35.156,74.707,41.992,-108.398,0
1512881289.309,9.277,20.996,58.105,43.945,22.949,0
1512881289.313,16.602,19.043,31.738,46.875,81.543,0
1512881289.317,34.180,26.855,36.621,56.641,-47.852,0
1512881289.321,32.715,25.391,30.273,34.668,-131.348,0
1512881289.325,19.043,37.598,41.016,7.812,-37.109,0
1512881289.329,-1.953,25.391,39.062,4.883,99.609,0
1512881289.333,20.508,10.742,17.090,14.160,43.945,0
1512881289.336,28.809,4.395,17.578,17.090,-144.531,0
1512881289.340,17.578,12.207,35.645,20.508,-79.590,0
1512881289.344,25.391,19.531,30.762,26.367,120.605,0
1512881289.348,30.762,10.742,45.898,20.996,92.285,0
1512881289.352,31.738,29.785,49.805,28.320,-71.777,0
1512881289.356,18.555,27.344,16.113,36.133,-84.473,0
1512881289.360,24.902,36.133,16.113,29.297,84.961,0
1512881289.364,29.297,42.480,31.738,23.438,106.934,0
1512881289.368,13.184,14.648,42.480,19.531,-71.289,0
1512881289.372,36.133,19.043,62.500,31.250,-108.887,0
1512881289.376,41.016,29.297,47.363,41.992,11.719,0
1512881289.379,31.738,42.969,34.180,43.457,84.961,0
1512881289.383,39.062,51.758,30.273,33.691,-33.203,0
1512881289.387,39.062,26.367,20.996,24.902,-145.508,0
1512881289.391,18.066,-1.465,27.832,37.598,4.883,0
1512881289.395,6.836,10.742,37.109,36.133,144.043,0
1512881289.399,21.484,15.137,53.223,28.320,55.664,0
1512881289.403,31.250,29.297,66.406,45.898,-91.309,0
1512881289.407,26.855,39.551,49.805,39.062,-39.062,0
1512881289.411,1.465,1.465,11.230,20.020,90.820,0
1512881289.415,14.648,9.277,21.484,33.691,48.340,0
1512881289.418,50.293,36.133,19.043,53.223,-61.523,0
1512881289.422,54.199,39.551,46.875,72.266,-85.449,0
1512881289.426,39.551,44.922,88.379,75.195,24.414,0
1512881289.430,44.434,52.246,62.988,53.223,37.598,0
1512881289.434,44.434,30.762,49.316,13.184,-84.473,0
1512881289.438,33.691,20.996,14.160,18.555,-113.770,0
1512881289.442,24.902,28.320,5.859,42.480,-45.898,0
1512881289.446,6.836,22.949,29.785,31.250,2.441,0
1512881289.450,39.062,19.531,40.039,34.668,-114.258,0
1512881289.454,73.242,42.480,51.758,51.758,-187.988,0
1512881289.458,42.480,50.293,30.273,53.711,-40.039,0
1512881289.461,16.113,17.090,25.879,44.434,43.457,0
1512881289.465,29.785,19.043,41.504,43.945,-62.012,0
1512881289.469,38.574,31.738,59.570,53.711,-112.793,0
1512881289.473,31.250,25.879,59.570,55.176,-76.172,0
1512881289.477,13.672,24.902,38.574,40.527,-8.789,0
1512881289.481,21.484,32.715,53.711,31.250,-43.945,0
1512881289.485,51.270,33.203,27.832,30.273,-102.539,0
1512881289.489,43.457,34.668,-6.348,44.922,-121.582,0
1512881289.493,34.180,38.086,27.832,62.500,-110.840,0
1512881289.497,39.551,30.273,72.754,67.871,-20.020,0
1512881289.501,32.227,24.414,64.453,56.641,-46.387,0
1512881289.504,50.781,32.227,38.086,47.852,-76.660,0
1512881289.508,60.547,46.875,38.086,52.734,-6.836,0
1512881289.512,24.414,17.578,29.785,25.879,14.648,0
1512881289.516,13.184,11.230,46.387,27.832,-23.926,0
1512881289.520,37.109,39.551,19.531,52.246,-52.246,0
1512881289.524,21.484,45.898,-15.625,30.273,-68.848,0
1512881289.528,18.555,45.898,-20.996,29.785,-66.895,0
1512881289.532,41.504,27.832,30.762,43.945,-35.156,0
1512881289.536,67.871,42.969,111.816,47.363,-63.477,0
1512881289.540,50.781,42.480,85.938,40.039,-38.086,0
1512881289.543,7.324,25.391,40.527,27.344,50.781,0
1512881289.547,16.602,27.344,0.000,30.273,7.324,0
1512881289.551,32.715,34.180,-9.766,46.387,-44.922,0
1512881289.555,35.645,35.645,30.762,46.387,-45.410,0
1512881289.559,30.762,24.414,39.062,39.551,-9.766,0
1512881289.563,20.996,10.742,25.879,41.016,36.133,0
1512881289.567,31.738,24.902,37.598,48.340,13.184,0
1512881289.571,52.246,62.012,57.129,50.293,-11.230,0
1512881289.575,39.551,59.570,52.246,41.992,-6.348,0
1512881289.579,26.367,21.484,49.316,41.504,-0.488,0
1512881289.583,29.785,13.672,42.480,29.297,-27.344,0
1512881289.586,24.414,12.207,18.555,5.859,-39.551,0
1512881289.590,17.090,-10.254,12.207,2.930,-6.836,0
1512881289.594,17.578,15.137,12.695,34.668,7.324,0
1512881289.598,20.508,31.738,13.184,46.875,-7.324,0
1512881289.602,32.227,32.715,52.734,26.855,-47.363,0
1512881289.606,32.715,48.340,73.730,44.922,-53.711,0
1512881289.610,11.719,40.527,58.105,48.828,-5.371,0
1512881289.614,16.602,34.180,34.668,30.273,16.113,0
1512881289.618,36.621,45.410,33.691,38.086,-32.715,0
1512881289.622,44.434,49.316,67.871,56.641,-18.066,0
1512881289.626,34.668,34.180,60.059,63.965,20.996,0
1512881289.629,15.137,9.277,41.504,55.664,10.254,0
1512881289.633,5.371,4.883,31.738,32.227,-14.160,0
1512881289.637,10.742,5.859,23.926,11.719,-44.434,0
1512881289.641,5.859,9.277,29.785,18.555,-52.246,0
1512881289.645,9.766,27.832,23.438,36.621,7.812,0
1512881289.649,22.461,27.344,25.391,40.039,33.203,0
1512881289.653,26.855,28.320,38.574,44.922,-12.695,0
1512881289.657,31.250,37.598,30.273,48.828,16.602,0
1512881289.661,19.531,14.160,25.391,41.504,16.602,0
1512881289.665,18.555,8.789,39.062,24.902,-34.180,0
1512881289.668,33.691,22.949,55.176,15.625,-4.883,0
1512881289.672,32.715,7.324,43.945,27.344,42.969,0
1512881289.676,17.090,19.043,40.039,36.133,54.688,0
1512881289.680,10.742,32.715,47.363,42.480,46.875,0
1512881289.684,31.250,38.574,41.504,43.457,0.977,0
1512881289.688,69.824,64.453,66.406,73.242,-22.461,0
1512881289.692,45.898,54.199,51.270,69.336,24.414,0
1512881289.696,17.578,20.020,-5.859,32.715,40.527,0
1512881289.700,24.902,16.113,4.395,23.926,16.113,0
1512881289.704,21.484,12.207,27.832,11.719,1.465,0
1512881289.708,28.320,17.578,20.508,20.020,28.320,0
1512881289.711,32.715,41.992,28.320,26.367,27.832,0
1512881289.715,23.926,52.246,37.598,14.648,9.277,0
1512881289.719,20.996,31.250,41.016,18.066,-5.371,0
1512881289.723,34.180,32.715,57.129,37.109,-31.738,0
1512881289.727,40.527,41.992,57.617,32.715,-34.668,0
1512881289.731,29.297,40.039,17.090,23.438,-20.020,0
1512881289.735,43.945,44.434,0.000,35.156,-22.461,0
1512881289.739,50.781,33.691,21.973,51.270,35.156,0
1512881289.743,32.715,21.484,39.551,27.344,58.105,0
1512881289.747,46.387,37.598,49.805,31.738,6.836,0
1512881289.751,68.359,49.316,37.598,71.777,-10.254,0
1512881289.754,49.316,36.621,27.344,57.129,27.832,0
1512881289.758,23.438,29.785,19.531,42.480,31.250,0
1512881289.762,44.922,59.082,20.020,61.035,42.969,0
1512881289.766,56.641,60.547,16.113,55.176,30.762,0
1512881289.770,42.969,33.691,33.203,39.062,-33.691,0
1512881289.774,30.762,18.555,57.129,31.738,1.953,0
1512881289.778,15.625,7.324,41.504,18.066,21.973,0
1512881289.782,28.320,22.461,29.297,23.926,44.434,0
1512881289.786,56.641,34.180,43.945,43.945,13.672,0
1512881289.790,39.062,34.668,54.688,49.805,-41.992,0
1512881289.793,10.254,19.531,37.598,28.809,16.602,0
1512881289.797,19.043,25.879,0.977,14.160,26.855,0
1512881289.801,29.785,38.574,-16.602,21.973,12.207,0
1512881289.805,30.762,30.762,16.602,34.668,4.883,0
1512881289.809,25.879,19.043,50.781,50.293,12.207,0
1512881289.813,14.648,0.977,42.480,37.598,-18.066,0
1512881289.817,35.156,31.250,60.547,39.062,-34.668,0
1512881289.821,62.988,67.383,68.848,51.270,0.000,0
1512881289.825,51.270,53.223,61.523,45.898,44.922,0
1512881289.829,29.297,30.273,43.945,40.527,81.055,0
1512881289.833,30.273,31.250,4.883,53.223,57.617,0
1512881289.836,30.762,22.461,10.742,37.109,-11.719,0
1512881289.840,28.320,22.949,42.480,21.973,-20.508,0
1512881289.844,16.113,17.578,15.625,18.555,11.719,0
1512881289.848,2.441,-1.465,11.230,11.230,8.301,0
1512881289.852,12.207,7.324,36.133,22.461,44.434,0
1512881289.856,29.297,41.504,53.711,39.551,26.367,0
1512881289.860,42.480,54.199,83.984,61.035,-33.691,0
1512881289.864,24.414,37.598,67.871,57.129,32.715,0
1512881289.868,9.766,17.578,25.879,38.086,80.566,0
1512881289.872,15.625,3.906,7.812,20.508,57.617,0
1512881289.876,35.156,21.973,31.250,39.062,42.480,0
1512881289.879,34.180,35.645,37.598,48.340,35.156,0
1512881289.883,34.668,31.738,33.203,33.691,62.012,0
1512881289.887,26.855,27.344,63.477,31.250,52.734,0
1512881289.891,10.742,22.949,59.570,26.367,49.805,0
1512881289.895,39.551,37.598,44.922,35.645,28.320,0
1512881289.899,66.895,53.223,51.270,46.387,-4.883,0
1512881289.903,39.062,59.082,30.762,45.898,-1.465,0
1512881289.907,11.230,48.828,9.766,28.809,28.809,0
1512881289.911,2.441,17.578,28.320,15.625,47.852,0
1512881289.915,17.090,9.766,40.039,7.812,4.883,0
1512881289.918,47.363,24.414,49.805,25.391,14.648,0
1512881289.922,36.621,36.133,38.086,42.480,0.000,0
1512881289.926,19.043,22.949,0.977,30.762,-11.230,0
1512881289.930,29.785,32.227,14.160,26.855,28.809,0
1512881289.934,31.738,33.691,32.715,31.738,39.062,0
1512881289.938,25.391,29.297,18.555,38.574,48.340,0
1512881289.942,33.203,41.992,22.461,53.223,51.758,0
1512881289.946,39.062,59.082,46.875,45.898,57.617,0
1512881289.950,42.969,60.059,57.129,41.504,63.965,0
1512881289.954,40.039,26.367,57.617,35.156,5.371,0
1512881289.958,23.926,9.277,44.434,17.090,-19.531,0
1512881289.961,7.812,-0.977,24.902,13.184,15.137,0
1512881289.965,18.555,11.719,7.324,13.184,-19.531,0
1512881289.969,46.387,45.410,20.996,22.949,8.789,0
1512881289.973,47.363,46.387,17.090,39.551,56.152,0
1512881289.977,24.414,31.738,13.672,45.898,22.461,0
1512881289.981,18.555,36.621,63.965,47.852,40.527,0
1512881289.985,27.832,33.203,39.062,31.250,34.180,0
1512881289.989,39.062,43.945,7.812,43.457,16.602,0
1512881289.993,36.133,43.457,62.988,56.641,81.055,0
1512881289.997,26.855,25.391,77.148,44.434,79.590,0
1512881290.001,19.531,33.691,36.133,38.574,-0.488,0
1512881290.004,10.742,24.902,22.949,29.297,-10.254,0
1512881290.008,8.789,8.789,11.719,30.273,9.277,0
1512881290.012,24.902,22.949,4.883,23.926,10.254,0
1512881290.016,33.203,35.156,7.324,12.695,42.480,0
1512881290.020,35.156,35.156,18.066,30.762,5.371,0
1512881290.024,25.391,26.367,36.621,44.922,-18.555,0
1512881290.028,33.203,49.316,31.250,44.434,39.062,0
1512881290.032,45.898,62.012,21.484,45.410,34.180,0
1512881290.036,26.855,16.113,25.391,33.203,-17.090,0
1512881290.040,20.508,16.602,56.641,36.621,-31.738,0
1512881290.043,25.879,41.992,26.367,43.945,31.738,0
1512881290.047,30.762,21.973,1.953,38.086,73.730,0
1512881290.051,20.020,6.836,31.738,18.066,88.379,0
1512881290.055,10.254,2.441,34.668,4.883,37.598,0
1512881290.059,10.742,26.367,22.949,10.742,16.113,0
1512881290.063,21.973,46.387,20.020,19.043,54.688,0
1512881290.067,43.945,29.785,43.945,26.855,19.043,0
1512881290.071,40.527,21.484,46.875,24.902,12.695,0
1512881290.075,14.648,12.695,23.438,18.066,37.109,0
1512881290.079,8.789,13.672,16.113,40.039,37.109,0
1512881290.083,36.621,43.945,43.457,61.035,33.691,0
1512881290.086,28.320,43.945,67.383,29.297,34.668,0
1512881290.090,24.902,39.551,50.781,37.109,28.320,0
1512881290.094,38.574,55.176,19.531,53.223,45.898,0
1512881290.098,43.457,54.688,46.875,35.156,23.438,0
1512881290.102,33.691,31.250,60.547,31.738,-41.016,0
1512881290.106,13.672,15.137,38.574,33.203,-24.902,0
1512881290.110,3.418,12.207,29.297,24.414,5.859,0
1512881290.114,0.488,2.441,19.043,13.184,29.297,0
1512881290.118,8.301,-4.883,30.762,14.648,25.879,0
1512881290.122,18.555,3.906,20.996,17.090,-18.066,0
1512881290.126,36.621,26.855,12.695,23.438,-0.488,0
1512881290.129,33.691,39.062,28.320,23.438,32.715,0
1512881290.133,27.832,48.340,56.152,30.273,61.523,0
1512881290.137,39.062,50.293,38.086,30.762,48.340,0
1512881290.141,29.297,17.578,12.207,13.184,0.977,0
1512881290.145,9.766,23.438,34.668,11.719,48.828,0
1512881290.149,24.902,54.688,29.297,17.090,58.105,0
1512881290.153,40.527,33.691,9.277,25.391,4.395,0
1512881290.157,24.902,8.301,21.973,46.875,20.020,0
1512881290.161,13.184,12.207,52.246,47.363,41.016,0
1512881290.165,7.812,14.160,45.410,12.695,25.879,0
1512881290.168,7.812,16.113,9.277,19.043,-8.301,0
1512881290.172,10.254,25.879,22.461,40.039,-37.109,0
1512881290.176,31.738,41.992,77.637,52.246,-28.320,0
1512881290.180,44.434,29.297,67.383,40.527,-37.598,0
1512881290.184,27.344,20.508,23.926,8.789,-45.410,0
1512881290.188,19.043,26.855,13.672,9.766,-31.250,0
1512881290.192,21.973,13.672,41.504,0.000,-62.500,0
1512881290.196,27.344,32.715,50.293,9.277,-35.645,0
1512881290.200,37.109,41.504,-2.930,45.410,-8.789,0
1512881290.204,16.602,19.043,-11.230,26.367,9.277,0
1512881290.208,7.324,33.691,20.508,18.066,65.918,0
1512881290.211,15.137,29.297,26.855,32.227,74.707,0
1512881290.215,18.555,19.531,39.551,32.715,17.090,0
1512881290.219,17.090,21.973,56.641,27.344,-47.363,0
1512881290.223,13.184,20.996,35.156,17.578,-62.500,0
1512881290.227,23.438,47.852,36.621,23.926,2.930,0
1512881290.231,38.574,54.199,54.199,27.344,28.320,0
1512881290.235,29.297,11.719,20.996,14.160,-11.230,0
1512881290.239,10.254,-7.812,-2.930,-3.418,-20.020,0
1512881290.243,6.836,6.348,13.184,2.930,-1.953,0
1512881290.247,8.789,31.250,15.137,13.184,-33.203,0
1512881290.251,33.691,40.527,11.719,29.785,-27.344,0
1512881290.254,29.785,21.484,19.531,45.898,20.020,0
1512881290.258,17.090,23.926,24.902,45.410,29.297,0
1512881290.262,37.598,42.480,25.879,40.039,65.430,0
1512881290.266,46.387,54.199,28.320,34.180,41.504,0
1512881290.270,40.527,36.621,74.707,36.621,8.789,0
1512881290.274,33.691,28.320,85.938,43.457,32.715,0
1512881290.278,32.227,28.809,40.039,33.691,40.527,0
1512881290.282,12.695,15.137,27.832,17.578,55.176,0
1512881290.286,-4.883,5.859,24.902,5.371,24.414,0
1512881290.290,19.043,29.297,13.672,25.879,-7.324,0
1512881290.293,23.438,35.156,20.996,46.875,-0.488,0
1512881290.297,9.766,17.578,21.484,35.156,-22.461,0
1512881290.301,40.039,20.020,18.066,26.367,-22.949,0
1512881290.305,49.316,31.738,26.367,33.691,1.953,0
1512881290.309,40.039,56.641,30.273,57.129,0.000,0
1512881290.313,32.227,54.199,45.898,58.105,7.812,0
1512881290.317,31.738,22.461,45.898,34.668,2.441,0
1512881290.321,23.438,3.418,10.742,22.949,1.953,0
1512881290.325,13.184,19.043,8.789,18.066,-6.348,0
1512881290.329,24.902,32.227,34.668,22.461,-12.695,0
1512881290.333,39.062,12.207,44.434,31.250,-4.883,0
1512881290.336,29.297,25.879,32.227,35.156,19.043,0
1512881290.340,9.277,48.340,36.133,39.062,-26.855,0
1512881290.344,25.391,41.504,58.105,50.293,-86.426,0
1512881290.348,32.227,36.133,49.805,54.199,-35.645,0
1512881290.352,16.113,11.230,23.926,15.625,-5.371,0
1512881290.356,9.277,0.488,19.043,-0.488,-18.066,0
1512881290.360,16.113,13.672,2.930,23.438,-8.789,0
1512881290.364,38.086,35.156,13.672,35.156,16.113,0
1512881290.368,35.645,13.184,15.625,24.902,-28.320,0
1512881290.372,21.973,0.977,-15.625,9.277,-42.480,0
1512881290.376,20.996,36.133,2.441,23.438,-8.301,0
1512881290.379,32.715,51.758,52.246,43.457,-10.254,0
1512881290.383,60.059,57.129,73.730,36.621,33.691,0
1512881290.387,56.641,41.992,47.363,30.762,40.527,0
1512881290.391,7.812,-5.371,9.766,14.648,31.250,0
1512881290.395,-8.789,-23.438,20.020,-1.953,27.832,0
1512881290.399,24.902,-0.977,38.574,22.949,48.340,0
1512881290.403,42.480,18.555,35.645,37.109,49.316,0
1512881290.407,43.945,36.621,39.551,51.758,29.785,0
1512881290.411,31.738,33.691,45.898,45.410,75.684,0
1512881290.415,20.508,23.438,43.945,14.648,36.621,0
1512881290.418,33.203,41.992,42.969,37.598,46.875,0
1512881290.422,35.645,55.664,34.668,69.824,49.805,0
1512881290.426,5.859,29.785,13.184,36.621,35.645,0
1512881290.430,-8.789,-2.930,9.766,5.371,102.051,0
1512881290.434,15.625,-3.906,20.996,9.766,29.297,0
1512881290.438,26.367,3.418,27.832,16.602,11.719,0
1512881290.442,15.137,15.137,39.551,27.832,42.969,0
1512881290.446,3.418,22.949,21.973,25.391,46.387,0
1512881290.450,24.902,20.508,11.230,30.273,56.641,0
1512881290.454,27.344,9.277,37.109,34.180,-0.977,0
1512881290.458,14.160,8.789,33.691,36.621,-13.184,0
1512881290.461,36.133,47.363,45.898,54.688,11.230,0
1512881290.465,32.227,41.504,62.500,41.504,62.012,0
1512881290.469,15.137,4.395,59.082,38.086,39.551,0
1512881290.473,29.297,23.926,52.734,41.504,-13.672,0
1512881290.477,26.855,28.320,26.855,26.855,12.207,0
1512881290.481,15.625,1.953,15.625,24.414,25.391,0
1512881290.485,31.250,18.066,22.461,16.602,-29.297,0
1512881290.489,27.344,21.973,33.203,-2.930,1.465,0
1512881290.493,10.742,20.020,37.598,13.184,57.129,0
1512881290.497,28.809,39.551,22.461,29.297,76.660,0
1512881290.501,35.156,48.340,32.715,38.574,27.344,0
1512881290.504,14.160,22.461,41.016,37.109,0.977,0
1512881290.508,-0.977,0.000,14.648,25.391,18.066,0
1512881290.512,-0.977,17.090,17.578,28.320,-19.531,0
1512881290.516,19.043,14.648,41.992,20.996,-43.945,0
1512881290.520,42.480,28.320,56.152,35.645,13.184,0
1512881290.524,42.969,39.062,54.199,44.434,31.738,0
1512881290.528,30.273,22.461,41.504,38.574,37.598,0
1512881290.532,53.223,43.457,50.781,56.641,3.906,0
1512881290.536,65.918,59.570,36.133,56.641,-32.715,0
1512881290.540,32.227,32.227,44.434,24.902,-16.602,0
1512881290.543,9.277,-6.836,21.973,-16.602,60.547,0
1512881290.547,26.367,6.348,0.000,4.883,50.293,0
1512881290.551,25.879,24.902,29.297,45.410,24.414,0
1512881290.555,18.066,11.719,46.387,41.992,10.742,0
1512881290.559,23.926,18.066,48.828,53.711,3.906,0
1512881290.563,32.715,37.109,46.875,63.477,17.578,0
1512881290.567,56.152,54.688,44.434,56.152,15.137,0
1512881290.571,65.918,53.223,70.312,66.406,11.719,0
1512881290.575,45.410,34.668,62.500,57.129,-39.551,0
1512881290.579,29.785,17.090,19.043,24.902,20.508,0
1512881290.583,24.414,11.230,0.977,26.855,70.312,0
1512881290.586,24.902,19.043,5.859,39.062,8.301,0
1512881290.590,25.879,20.020,20.508,46.387,-21.484,0
1512881290.594,38.086,47.363,45.898,67.871,4.395,0
1512881290.598,64.453,75.195,56.152,73.730,-5.371,0
1512881290.602,60.547,40.527,48.828,45.410,-9.766,0
1512881290.606,32.227,46.875,40.039,29.785,40.527,0
1512881290.610,25.879,67.871,42.969,21.973,49.316,0
1512881290.614,26.367,16.113,24.902,-2.441,41.504,0
1512881290.618,22.949,-4.395,32.227,5.859,21.484,0
1512881290.622,17.578,3.906,42.480,27.832,-24.414,0
1512881290.626,27.832,16.602,42.480,31.250,-26.855,0
1512881290.629,28.320,40.039,53.223,28.320,-19.043,0
1512881290.633,27.832,34.180,19.043,23.438,28.809,0
1512881290.637,38.574,38.086,0.000,31.738,20.996,0
1512881290.641,41.992,61.523,24.902,51.270,-16.113,0
1512881290.645,36.621,55.176,33.203,59.082,9.766,0
1512881290.649,38.086,34.180,32.715,43.457,7.812,0
1512881290.653,46.875,16.602,60.547,18.066,18.066,0
1512881290.657,14.160,25.391,63.477,24.902,61.035,0
1512881290.661,0.488,24.414,36.133,31.738,22.461,0
1512881290.665,22.949,16.113,12.695,6.836,-6.836,0
1512881290.668,33.691,28.320,37.109,17.578,-2.441,0
1512881290.672,22.949,26.855,58.105,37.598,41.504,0
1512881290.676,28.320,50.293,50.293,59.082,62.012,0
1512881290.680,39.062,70.801,20.508,55.664,46.875,0
1512881290.684,30.273,32.227,-4.883,27.344,41.992,0
1512881290.688,10.742,8.301,26.367,19.043,10.254,0
1512881290.692,-2.930,3.418,40.527,19.531,-1.465,0
1512881290.696,10.254,9.766,31.250,38.086,26.367,0
1512881290.700,41.016,62.012,22.949,57.617,36.621,0
1512881290.704,40.527,65.430,22.461,48.828,-2.441,0
1512881290.708,29.785,36.133,55.176,50.781,3.418,0
1512881290.711,20.996,30.273,60.547,46.387,43.945,0
1512881290.715,27.832,36.133,28.320,48.828,56.641,0
1512881290.719,30.273,45.410,30.762,63.965,57.617,0
1512881290.723,19.531,16.602,36.133,25.879,4.395,0
1512881290.727,27.344,20.020,46.875,15.625,13.184,0
1512881290.731,14.648,34.180,68.848,27.832,30.762,0
1512881290.735,5.371,18.555,27.832,22.949,32.227,0
1512881290.739,31.250,38.086,37.598,48.828,63.965,0
1512881290.743,27.832,60.547,54.688,49.316,48.340,0
1512881290.747,15.137,40.527,13.672,17.090,48.828,0
1512881290.751,27.344,4.395,20.508,7.324,66.895,0
1512881290.754,37.598,14.160,20.020,31.250,61.523,0
1512881290.758,30.273,20.996,26.855,32.715,49.316,0
1512881290.762,21.973,23.926,39.062,34.180,56.641,0
1512881290.766,32.227,32.227,48.828,36.621,68.848,0
1512881290.770,41.016,25.879,68.359,43.457,25.391,0
1512881290.774,28.809,31.738,41.504,57.129,46.387,0
1512881290.778,52.246,52.246,40.039,76.660,84.961,0
1512881290.782,61.035,39.551,45.410,54.199,73.242,0
1512881290.786,39.062,20.020,20.508,20.996,35.156,0
1512881290.790,30.273,25.879,39.062,31.738,27.344,0
1512881290.793,8.301,29.297,37.598,27.344,71.289,0
1512881290.797,11.230,38.574,-13.184,35.156,46.875,0
1512881290.801,27.832,25.391,-0.488,52.246,89.355,0
1512881290.805,17.090,6.348,71.777,25.391,55.176,0
1512881290.809,23.438,12.207,78.125,10.254,-19.043,0
1512881290.813,47.363,41.504,46.875,50.293,74.707,0
1512881290.817,40.039,47.363,42.480,58.105,75.684,0
1512881290.821,37.598,40.039,36.621,51.270,23.438,0
1512881290.825,25.391,39.551,27.832,50.293,35.156,0
1512881290.829,13.184,48.340,40.039,32.227,50.781,0
1512881290.833,44.434,52.246,57.129,24.414,97.656,0
1512881290.836,74.219,41.016,62.500,46.387,81.543,0
1512881290.840,55.664,26.855,13.672,57.129,34.668,0
1512881290.844,30.762,28.809,-16.113,51.758,80.566,0
1512881290.848,39.062,35.645,22.949,53.223,92.773,0
1512881290.852,40.039,8.301,29.297,39.062,34.668,0
1512881290.856,20.996,2.441,22.949,15.625,25.391,0
1512881290.860,7.324,28.809,30.273,24.414,31.250,0
1512881290.864,35.645,47.852,52.734,40.039,-0.977,0
1512881290.868,47.852,37.598,64.941,20.508,33.691,0
1512881290.872,35.156,27.344,29.785,30.273,64.453,0
1512881290.876,20.508,28.809,15.625,45.410,55.176,0
1512881290.879,24.902,25.391,42.480,35.156,36.133,0
1512881290.883,54.688,33.203,29.297,40.039,52.246,0
1512881290.887,55.664,49.316,10.254,50.781,76.660,0
1512881290.891,34.668,39.551,23.438,41.504,-8.301,0
1512881290.895,42.480,47.363,63.965,41.016,-3.906,0
1512881290.899,38.086,31.250,69.336,58.594,92.285,0
1512881290.903,17.578,18.066,25.391,51.270,92.285,0
1512881290.907,37.598,47.363,23.438,38.086,75.195,0
1512881290.911,57.617,46.875,55.176,50.293,50.781,0
1512881290.915,47.363,27.832,42.480,45.898,6.836,0
1512881290.918,46.387,22.949,22.949,43.457,27.832,0
1512881290.922,39.062,31.738,28.809,41.016,46.875,0
1512881290.926,44.922,47.852,17.090,57.129,16.113,0
1512881290.930,51.758,43.945,18.555,62.012,28.320,0
1512881290.934,21.973,32.715,33.203,31.738,6.836,0
1512881290.938,15.137,32.715,53.223,26.367,1.465,0
1512881290.942,25.391,28.320,49.316,36.621,61.523,0
1512881290.946,6.836,13.672,34.668,40.527,43.945,0
1512881290.950,15.137,17.090,35.645,43.457,2.441,0
1512881290.954,45.410,32.227,50.293,41.504,19.043,0
1512881290.958,20.996,27.344,40.039,24.414,26.855,0
1512881290.961,4.883,25.391,39.062,19.531,27.832,0
1512881290.965,43.945,52.246,50.293,61.035,8.789,0
1512881290.969,53.223,54.688,47.852,66.406,-13.672,0
1512881290.973,31.738,24.414,52.734,37.598,-9.766,0
1512881290.977,38.574,27.832,20.996,26.367,16.113,0
1512881290.981,29.297,20.996,-2.441,-0.488,14.648,0
1512881290.985,32.715,10.742,11.230,0.000,3.906,0
1512881290.989,42.480,42.969,15.625,40.039,-15.137,0
1512881290.993,40.039,40.527,37.109,59.570,3.418,0
1512881290.997,46.387,21.484,48.340,43.457,-18.555,0
1512881291.001,38.574,29.297,33.691,37.109,9.277,0
1512881291.004,39.062,39.551,37.598,47.852,39.551,0
1512881291.008,50.293,34.668,38.574,64.453,-2.930,0
1512881291.012,29.297,14.160,32.715,50.781,25.879,0
1512881291.016,39.062,24.414,37.598,42.969,70.312,0
1512881291.020,68.359,75.684,52.246,69.336,39.551,0
1512881291.024,21.973,47.363,44.922,42.480,2.930,0
1512881291.028,-18.066,-11.230,20.508,6.348,53.223,0
1512881291.032,-0.488,-18.555,33.203,7.324,78.125,0
1512881291.036,30.762,10.742,48.828,38.574,65.918,0
1512881291.040,30.762,29.785,39.551,57.617,80.078,0
1512881291.043,19.043,62.012,33.691,54.688,5.371,0
1512881291.047,32.715,70.312,49.805,55.664,16.113,0
1512881291.051,35.156,19.043,48.340,55.664,56.641,0
1512881291.055,36.621,16.113,32.715,53.711,42.969,0
1512881291.059,34.668,25.879,-5.371,50.781,23.438,0
1512881291.063,18.066,6.836,-12.695,33.203,6.348,0
1512881291.067,29.297,17.090,36.133,17.578,35.156,0
1512881291.071,41.016,34.668,44.434,25.391,76.660,0
1512881291.075,20.996,37.598,57.129,41.992,106.934,0
1512881291.079,32.227,41.504,87.891,56.152,73.730,0
1512881291.083,50.293,36.621,70.801,49.805,32.227,0
1512881291.086,40.039,34.180,42.969,44.434,12.207,0
1512881291.090,40.039,49.316,37.598,51.758,18.066,0
1512881291.094,36.621,37.598,27.832,40.039,64.941,0
1512881291.098,42.969,20.020,41.016,40.527,51.270,0
1512881291.102,45.898,20.996,39.551,53.711,-21.973,0
1512881291.106,22.949,3.418,0.488,36.621,1.465,0
1512881291.110,9.277,4.883,16.113,20.996,51.758,0
1512881291.114,30.273,42.969,65.430,36.133,46.875,0
1512881291.118,51.758,37.109,57.617,54.199,0.000,0
1512881291.122,38.086,22.949,45.898,49.805,41.992,0
1512881291.126,19.043,34.668,36.133,29.785,71.777,0
1512881291.129,0.488,26.367,16.602,32.715,60.059,0
1512881291.133,10.254,23.926,48.340,45.410,33.691,0
1512881291.137,41.504,40.527,63.965,39.551,-7.324,0
1512881291.141,55.664,61.035,32.227,40.039,-1.465,0
1512881291.145,51.270,44.922,11.230,30.273,4.395,0
1512881291.149,45.410,20.508,24.414,30.273,-5.859,0
1512881291.153,34.180,3.418,43.457,20.996,41.504,0
1512881291.157,24.414,8.789,41.992,24.902,30.273,0
1512881291.161,18.555,47.852,30.762,52.734,13.184,0
1512881291.165,20.508,40.039,42.969,35.645,-23.926,0
1512881291.168,36.133,5.371,53.223,28.809,-51.758,0
1512881291.172,32.227,11.719,47.363,52.734,-12.207,0
1512881291.176,23.926,41.016,53.223,53.711,35.156,0
1512881291.180,16.113,31.250,41.016,20.996,59.570,0
1512881291.184,24.414,31.738,36.621,32.227,62.500,0
1512881291.188,34.668,55.176,32.227,55.176,22.949,0
1512881291.192,27.344,36.621,36.133,50.293,70.801,0
1512881291.196,27.344,22.949,41.504,43.457,75.195,0
1512881291.200,49.805,49.316,26.367,55.176,1.465,0
1512881291.204,40.039,43.457,67.871,45.898,9.277,0
1512881291.208,17.090,4.395,64.941,27.832,33.691,0
1512881291.211,11.230,-4.395,14.160,26.855,30.762,0
1512881291.215,24.902,19.531,37.109,30.273,50.781,0
1512881291.219,25.391,18.066,58.594,55.664,69.824,0
1512881291.223,22.949,33.203,36.621,66.895,38.086,0
1512881291.227,21.973,37.109,31.738,41.992,10.254,0
1512881291.231,28.809,27.832,23.926,28.320,16.602,0
1512881291.235,57.129,44.922,24.902,27.832,20.996,0
1512881291.239,49.805,27.832,46.875,24.414,12.207,0
1512881291.243,29.785,26.367,62.500,22.949,13.672,0
1512881291.247,34.668,38.574,47.363,32.715,16.602,0
1512881291.251,40.039,30.273,38.574,33.203,-11.719,0
1512881291.254,18.555,12.695,30.273,20.996,-9.277,0
1512881291.258,13.672,15.137,35.156,27.344,49.805,0
1512881291.262,30.273,27.344,17.578,33.203,24.902,0
1512881291.266,27.344,41.016,21.973,35.156,-11.719,0
1512881291.270,29.785,48.340,54.688,41.992,12.207,0
1512881291.274,39.062,40.039,34.668,47.363,19.531,0
1512881291.278,19.043,26.855,24.414,43.457,6.836,0
1512881291.282,2.930,10.254,50.781,20.020,-3.418,0
1512881291.286,31.250,7.812,33.203,27.344,-27.832,0
1512881291.290,48.340,34.180,29.297,53.711,-16.113,0
1512881291.293,45.898,50.781,60.059,59.570,-10.742,0
1512881291.297,41.992,34.668,45.898,43.457,-24.902,0
1512881291.301,26.855,4.395,26.855,19.043,-3.906,0
1512881291.305,17.090,-1.953,26.855,19.531,-10.254,0
1512881291.309,24.902,38.574,52.734,21.484,-12.695,0
1512881291.313,36.133,67.871,61.523,41.992,37.109,0
1512881291.317,42.969,65.430,55.664,55.664,54.199,0
1512881291.321,39.062,62.988,62.012,59.570,6.836,0
1512881291.325,26.367,16.113,29.297,44.434,10.742,0
1512881291.329,21.484,-3.418,13.184,20.508,-0.488,0
1512881291.333,32.715,30.762,28.320,30.762,-44.922,0
1512881291.336,35.645,24.902,13.672,42.480,-10.742,0
1512881291.340,26.855,0.000,29.297,46.387,35.645,0
1512881291.344,28.809,11.719,52.734,45.410,26.367,0
1512881291.348,50.293,45.898,46.387,46.875,-32.227,0
1512881291.352,48.340,49.316,44.922,50.293,-9.766,0
1512881291.356,19.531,26.855,66.406,36.621,91.797,0
1512881291.360,31.250,40.527,66.406,43.945,70.801,0
1512881291.364,52.246,39.062,53.711,52.246,61.523,0
1512881291.368,42.480,26.855,25.391,53.711,87.402,0
1512881291.372,18.066,33.203,8.789,43.457,51.270,0
1512881291.376,12.695,23.438,47.363,27.832,6.348,0
1512881291.379,22.461,28.320,67.383,59.082,38.574,0
1512881291.383,37.109,41.992,62.500,66.406,6.836,0
1512881291.387,39.062,36.133,32.227,30.762,12.695,0
1512881291.391,16.113,7.812,-0.488,10.254,37.598,0
1512881291.395,24.414,5.371,4.395,31.250,-11.230,0
1512881291.399,65.918,42.969,27.344,55.176,-5.859,0
1512881291.403,72.266,50.293,61.035,54.688,16.602,0
1512881291.407,42.969,29.785,57.617,53.223,33.691,0
1512881291.411,13.672,19.531,43.457,44.434,33.203,0
1512881291.415,17.578,24.902,48.828,44.434,14.648,0
1512881291.418,36.133,53.223,42.480,44.434,65.430,0
1512881291.422,38.086,56.152,67.383,40.039,44.922,0
1512881291.426,39.062,20.508,75.195,47.852,9.766,0
1512881291.430,32.227,9.766,30.273,36.621,47.363,0
1512881291.434,38.086,24.414,6.348,34.180,35.645,0
1512881291.438,50.781,39.062,30.762,55.664,-29.297,0
1512881291.442,44.922,43.457,56.152,54.688,-58.594,0
1512881291.446,33.203,25.879,59.082,54.199,-7.324,0
1512881291.450,40.039,24.414,31.250,58.594,-2.441,0
1512881291.454,41.504,23.438,31.738,47.363,-14.160,0
1512881291.458,15.625,16.113,44.922,33.203,29.297,0
1512881291.461,7.812,8.789,40.527,41.992,44.434,0
1512881291.465,30.762,0.488,32.227,53.711,76.660,0
1512881291.469,48.340,19.531,43.457,41.016,77.148,0
1512881291.473,46.875,52.734,41.992,44.922,8.789,0
1512881291.477,35.645,34.180,37.598,54.688,2.930,0
1512881291.481,54.199,27.832,73.242,52.734,-5.371,0
1512881291.485,78.613,63.477,56.152,62.012,20.996,0
1512881291.489,51.758,50.293,18.066,62.012,60.547,0
1512881291.493,-0.488,5.859,-3.418,21.973,24.902,0
1512881291.497,-17.090,-14.160,-5.859,5.371,-21.973,0
1512881291.501,18.066,20.996,34.668,25.879,-24.414,0
1512881291.504,46.387,55.176,68.359,43.945,-31.738,0
1512881291.508,41.016,44.434,79.590,39.062,5.371,0
1512881291.512,33.691,23.438,69.824,32.227,20.508,0
1512881291.516,33.691,26.855,48.340,50.781,73.242,0
1512881291.520,41.016,35.156,70.801,50.781,81.543,0
1512881291.524,36.133,38.086,51.270,43.945,24.902,0
1512881291.528,20.996,36.133,10.742,41.504,78.125,0
1512881291.532,27.832,20.020,26.367,39.062,64.453,0
1512881291.536,40.527,4.395,10.254,29.785,60.059,0
1512881291.540,45.410,6.348,-4.395,41.992,64.941,0
1512881291.543,48.340,57.617,48.828,72.266,49.316,0
1512881291.547,58.594,73.242,83.496,72.266,66.895,0
1512881291.551,56.641,24.414,62.012,54.688,62.012,0
1512881291.555,40.527,19.043,38.086,43.945,57.129,0
1512881291.559,30.762,27.344,30.762,44.434,60.547,0
1512881291.563,2.441,15.625,24.414,43.945,45.898,0
1512881291.567,20.508,29.785,44.922,46.387,45.898,0
1512881291.571,56.641,39.551,63.477,54.199,44.922,0
1512881291.575,25.879,28.809,30.762,41.016,74.219,0
1512881291.579,6.348,8.301,22.461,21.973,86.426,0
1512881291.583,6.836,2.930,26.855,20.020,73.242,0
1512881291.586,28.320,25.879,40.527,39.062,89.844,0
1512881291.590,41.016,25.391,20.020,48.340,35.645,0
1512881291.594,22.949,23.926,11.719,45.898,21.484,0
1512881291.598,23.438,24.414,43.945,50.293,111.816,0
1512881291.602,28.320,33.691,43.945,47.363,124.512,0
1512881291.606,36.133,39.551,26.367,44.434,107.910,0
1512881291.610,42.969,34.668,23.438,44.922,47.363,0
1512881291.614,57.617,46.875,61.035,41.992,46.387,0
1512881291.618,60.547,31.738,59.082,21.484,83.984,0
1512881291.622,38.086,21.484,53.711,15.137,76.172,0
1512881291.626,36.133,26.855,64.453,28.320,41.016,0
1512881291.629,39.062,16.113,36.133,31.738,25.879,0
1512881291.633,21.973,14.160,-6.348,16.602,71.289,0
1512881291.637,19.531,27.344,5.371,26.367,142.578,0
1512881291.641,18.555,40.527,32.715,48.828,134.766,0
1512881291.645,19.043,38.086,39.062,36.133,125.488,0
1512881291.649,34.180,19.043,47.852,25.391,98.633,0
1512881291.653,34.180,24.902,57.617,45.898,46.387,0
1512881291.657,10.742,27.344,44.922,53.711,50.293,0
1512881291.661,2.441,5.859,15.625,40.527,52.734,0
1512881291.665,23.438,7.812,15.625,41.992,82.520,0
1512881291.668,26.855,17.578,22.949,39.062,75.195,0
1512881291.672,33.691,26.367,30.762,50.293,36.133,0
1512881291.676,41.504,40.039,57.617,55.664,64.453,0
1512881291.680,41.504,56.152,68.848,59.082,69.336,0
1512881291.684,53.711,45.898,58.594,58.594,-2.930,0
1512881291.688,37.598,22.461,56.152,45.898,57.129,0
1512881291.692,9.277,13.672,47.852,48.828,78.613,0
1512881291.696,27.344,44.922,30.273,50.781,62.012,0
1512881291.700,31.250,34.668,14.648,39.062,74.707,0
1512881291.704,4.883,-8.301,0.488,29.297,92.773,0
1512881291.708,2.441,7.324,0.488,19.531,111.328,0
1512881291.711,38.086,40.527,30.273,38.086,82.031,0
1512881291.715,58.105,30.273,73.242,56.152,74.707,0
1512881291.719,53.223,29.785,91.797,53.223,64.453,0
1512881291.723,36.133,28.809,53.223,40.039,65.918,0
1512881291.727,23.926,26.367,43.945,39.551,77.637,0
1512881291.731,26.367,32.227,48.340,35.156,66.895,0
1512881291.735,46.387,41.992,44.434,36.133,34.180,0
1512881291.739,41.504,35.645,42.969,44.434,15.137,0
1512881291.743,17.578,41.992,27.344,39.062,5.859,0
1512881291.747,36.133,50.293,34.180,45.898,-2.441,0
1512881291.751,51.758,31.250,40.527,50.293,0.000,0
1512881291.754,27.344,4.395,30.273,36.133,71.777,0
1512881291.758,19.043,-2.930,13.184,30.273,56.152,0
1512881291.762,23.926,6.836,9.277,32.715,59.082,0
1512881291.766,39.062,32.227,47.363,47.852,24.902,0
1512881291.770,47.363,41.504,54.199,50.293,-8.789,0
1512881291.774,35.645,37.598,43.945,45.410,2.441,0
1512881291.778,32.715,66.895,44.434,47.363,4.883,0
1512881291.782,52.246,91.797,67.871,50.781,59.570,0
1512881291.786,32.227,28.809,77.637,52.246,59.570,0
1512881291.790,-0.977,-23.926,50.293,41.016,5.859,0
1512881291.793,20.996,5.371,29.785,45.410,33.691,0
1512881291.797,22.949,12.207,9.766,42.480,54.199,0
1512881291.801,37.598,1.953,27.832,44.434,42.969,0
1512881291.805,77.637,38.086,75.195,63.477,83.496,0
1512881291.809,64.453,52.734,73.730,69.336,113.281,0
1512881291.813,30.273,49.316,37.598,58.105,64.453,0
1512881291.817,20.020,41.016,36.621,49.316,37.109,0
1512881291.821,26.855,28.320,47.852,57.617,37.598,0
1512881291.825,28.809,29.297,19.043,50.781,46.875,0
1512881291.829,21.484,2.441,28.320,52.246,68.848,0
1512881291.833,10.742,-23.926,41.992,60.059,109.375,0
1512881291.836,35.156,10.254,43.457,72.266,112.305,0
1512881291.840,69.336,53.223,79.102,96.191,90.332,0
1512881291.844,58.594,51.758,81.055,77.637,94.238,0
1512881291.848,24.414,24.902,43.457,42.480,58.105,0
1512881291.852,37.109,40.039,47.363,49.805,93.750,0
1512881291.856,48.828,56.641,36.133,49.316,106.934,0
1512881291.860,23.438,28.809,23.438,42.969,83.008,0
1512881291.864,32.715,39.551,52.734,61.523,114.746,0
1512881291.868,49.805,32.227,49.316,74.219,65.430,0
1512881291.872,24.902,21.973,39.551,71.289,65.430,0
1512881291.876,14.648,37.109,58.594,53.711,127.930,0
1512881291.879,51.758,28.320,74.707,51.758,112.793,0
1512881291.883,73.242,31.250,70.801,64.941,99.121,0
1512881291.887,35.645,19.043,47.852,41.504,90.332,0
1512881291.891,8.301,8.301,20.508,31.250,91.797,0
1512881291.895,20.996,21.973,7.324,34.180,84.473,0
1512881291.899,45.410,50.293,33.691,43.457,71.777,0
1512881291.903,54.199,33.691,45.898,46.387,57.129,0
1512881291.907,37.109,35.156,45.410,44.434,54.688,0
1512881291.911,38.086,54.688,59.082,50.293,106.934,0
1512881291.915,33.691,20.020,39.062,49.316,48.340,0
1512881291.918,38.086,39.551,49.316,54.688,31.738,0
1512881291.922,61.523,60.059,64.453,78.125,96.191,0
1512881291.926,43.457,10.254,54.199,67.383,48.340,0
1512881291.930,38.574,10.742,62.500,52.734,40.527,0
1512881291.934,49.805,23.926,39.551,66.406,89.355,0
1512881291.938,34.668,25.391,24.902,52.246,45.410,0
1512881291.942,14.648,18.555,40.527,38.086,7.324,0
1512881291.946,17.578,20.508,24.414,42.480,41.504,0
1512881291.950,40.039,43.945,9.766,53.711,26.855,0
1512881291.954,51.758,25.879,42.480,58.105,27.832,0
1512881291.958,39.551,27.832,60.547,55.176,18.066,0
1512881291.961,23.438,40.039,52.246,53.711,-41.992,0
1512881291.965,47.363,25.879,43.457,52.734,-25.879,0
1512881291.969,64.941,31.250,29.297,52.734,25.391,0
1512881291.973,35.156,24.414,45.898,35.156,1.465,0
1512881291.977,20.020,32.227,54.199,51.270,36.133,0
1512881291.981,36.621,43.457,38.086,80.078,80.078,0
1512881291.985,46.875,33.203,46.387,75.684,64.941,0
1512881291.989,31.250,10.254,54.199,61.523,61.035,0
1512881291.993,23.438,14.160,47.363,60.547,4.395,0
1512881291.997,53.711,45.898,47.363,62.500,20.996,0
1512881292.001,55.664,61.035,42.480,55.176,25.879,0
1512881292.004,32.715,45.898,41.016,43.457,14.648,0
1512881292.008,41.016,30.273,34.668,45.410,79.102,0
1512881292.012,26.367,33.691,31.738,47.363,45.410,0
1512881292.016,22.461,38.086,48.340,40.039,56.152,0
1512881292.020,53.711,45.898,46.387,42.969,70.801,0
1512881292.024,48.340,29.297,48.340,50.781,23.438,0
1512881292.028,25.391,10.254,45.410,49.316,-22.461,0
1512881292.032,25.391,7.324,31.250,48.828,-17.578,0
1512881292.036,31.738,19.531,31.738,47.363,28.809,0
1512881292.040,42.969,29.785,50.781,43.945,47.852,0
1512881292.043,27.344,10.742,38.574,26.367,53.711,0
1512881292.047,24.414,34.668,25.879,31.738,26.367,0
1512881292.051,53.223,74.707,48.340,51.270,8.301,0
1512881292.055,60.059,59.082,56.152,49.805,12.695,0
1512881292.059,39.551,29.785,58.594,54.199,23.926,0
1512881292.063,11.719,18.066,44.922,46.387,7.324,0
1512881292.067,17.578,11.230,54.688,41.016,-15.137,0
1512881292.071,19.531,4.883,65.918,33.691,28.809,0
1512881292.075,13.184,20.996,45.410,31.250,37.598,0
1512881292.079,14.648,25.879,34.668,31.250,24.902,0
1512881292.083,26.367,18.555,0.977,35.156,33.691,0
1512881292.086,37.598,21.484,21.484,41.992,34.668,0
1512881292.090,38.574,50.293,52.734,51.758,47.852,0
1512881292.094,39.062,39.062,39.062,45.898,84.961,0
1512881292.098,39.062,18.555,41.504,32.227,102.539,0
1512881292.102,33.203,18.066,34.180,22.949,99.121,0
1512881292.106,24.414,1.953,25.391,12.695,99.609,0
1512881292.110,17.090,16.113,20.020,14.648,67.383,0
1512881292.114,28.809,47.363,45.410,36.621,107.422,0
1512881292.118,37.598,43.457,66.406,40.039,78.125,0
1512881292.122,40.039,31.250,60.059,47.363,7.812,0
1512881292.126,29.297,36.133,52.734,47.852,49.805,0
1512881292.129,13.184,30.762,42.480,27.344,97.656,0
1512881292.133,13.184,30.762,42.480,30.762,97.656,0
1512881292.137,37.598,22.949,38.574,33.691,71.289,0
1512881292.141,31.738,13.672,-1.465,30.273,64.941,0
1512881292.145,10.742,14.160,-11.230,33.691,50.293,0
1512881292.149,33.203,16.113,27.832,36.133,48.828,0
1512881292.153,54.199,28.320,43.457,41.016,105.469,0
1512881292.157,37.598,24.414,50.293,48.340,119.629,0
1512881292.161,19.043,16.113,70.312,50.781,88.379,0
1512881292.165,21.484,23.926,68.848,40.039,31.250,0
1512881292.168,42.480,34.668,38.574,40.527,16.602,0
1512881292.172,49.805,45.898,46.387,52.734,93.262,0
1512881292.176,41.504,44.434,48.828,55.664,107.910,0
1512881292.180,47.363,41.504,41.992,56.152,39.062,0
1512881292.184,44.434,48.828,27.832,62.500,42.480,0
1512881292.188,28.320,43.457,13.184,49.805,18.066,0
1512881292.192,16.113,29.297,45.898,35.645,56.152,0
1512881292.196,9.277,4.883,41.016,20.996,90.820,0
1512881292.200,36.621,12.695,23.438,24.902,32.715,0
1512881292.204,32.715,20.508,23.438,31.250,39.551,0
1512881292.208,11.719,26.367,31.738,31.738,21.484,0
1512881292.211,21.973,41.016,49.316,48.340,-3.906,0
1512881292.215,29.297,18.066,60.547,41.992,5.371,0
1512881292.219,44.922,20.508,38.574,41.992,52.734,0
1512881292.223,40.527,45.898,33.203,48.340,50.293,0
1512881292.227,24.414,39.062,52.734,35.645,27.344,0
1512881292.231,21.973,9.766,23.438,33.203,41.992,0
1512881292.235,14.160,3.906,15.625,35.645,7.324,0
1512881292.239,20.020,18.066,43.457,32.715,0.977,0
1512881292.243,33.203,33.203,48.828,46.875,-2.441,0
1512881292.247,31.250,37.598,61.035,33.691,-20.996,0
1512881292.251,43.457,41.992,58.105,23.438,-41.016,0
1512881292.254,38.086,26.855,31.250,32.715,-16.602,0
1512881292.258,15.137,20.508,22.461,35.645,58.594,0
1512881292.262,24.902,40.527,15.137,56.641,54.199,0
1512881292.266,43.945,32.227,22.461,53.711,10.742,0
1512881292.270,24.414,15.625,35.156,27.832,4.395,0
1512881292.274,12.695,18.555,41.504,34.668,11.230,0
1512881292.278,13.184,25.391,38.086,41.016,13.672,0
1512881292.282,17.090,12.207,42.969,31.250,2.441,0
1512881292.286,60.547,34.668,68.359,46.875,31.250,0
1512881292.290,72.754,69.824,48.828,59.082,25.391,0
1512881292.293,25.879,16.113,19.531,37.598,-27.832,0
1512881292.297,28.809,14.160,52.246,28.320,28.809,0
1512881292.301,33.203,42.480,69.336,24.902,53.223,0
1512881292.305,17.578,22.461,26.855,30.273,46.387,0
1512881292.309,10.254,10.742,4.883,32.715,54.688,0
1512881292.313,22.461,24.414,49.316,47.852,8.789,0
1512881292.317,76.172,54.199,73.730,79.590,-0.488,0
1512881292.321,65.430,47.852,23.926,45.898,34.668,0
1512881292.325,22.461,23.926,17.578,30.273,79.590,0
1512881292.329,15.625,4.883,57.129,43.457,72.266,0
1512881292.333,29.785,31.738,69.336,39.062,58.594,0
1512881292.336,38.574,51.270,65.430,49.805,62.012,0
1512881292.340,38.574,13.672,60.059,52.734,41.992,0
1512881292.344,31.250,11.230,63.477,50.293,26.855,0
1512881292.348,33.691,30.762,39.062,56.152,41.016,0
1512881292.352,40.527,29.297,11.230,52.734,15.137,0
1512881292.356,27.832,19.531,-8.789,32.715,67.871,0
1512881292.360,25.879,24.902,5.371,36.621,110.352,0
1512881292.364,16.602,24.902,39.062,40.039,103.027,0
1512881292.368,20.996,15.625,44.434,30.273,67.871,0
1512881292.372,53.711,39.551,79.102,50.781,29.785,0
1512881292.376,54.688,57.617,77.637,58.105,62.988,0
1512881292.379,9.277,32.227,61.523,40.039,60.547,0
1512881292.383,13.672,14.160,56.641,33.203,32.715,0
1512881292.387,36.621,4.883,26.855,36.621,52.734,0
1512881292.391,9.277,-8.789,24.902,27.832,74.219,0
1512881292.395,5.859,1.953,17.578,25.391,30.762,0
1512881292.399,33.691,23.926,-15.137,27.832,24.414,0
1512881292.403,60.059,54.199,26.367,48.340,20.508,0
1512881292.407,38.574,52.246,60.547,54.199,32.715,0
1512881292.411,16.113,44.922,65.918,55.664,84.473,0
1512881292.415,23.926,30.273,69.336,57.617,107.422,0
1512881292.418,28.809,33.691,37.109,44.434,104.492,0
1512881292.422,30.273,49.805,53.223,46.387,57.129,0
1512881292.426,-4.395,-6.836,43.457,17.578,3.418,0
1512881292.430,-6.348,-26.855,15.625,0.000,75.195,0
1512881292.434,27.344,-2.441,22.461,13.672,108.398,0
1512881292.438,30.762,7.812,26.367,19.531,61.035,0
1512881292.442,31.738,21.973,5.859,20.996,50.781,0
1512881292.446,40.039,36.621,18.555,37.109,29.297,0
1512881292.450,44.922,62.500,57.129,48.828,6.836,0
1512881292.454,31.738,61.523,60.547,31.738,81.055,0
1512881292.458,27.344,33.691,69.336,30.762,78.613,0
1512881292.461,26.367,22.949,55.664,41.016,16.602,0
1512881292.465,18.066,16.602,31.738,33.203,32.715,0
1512881292.469,23.438,-3.418,13.184,14.648,85.938,0
1512881292.473,18.555,-15.137,-5.859,6.348,106.445,0
1512881292.477,2.930,8.301,12.207,12.207,85.938,0
1512881292.481,19.531,30.762,51.758,33.203,72.266,0
1512881292.485,49.316,52.734,55.176,48.828,77.148,0
1512881292.489,66.895,76.172,50.781,62.012,57.617,0
1512881292.493,35.645,33.203,53.711,50.781,91.309,0
1512881292.497,8.301,-6.836,26.367,16.602,104.492,0
1512881292.501,12.695,-9.766,9.277,4.883,83.496,0
1512881292.504,20.020,14.648,-8.301,30.273,105.957,0
1512881292.508,22.461,38.574,0.488,37.598,79.590,0
1512881292.512,44.434,37.109,56.152,36.621,63.965,0
1512881292.516,61.035,28.809,70.312,57.617,70.312,0
1512881292.520,36.133,32.227,50.781,56.152,91.797,0
1512881292.524,21.484,52.246,47.363,48.340,110.352,0
1512881292.528,26.855,37.598,54.688,49.805,91.309,0
1512881292.532,31.738,20.996,51.270,42.969,114.746,0
1512881292.536,19.531,9.277,16.113,35.645,125.488,0
1512881292.540,-0.488,-8.789,7.324,20.020,69.336,0
1512881292.543,12.695,-0.977,28.320,23.438,20.508,0
1512881292.547,48.340,53.223,46.387,54.199,67.383,0
1512881292.551,58.594,69.336,29.297,64.941,75.684,0
1512881292.555,42.480,36.133,9.766,53.711,39.062,0
1512881292.559,17.578,28.320,45.410,46.387,46.387,0
1512881292.563,-12.207,16.113,49.805,31.250,76.172,0
1512881292.567,12.207,18.066,23.438,28.809,108.887,0
1512881292.571,53.223,33.203,36.621,53.223,98.145,0
1512881292.575,49.316,31.738,42.480,67.871,67.383,0
1512881292.579,28.320,37.598,36.133,63.477,58.594,0
1512881292.583,17.578,29.297,22.949,32.227,64.453,0
1512881292.586,36.133,27.344,21.484,31.738,43.457,0
1512881292.590,33.691,25.879,39.062,26.855,57.617,0
1512881292.594,20.508,31.738,63.965,16.602,88.867,0
1512881292.598,17.090,33.691,41.992,12.207,67.871,0
1512881292.602,38.086,16.113,16.113,20.020,59.570,0
1512881292.606,49.316,33.691,47.363,57.129,62.500,0
1512881292.610,17.578,39.551,46.875,60.059,55.664,0
1512881292.614,14.160,27.344,12.695,39.062,50.781,0
1512881292.618,36.621,31.738,9.277,37.109,76.660,0
1512881292.622,37.109,34.180,36.133,39.062,96.191,0
1512881292.626,39.062,32.715,64.453,39.551,88.867,0
1512881292.629,47.852,37.109,57.617,38.086,142.090,0
1512881292.633,47.852,48.340,47.852,33.203,165.527,0
1512881292.637,38.086,60.547,70.312,34.180,95.215,0
1512881292.641,27.344,32.715,40.039,37.109,59.082,0
1512881292.645,31.250,9.766,22.461,28.320,48.340,0
1512881292.649,36.133,19.043,43.457,22.461,96.191,0
1512881292.653,47.363,16.602,10.254,38.086,120.117,0
1512881292.657,44.922,20.996,-11.719,53.223,84.473,0
1512881292.661,33.691,32.227,40.039,49.805,92.773,0
1512881292.665,17.578,38.086,53.711,30.273,122.070,0
1512881292.668,21.484,29.297,38.574,26.855,103.027,0
1512881292.672,44.922,26.855,42.969,42.480,72.266,0
1512881292.676,38.574,45.410,50.781,58.105,146.973,0
1512881292.680,22.949,41.016,37.598,55.664,144.043,0
1512881292.684,16.602,0.000,33.691,43.457,77.148,0
1512881292.688,35.645,16.113,57.617,57.617,48.828,0
1512881292.692,25.879,35.645,49.805,51.270,105.957,0
1512881292.696,13.184,16.602,18.066,34.180,144.043,0
1512881292.700,54.688,42.480,31.738,60.547,114.258,0
1512881292.704,55.664,47.852,41.504,50.293,62.012,0
1512881292.708,24.902,27.344,45.898,22.461,82.031,0
1512881292.711,17.090,23.926,67.383,39.062,208.008,0
1512881292.715,29.297,38.574,58.105,48.828,197.266,0
1512881292.719,40.039,56.152,35.156,63.965,78.613,0
1512881292.723,50.293,53.223,43.457,76.660,125.000,0
1512881292.727,21.484,27.832,25.879,24.414,298.828,0
1512881292.731,10.254,18.555,-6.836,9.277,312.500,0
1512881292.735,44.434,41.504,14.160,39.551,200.195,0
1512881292.739,22.949,13.184,12.695,25.391,206.055,0
1512881292.743,4.395,-13.184,16.602,7.324,362.793,0
1512881292.747,37.598,25.391,33.203,29.785,458.496,0
1512881292.751,58.105,48.340,30.762,44.434,374.512,0
1512881292.754,46.875,44.922,58.105,43.457,292.969,0
1512881292.758,29.297,59.082,95.215,65.430,398.438,0
1512881292.762,20.996,47.852,68.359,64.941,526.367,0
1512881292.766,34.668,39.062,34.180,41.504,493.164,0
1512881292.770,37.598,41.992,41.016,37.598,391.602,0
1512881292.774,25.879,27.832,32.715,30.273,432.617,0
1512881292.778,27.832,25.879,-18.066,24.414,583.008,0
1512881292.782,30.273,22.949,-23.926,9.766,579.102,0
1512881292.786,37.109,14.648,35.156,22.949,427.734,0
1512881292.790,24.902,23.926,62.500,32.227,395.508,0
1512881292.793,11.719,28.320,53.711,24.414,545.410,0
1512881292.797,31.738,44.922,54.688,29.297,614.258,0
1512881292.801,45.410,55.176,53.711,37.598,461.426,0
1512881292.805,33.691,31.738,39.551,33.691,356.934,0
1512881292.809,17.090,19.043,27.344,26.367,516.113,0
1512881292.813,19.043,18.066,26.367,42.480,647.949,0
1512881292.817,25.879,22.461,2.441,15.625,481.445,0
1512881292.821,52.246,44.922,-14.160,16.113,338.867,0
1512881292.825,57.617,52.734,24.902,55.176,441.406,0
1512881292.829,55.176,47.363,41.504,60.059,609.863,0
1512881292.833,62.500,39.551,47.852,40.527,523.438,0
1512881292.836,41.016,35.645,56.152,30.762,322.754,0
1512881292.840,22.461,40.527,50.293,29.785,370.117,0
1512881292.844,23.926,14.160,32.227,35.156,549.805,0
1512881292.848,26.855,-0.488,0.977,33.691,540.527,0
1512881292.852,44.434,42.969,7.812,40.527,335.938,0
1512881292.856,44.922,46.387,47.363,46.875,307.129,0
1512881292.860,17.578,14.160,29.785,29.297,524.902,0
1512881292.864,31.250,37.109,35.156,38.086,576.660,0
1512881292.868,38.086,47.363,46.387,33.691,398.926,0
1512881292.872,20.508,36.133,8.301,18.555,327.637,0
1512881292.876,27.832,59.570,38.086,26.367,452.637,0
1512881292.879,46.875,68.359,62.012,51.270,557.617,0
1512881292.883,40.527,43.457,38.086,54.199,433.594,0
1512881292.887,14.160,12.207,23.438,5.859,313.477,0
1512881292.891,17.578,24.902,23.926,0.000,418.457,0
1512881292.895,20.508,18.066,33.691,15.625,535.645,0
1512881292.899,22.461,-1.465,20.020,19.043,451.172,0
1512881292.903,20.996,8.301,10.254,12.695,309.082,0
1512881292.907,26.367,32.715,34.180,10.254,321.777,0
1512881292.911,38.574,57.129,25.391,32.715,437.500,0
1512881292.915,36.621,40.527,8.301,41.016,421.387,0
1512881292.918,46.875,23.926,20.020,29.297,245.117,0
1512881292.922,38.086,33.691,24.414,33.203,179.688,0
1512881292.926,20.020,50.781,44.922,37.598,319.336,0
1512881292.930,25.391,44.434,52.734,28.809,381.836,0
1512881292.934,32.715,13.184,41.016,10.254,238.281,0
1512881292.938,44.434,35.645,49.805,27.832,113.281,0
1512881292.942,38.574,42.969,40.527,27.832,193.359,0
1512881292.946,8.789,16.602,26.367,8.301,330.566,0
1512881292.950,8.301,36.621,35.645,22.461,234.863,0
1512881292.954,37.598,58.594,8.789,30.762,58.594,0
1512881292.958,23.926,36.133,-12.695,31.738,118.652,0
1512881292.961,1.953,18.555,21.484,10.742,251.465,0
1512881292.965,25.879,33.203,43.945,18.555,202.148,0
1512881292.969,42.969,18.066,23.926,15.625,35.156,0
1512881292.973,20.020,-3.906,26.855,6.836,34.668,0
1512881292.977,2.441,20.020,41.016,26.855,217.285,0
1512881292.981,43.945,62.012,36.133,41.016,245.605,0
1512881292.985,58.105,60.547,14.160,31.738,63.477,0
1512881292.989,45.410,43.457,43.457,37.109,-8.789,0
1512881292.993,31.250,30.762,43.945,38.574,129.395,0
1512881292.997,10.742,30.273,21.973,-3.418,248.047,0
1512881293.001,22.461,52.246,29.297,0.000,89.844,0
1512881293.004,30.762,48.828,-9.766,11.230,-60.547,0
1512881293.008,20.020,20.996,-28.320,2.441,117.676,0
1512881293.012,21.484,26.855,11.719,16.113,255.371,0
1512881293.016,41.016,37.598,31.250,23.926,132.324,0
1512881293.020,48.828,43.945,38.574,39.551,-19.043,0
1512881293.024,36.621,37.598,39.062,30.762,58.105,0
1512881293.028,31.738,25.879,46.875,17.578,215.332,0
1512881293.032,28.320,22.461,43.945,5.371,174.316,0
1512881293.036,22.949,10.254,6.836,-19.043,4.395,0
1512881293.040,10.742,18.066,-10.742,-14.648,-9.766,0
1512881293.043,-1.465,43.457,27.832,4.395,160.645,0
1512881293.047,22.461,46.387,45.898,19.531,190.430,0
1512881293.051,37.109,33.203,-2.441,18.555,28.809,0
1512881293.055,31.250,35.645,-0.488,12.207,-38.574,0
1512881293.059,27.832,45.898,54.199,19.043,101.562,0
1512881293.063,8.789,23.438,48.340,17.090,199.219,0
1512881293.067,14.648,20.020,14.648,9.277,57.617,0
1512881293.071,35.645,41.504,21.973,17.090,-88.379,0
1512881293.075,11.719,38.086,14.160,15.137,43.457,0
1512881293.079,-2.441,35.156,8.789,9.277,191.406,0
1512881293.083,39.551,35.156,29.297,31.250,77.148,0
1512881293.086,54.199,57.617,11.230,25.879,-102.051,0
1512881293.090,37.598,77.637,0.000,18.555,-75.195,0
1512881293.094,17.578,45.898,30.273,6.836,108.887,0
1512881293.098,18.066,13.672,40.527,-9.277,127.930,0
1512881293.102,29.785,20.508,29.785,13.184,-47.852,0
1512881293.106,12.207,25.879,26.855,23.438,-109.863,0
1512881293.110,1.953,27.832,23.438,17.090,57.617,0
1512881293.114,8.301,30.273,26.367,8.301,148.926,0
1512881293.118,39.062,38.086,28.809,23.926,-19.531,0
1512881293.122,58.594,62.988,6.836,54.688,-112.793,0
1512881293.126,25.879,60.059,24.414,49.316,28.320,0
1512881293.129,13.672,39.062,47.363,20.020,157.715,0
1512881293.133,21.484,26.367,18.555,-1.465,44.922,0
1512881293.137,5.859,8.301,32.715,-16.602,-112.305,0
1512881293.141,21.484,17.578,40.527,0.977,-0.977,0
1512881293.145,22.461,32.227,-4.883,11.230,199.707,0
1512881293.149,22.461,19.043,-9.766,-5.859,151.367,0
1512881293.153,38.574,20.508,16.602,5.371,-35.156,0
1512881293.157,30.762,41.504,29.785,17.578,28.320,0
1512881293.161,40.527,50.781,56.152,30.273,216.797,0
1512881293.165,37.598,19.531,42.480,30.273,214.844,0
1512881293.168,46.875,45.898,50.293,42.969,59.570,0
1512881293.172,49.805,66.406,68.359,59.082,46.875,0
1512881293.176,-8.301,12.207,6.836,5.371,224.121,0
1512881293.180,-7.324,4.883,-13.184,-8.301,290.039,0
1512881293.184,18.555,21.973,29.785,0.488,143.066,0
1512881293.188,41.016,46.875,25.391,8.301,74.219,0
1512881293.192,41.504,52.246,-4.883,22.949,229.492,0
1512881293.196,19.043,28.809,29.785,10.254,329.102,0
1512881293.200,24.902,12.695,33.691,8.301,229.492,0
1512881293.204,30.273,5.371,8.789,15.137,123.047,0
1512881293.208,28.809,31.738,37.109,24.902,191.895,0
1512881293.211,7.324,39.551,34.668,28.320,324.219,0
1512881293.215,-1.953,34.668,10.742,33.203,299.805,0
1512881293.219,25.391,43.945,33.691,40.527,136.719,0
1512881293.223,24.902,26.855,40.039,21.484,100.586,0
1512881293.227,16.602,24.414,26.367,17.090,290.527,0
1512881293.231,45.410,45.898,23.926,39.062,354.004,0
1512881293.235,60.547,53.223,33.203,36.133,194.336,0
1512881293.239,40.039,46.387,40.039,32.715,109.863,0
1512881293.243,47.363,50.781,37.109,54.199,246.094,0
1512881293.247,38.086,28.320,32.227,37.109,360.840,0
1512881293.251,13.672,20.996,13.184,22.949,237.305,0
1512881293.254,13.672,35.156,7.812,25.879,90.332,0
1512881293.258,12.695,24.902,9.766,25.879,169.434,0
1512881293.262,22.949,-0.977,12.695,20.508,341.797,0
1512881293.266,35.645,19.531,46.875,24.414,275.391,0
1512881293.270,30.762,27.344,56.152,37.598,59.570,0
1512881293.274,28.809,10.742,17.578,40.527,125.977,0
1512881293.278,43.945,41.992,55.664,51.758,349.121,0
1512881293.282,49.805,62.988,97.168,58.594,336.914,0
1512881293.286,43.457,46.387,54.688,47.852,170.410,0
1512881293.290,22.949,41.992,5.859,37.109,138.672,0
1512881293.293,9.766,19.531,-2.930,18.555,290.527,0
1512881293.297,7.324,7.812,10.742,12.207,345.215,0
1512881293.301,8.789,8.789,12.695,19.043,163.086,0
1512881293.305,17.578,12.207,32.227,30.762,74.707,0
1512881293.309,33.203,23.438,34.668,49.316,236.328,0
1512881293.313,41.016,33.203,43.457,44.434,306.152,0
1512881293.317,33.203,46.387,75.684,35.156,157.715,0
1512881293.321,29.297,46.875,73.242,24.414,25.391,0
1512881293.325,23.926,23.926,47.363,27.832,118.652,0
1512881293.329,21.484,17.090,12.207,42.969,271.484,0
1512881293.333,37.109,26.367,-2.441,39.551,174.316,0
1512881293.336,44.922,35.156,5.859,36.621,10.742,0
1512881293.340,6.348,45.898,31.738,35.645,82.031,0
1512881293.344,4.395,27.832,41.504,39.551,241.699,0
1512881293.348,32.227,14.648,39.551,43.945,174.805,0
1512881293.352,48.340,27.832,46.387,35.645,12.207,0
1512881293.356,29.785,14.160,52.734,27.832,-3.906,0
1512881293.360,-11.719,-1.953,39.551,0.488,120.605,0
1512881293.364,4.395,22.461,10.254,-12.207,174.316,0
1512881293.368,50.293,62.500,37.109,34.180,33.203,0
1512881293.372,51.270,72.754,56.641,58.105,-34.668,0
1512881293.376,18.066,21.973,28.320,35.645,93.262,0
1512881293.379,28.320,3.418,26.367,39.062,168.945,0
1512881293.383,60.547,49.805,26.367,54.688,63.477,0
1512881293.387,59.570,58.594,32.715,58.594,-33.691,0
1512881293.391,33.203,25.879,55.176,36.621,51.758,0
1512881293.395,27.344,14.160,41.992,17.578,212.402,0
1512881293.399,30.762,18.555,31.250,12.695,160.645,0
1512881293.403,14.648,9.766,-6.348,9.277,-68.359,0
1512881293.407,23.926,40.527,8.789,45.410,-96.680,0
1512881293.411,29.297,61.035,54.688,55.664,125.000,0
1512881293.415,41.016,41.992,38.574,33.691,187.988,0
1512881293.418,31.738,40.527,44.434,34.668,4.395,0
1512881293.422,0.000,23.438,47.852,37.598,-48.340,0
1512881293.426,8.301,10.254,38.574,23.926,142.578,0
1512881293.430,15.137,12.207,25.391,3.418,249.023,0
1512881293.434,29.297,20.508,21.973,13.672,47.852,0
1512881293.438,52.734,54.688,37.109,40.039,-63.965,0
1512881293.442,42.480,46.875,41.016,48.340,101.074,0
1512881293.446,36.133,38.086,60.059,46.875,250.488,0
1512881293.450,36.621,40.527,62.500,36.621,141.602,0
1512881293.454,10.254,1.465,26.367,5.371,-55.176,0
1512881293.458,-2.441,1.953,7.812,-2.930,38.574,0
1512881293.461,15.137,25.391,30.762,15.137,253.906,0
1512881293.465,32.227,16.602,33.691,7.812,202.148,0
1512881293.469,55.664,48.340,60.059,46.875,35.156,0
1512881293.473,32.227,54.688,76.660,57.617,70.312,0
1512881293.477,19.531,32.227,38.574,43.457,265.137,0
1512881293.481,30.762,28.320,4.395,48.828,266.113,0
1512881293.485,35.156,46.875,4.883,49.316,73.242,0
1512881293.489,50.781,49.805,52.734,53.711,58.594,0
1512881293.493,32.715,24.414,51.270,42.480,227.051,0
1512881293.497,20.020,44.434,46.875,33.691,301.270,0
1512881293.501,23.926,27.832,32.715,23.438,149.902,0
1512881293.504,32.227,15.625,30.273,43.945,38.086,0
1512881293.508,34.180,56.152,53.711,68.359,168.945,0
1512881293.512,24.902,35.645,30.273,40.527,273.926,0
1512881293.516,48.828,19.043,31.250,25.879,209.473,0
1512881293.520,47.852,29.297,28.809,25.391,70.312,0
1512881293.524,24.902,28.809,-3.418,21.973,81.543,0
1512881293.528,14.160,12.207,18.555,15.625,269.043,0
1512881293.532,20.996,12.207,50.781,12.695,272.949,0
1512881293.536,39.551,26.367,54.199,24.414,107.910,0
1512881293.540,22.461,9.277,27.344,17.578,74.219,0
1512881293.543,37.109,50.293,19.531,29.785,222.168,0
1512881293.547,68.848,97.656,62.012,76.660,285.645,0
1512881293.551,55.664,59.570,80.078,69.824,119.141,0
1512881293.555,18.555,5.371,32.227,17.578,48.340,0
1512881293.559,2.441,0.000,7.812,12.695,220.215,0
1512881293.563,10.742,26.855,13.184,20.996,350.586,0
1512881293.567,23.926,19.531,21.973,12.695,260.254,0
1512881293.571,36.621,13.672,32.227,25.879,123.047,0
1512881293.575,32.227,20.996,47.852,31.250,224.609,0
1512881293.579,34.180,40.527,70.801,42.969,449.707,0
1512881293.583,44.434,76.660,59.570,71.777,400.391,0
1512881293.586,39.551,42.480,42.480,46.387,220.703,0
1512881293.590,-3.418,-11.230,27.832,-4.883,271.973,0
1512881293.594,-17.578,0.977,8.301,11.719,463.379,0
1512881293.598,33.691,27.832,26.367,46.875,471.191,0
1512881293.602,46.387,29.297,43.457,36.621,281.250,0
1512881293.606,23.438,18.555,40.039,20.020,282.227,0
1512881293.610,37.598,56.152,56.641,52.734,469.238,0
1512881293.614,40.039,57.617,43.945,63.477,506.836,0
1512881293.618,39.062,26.855,36.133,68.848,349.609,0
1512881293.622,32.715,21.484,45.898,48.828,291.504,0
1512881293.626,-0.488,12.207,31.250,4.395,441.895,0
1512881293.629,-5.371,39.551,8.789,8.301,565.430,0
1512881293.633,27.832,45.410,28.809,20.508,439.453,0
1512881293.637,35.645,6.836,58.594,20.020,284.180,0
1512881293.641,13.672,6.348,40.039,22.949,375.488,0
1512881293.645,0.000,33.691,42.969,32.227,516.602,0
1512881293.649,23.438,37.598,60.059,39.062,437.988,0
1512881293.653,71.289,41.504,63.965,57.617,255.371,0
1512881293.657,52.734,34.180,34.668,63.965,266.113,0
1512881293.661,10.742,20.020,6.348,32.715,440.430,0
1512881293.665,0.488,-4.883,36.621,0.488,422.852,0
1512881293.668,4.395,-11.230,54.199,-18.066,217.285,0
1512881293.672,45.898,50.781,51.758,20.508,115.234,0
1512881293.676,42.480,52.246,34.668,42.480,210.938,0
1512881293.680,18.555,34.180,18.066,34.180,270.020,0
1512881293.684,34.668,29.785,19.043,45.410,78.613,0
1512881293.688,29.785,21.484,29.785,36.133,-78.613,0
1512881293.692,19.531,31.250,52.734,21.973,-9.277,0
1512881293.696,28.809,47.363,19.531,28.809,91.797,0
1512881293.700,21.484,32.227,8.301,16.602,-4.395,0
1512881293.704,18.555,16.113,34.668,6.836,-214.844,0
1512881293.708,16.602,21.484,13.184,20.996,-168.945,0
1512881293.711,31.738,41.504,40.039,38.086,34.668,0
1512881293.715,61.035,71.289,62.012,43.457,-8.301,0
1512881293.719,27.344,35.645,33.203,6.836,-216.309,0
1512881293.723,5.859,18.555,41.016,10.254,-242.188,0
1512881293.727,8.301,22.949,49.316,12.695,-80.566,0
1512881293.731,1.953,7.324,11.230,-20.020,-24.414,0
1512881293.735,13.184,11.230,-18.066,-18.066,-217.773,0
1512881293.739,31.738,29.785,8.301,3.906,-325.684,0
1512881293.743,32.715,46.387,53.711,32.227,-134.277,0
1512881293.747,34.180,41.992,62.500,37.109,-10.742,0
1512881293.751,33.203,45.410,12.695,8.301,-216.309,0
1512881293.754,19.043,59.082,-20.508,-6.348,-360.840,0
1512881293.758,3.906,20.508,10.742,-8.301,-206.055,0
1512881293.762,1.465,-3.418,64.453,-8.301,-87.402,0
1512881293.766,20.508,14.648,64.941,5.859,-204.102,0
1512881293.770,45.898,42.480,18.066,33.203,-362.793,0
1512881293.774,27.832,35.156,20.020,17.578,-283.691,0
1512881293.778,12.695,11.719,39.062,9.766,-117.188,0
1512881293.782,39.062,30.273,58.594,28.320,-156.250,0
1512881293.786,25.391,39.551,13.184,3.906,-337.891,0
1512881293.790,17.090,39.551,-33.691,-5.371,-350.586,0
1512881293.793,29.785,42.480,10.742,13.184,-186.035,0
1512881293.797,36.133,26.367,26.855,16.602,-155.273,0
1512881293.801,52.246,22.949,24.902,16.113,-299.316,0
1512881293.805,58.105,21.484,36.133,0.977,-362.305,0
1512881293.809,29.297,-3.906,45.410,-11.719,-197.266,0
1512881293.813,10.742,7.812,65.918,4.395,-58.594,0
1512881293.817,33.203,36.133,58.105,26.855,-180.664,0
1512881293.821,45.410,47.363,26.855,35.645,-318.359,0
1512881293.825,21.973,41.016,9.277,21.973,-236.328,0
1512881293.829,7.812,26.367,5.371,14.648,-79.102,0
1512881293.833,16.113,33.691,28.809,2.441,-125.488,0
1512881293.836,41.016,45.898,42.480,0.488,-287.109,0
1512881293.840,48.828,34.180,13.184,20.508,-271.973,0
1512881293.844,41.504,27.832,0.000,17.578,-78.613,0
1512881293.848,40.527,28.320,34.668,24.902,-43.945,0
1512881293.852,40.527,8.789,50.293,16.113,-220.215,0
1512881293.856,38.574,0.000,30.762,-2.930,-255.371,0
1512881293.860,6.348,10.742,21.484,7.812,-89.355,0
1512881293.864,19.531,38.574,40.527,36.621,22.461,0
1512881293.868,47.852,49.805,52.734,16.602,-115.234,0
1512881293.872,43.457,52.246,42.969,12.207,-210.449,0
1512881293.876,37.598,45.898,43.457,28.320,-73.242,0
1512881293.879,31.738,14.648,21.484,4.395,32.227,0
1512881293.883,49.805,22.949,21.973,16.113,-87.402,0
1512881293.887,48.828,28.320,36.621,23.926,-260.742,0
1512881293.891,4.395,13.184,35.156,23.926,-161.133,0
1512881293.895,-11.719,15.625,11.719,32.715,35.156,0
1512881293.899,35.156,37.109,20.508,37.598,-19.043,0
1512881293.903,64.453,48.340,69.824,41.504,-182.129,0
1512881293.907,57.129,39.551,57.617,33.203,-138.184,0
1512881293.911,20.020,17.090,37.109,14.160,75.684,0
1512881293.915,0.000,14.648,41.992,26.855,100.586,0
1512881293.918,5.859,34.180,16.113,52.734,-73.730,0
1512881293.922,27.344,37.598,-7.324,44.922,-117.676,0
1512881293.926,29.297,27.344,8.301,21.973,78.613,0
1512881293.930,-3.418,15.625,43.945,16.602,167.969,0
1512881293.934,19.531,28.320,47.363,28.320,9.766,0
1512881293.938,31.250,33.203,44.434,26.855,-94.727,0
1512881293.942,4.883,16.113,64.453,28.809,7.324,0
1512881293.946,25.391,30.762,53.711,37.109,143.555,0
1512881293.950,45.410,29.297,41.992,8.301,33.691,0
1512881293.954,52.734,43.945,23.438,8.789,-172.852,0
1512881293.958,51.758,65.918,17.578,52.734,-158.691,0
1512881293.961,40.039,27.344,35.156,54.199,-30.762,0
1512881293.965,29.785,7.812,22.461,22.949,-86.914,0
1512881293.969,24.414,20.020,26.367,15.137,-283.203,0
1512881293.973,15.137,13.672,34.180,24.414,-310.547,0
1512881293.977,15.137,7.324,36.133,18.066,-143.555,0
1512881293.981,42.969,44.922,63.965,30.762,-89.844,0
1512881293.985,51.758,48.340,48.340,33.691,-254.395,0
1512881293.989,41.016,35.645,15.137,24.902,-351.074,0
1512881293.993,31.738,37.109,33.203,43.457,-182.129,0
1512881293.997,19.043,36.621,21.484,41.016,-70.801,0
1512881294.001,27.344,50.781,-1.953,33.203,-219.727,0
1512881294.004,32.227,14.648,18.555,29.297,-384.277,0
1512881294.008,22.949,-4.395,56.152,38.574,-287.598,0
1512881294.012,35.156,31.738,91.309,42.480,-115.234,0
1512881294.016,46.875,32.715,88.867,35.156,-188.477,0
1512881294.020,23.438,9.766,34.668,32.715,-351.074,0
1512881294.024,20.996,36.621,19.531,41.504,-330.078,0
1512881294.028,41.504,65.430,36.621,51.758,-122.559,0
1512881294.032,24.902,22.949,11.230,26.367,-91.309,0
1512881294.036,7.812,1.953,-55.664,19.043,-311.035,0
1512881294.040,32.715,27.344,-11.719,41.016,-329.102,0
1512881294.043,31.250,26.855,76.660,33.203,-105.957,0
1512881294.047,25.391,28.809,70.801,33.691,-42.969,0
1512881294.051,41.992,41.016,63.477,45.410,-244.629,0
1512881294.055,53.711,23.926,71.777,33.203,-342.773,0
1512881294.059,50.781,20.020,64.941,36.133,-166.992,0
1512881294.063,20.996,28.809,46.387,53.711,-99.121,0
1512881294.067,3.906,12.207,2.930,40.527,-283.203,0
1512881294.071,14.648,24.414,13.184,20.508,-421.875,0
1512881294.075,21.973,65.430,31.738,16.113,-310.547,0
1512881294.079,14.160,45.898,32.227,36.621,-169.922,0
1512881294.083,26.367,6.836,42.969,54.199,-234.375,0
1512881294.086,41.016,15.625,23.438,23.926,-389.648,0
1512881294.090,27.344,32.227,24.414,13.672,-345.703,0
1512881294.094,34.668,26.367,59.082,24.902,-187.500,0
1512881294.098,31.250,6.836,46.875,17.090,-209.961,0
1512881294.102,19.531,23.438,16.602,24.902,-377.441,0
1512881294.106,22.949,29.785,7.812,24.414,-449.219,0
1512881294.110,8.789,25.391,12.695,23.926,-321.289,0
1512881294.114,18.066,41.016,43.945,46.387,-270.508,0
1512881294.118,34.668,41.016,80.078,50.293,-402.832,0
1512881294.122,23.438,15.625,62.988,52.734,-469.727,0
1512881294.126,5.371,-1.465,20.020,42.480,-381.836,0
1512881294.129,4.395,6.836,6.836,30.762,-251.465,0
1512881294.133,18.555,23.438,33.691,23.926,-355.469,0
1512881294.137,44.434,47.363,44.434,20.996,-494.141,0
1512881294.141,67.871,52.246,11.719,49.805,-398.438,0
1512881294.145,58.105,33.691,19.043,41.504,-240.723,0
1512881294.149,35.156,16.602,54.199,20.508,-265.625,0
1512881294.153,23.926,29.297,48.340,18.555,-428.223,0
1512881294.157,15.137,22.949,31.738,20.020,-438.965,0
1512881294.161,6.836,3.418,41.016,18.555,-257.324,0
1512881294.165,7.812,29.785,56.152,15.137,-201.172,0
1512881294.168,50.781,43.457,59.570,34.668,-333.008,0
1512881294.172,42.480,8.301,6.836,31.738,-391.602,0
1512881294.176,21.484,21.973,4.883,41.504,-197.266,0
1512881294.180,42.480,45.410,43.945,47.852,-78.613,0
1512881294.184,47.363,20.996,15.625,26.855,-251.953,0
1512881294.188,39.062,17.578,17.090,9.766,-362.793,0
1512881294.192,38.086,47.852,50.293,37.109,-215.332,0
1512881294.196,32.715,53.711,53.223,65.430,-95.703,0
1512881294.200,21.973,51.270,28.809,41.016,-214.844,0
1512881294.204,37.598,43.457,27.832,24.414,-404.297,0
1512881294.208,40.527,37.598,45.898,28.320,-354.492,0
1512881294.211,17.578,42.480,32.715,31.250,-166.992,0
1512881294.215,14.648,18.066,-10.742,1.465,-228.516,0
1512881294.219,23.438,4.883,-21.973,-9.277,-418.945,0
1512881294.223,27.344,21.973,14.648,23.926,-438.477,0
1512881294.227,24.902,20.996,46.875,26.855,-254.395,0
1512881294.231,19.531,16.602,35.156,29.785,-215.820,0
1512881294.235,28.320,42.480,33.691,25.391,-454.102,0
1512881294.239,62.988,67.383,62.500,24.902,-499.023,0
1512881294.243,35.645,32.715,36.621,9.277,-293.457,0
1512881294.247,12.695,10.742,5.859,6.836,-210.449,0
1512881294.251,37.598,18.066,6.348,22.949,-340.332,0
1512881294.254,22.949,0.488,-1.953,1.953,-419.434,0
1512881294.258,30.762,36.621,41.992,31.250,-292.969,0
1512881294.262,35.156,44.434,59.082,43.945,-119.141,0
1512881294.266,30.273,20.996,28.320,13.184,-155.273,0
1512881294.270,14.160,30.273,20.508,1.465,-300.781,0
1512881294.274,0.000,34.668,19.043,22.461,-249.512,0
1512881294.278,10.742,29.297,17.578,37.109,-62.012,0
1512881294.282,38.574,42.969,40.039,32.715,-25.879,0
1512881294.286,65.918,39.062,62.500,41.016,-162.109,0
1512881294.290,52.734,30.762,40.527,39.062,-214.844,0
1512881294.293,35.645,33.691,18.555,19.043,-96.191,0
1512881294.297,19.043,18.555,40.039,17.090,-9.766,0
1512881294.301,9.277,5.859,29.785,26.855,-124.512,0
1512881294.305,18.555,15.625,21.973,41.992,-196.289,0
1512881294.309,22.461,40.527,13.672,31.250,-52.734,0
1512881294.313,24.414,31.738,9.277,34.180,106.445,0
1512881294.317,45.898,34.180,37.598,42.969,24.414,0
1512881294.321,44.922,36.133,54.688,35.645,-133.789,0
1512881294.325,38.574,48.828,61.035,61.523,-38.086,0
1512881294.329,38.086,49.805,57.129,75.684,156.250,0
1512881294.333,19.043,19.531,34.668,25.879,118.164,0
1512881294.336,21.973,22.461,31.250,6.348,-39.062,0
1512881294.340,5.859,-0.488,28.320,13.184,-42.969,0
1512881294.344,-14.648,-8.301,21.973,2.441,110.352,0
1512881294.348,29.297,14.160,-10.742,11.719,116.699,0
1512881294.352,55.664,24.902,1.953,25.391,-114.746,0
1512881294.356,44.434,44.922,63.965,43.945,-170.410,0
1512881294.360,37.109,62.500,73.730,54.688,57.129,0
1512881294.364,35.645,46.387,60.547,48.828,131.836,0
1512881294.368,51.270,26.855,53.711,49.316,-9.277,0
1512881294.372,39.551,5.371,25.879,29.785,-65.430,0
1512881294.376,13.672,5.859,21.484,30.273,104.492,0
1512881294.379,4.883,10.742,28.809,33.691,246.582,0
1512881294.383,29.297,30.273,23.438,37.598,141.602,0
1512881294.387,39.062,31.250,14.160,42.969,23.926,0
1512881294.391,19.531,6.836,39.062,27.344,104.004,0
1512881294.395,19.531,37.598,50.781,41.504,266.602,0
1512881294.399,43.457,57.129,29.297,49.805,262.207,0
1512881294.403,35.156,40.039,33.691,31.738,122.070,0
1512881294.407,20.996,20.996,42.969,35.645,104.980,0
1512881294.411,34.180,13.672,29.785,32.227,259.277,0
1512881294.415,29.297,-1.465,-8.301,1.953,292.480,0
1512881294.418,29.785,-6.836,-3.418,-0.488,114.258,0
1512881294.422,41.504,21.973,46.387,27.832,45.410,0
1512881294.426,51.270,64.453,90.332,62.988,196.777,0
1512881294.430,23.926,60.547,64.941,45.410,300.293,0
1512881294.434,11.719,19.531,19.043,23.438,152.344,0
1512881294.438,27.832,29.785,21.973,47.363,-4.883,0
1512881294.442,33.203,41.992,35.645,47.852,111.328,0
1512881294.446,46.875,36.133,48.828,47.852,250.977,0
1512881294.450,48.340,31.738,27.832,50.293,178.223,0
1512881294.454,43.457,13.184,2.930,34.668,58.594,0
1512881294.458,32.715,17.578,9.277,47.363,131.348,0
1512881294.461,0.977,11.230,17.578,43.945,318.359,0
1512881294.465,-1.953,9.766,12.695,19.531,335.938,0
1512881294.469,48.828,41.504,26.367,32.227,139.648,0
1512881294.473,69.336,69.824,49.316,55.664,119.141,0
1512881294.477,47.363,65.430,22.461,55.176,328.125,0
1512881294.481,24.902,18.555,36.621,34.180,380.859,0
1512881294.485,2.930,7.324,68.359,30.273,223.145,0
1512881294.489,11.230,27.832,61.523,44.434,133.301,0
1512881294.493,33.691,45.410,54.199,69.336,286.133,0
1512881294.497,32.715,38.086,35.645,53.711,437.988,0
1512881294.501,31.250,24.902,29.785,21.973,285.156,0
1512881294.504,31.738,17.578,16.602,19.043,122.070,0
1512881294.508,24.902,17.090,25.879,27.832,275.391,0
1512881294.512,20.996,29.785,27.344,7.324,440.918,0
1512881294.516,38.086,59.082,20.020,1.465,284.668,0
1512881294.520,61.523,53.711,6.836,33.691,119.141,0
1512881294.524,48.828,38.574,9.277,40.039,222.168,0
1512881294.528,28.809,43.457,50.293,18.555,417.969,0
1512881294.532,13.672,9.766,28.809,-0.977,388.672,0
1512881294.536,21.973,0.488,28.809,16.113,220.215,0
1512881294.540,36.621,21.484,74.219,38.574,215.332,0
1512881294.543,24.414,31.250,56.641,46.875,385.742,0
1512881294.547,36.133,49.316,18.555,42.480,434.082,0
1512881294.551,28.809,33.691,12.695,14.160,257.812,0
1512881294.555,10.742,19.043,37.598,13.672,202.637,0
1512881294.559,23.438,41.504,43.457,38.086,368.652,0
1512881294.563,32.715,42.480,27.344,39.551,473.145,0
1512881294.567,57.617,49.316,37.598,47.363,358.398,0
1512881294.571,49.805,41.016,47.852,35.156,235.840,0
1512881294.575,17.578,3.418,43.945,22.949,324.219,0
1512881294.579,20.020,20.508,45.410,40.039,458.984,0
1512881294.583,37.598,29.297,57.129,55.664,387.207,0
1512881294.586,40.527,23.438,25.879,34.180,241.699,0
1512881294.590,37.109,45.410,3.418,10.742,237.793,0
1512881294.594,36.621,42.969,23.438,28.320,417.969,0
1512881294.598,35.645,23.926,41.992,30.273,472.656,0
1512881294.602,24.902,38.086,33.691,24.902,295.898,0
1512881294.606,46.387,60.547,30.273,45.410,290.039,0
1512881294.610,34.668,40.039,63.477,40.039,486.328,0
1512881294.614,8.301,24.414,64.453,32.227,584.961,0
1512881294.618,28.809,20.020,31.250,25.391,471.191,0
1512881294.622,33.203,17.090,24.414,14.160,379.883,0
1512881294.626,14.160,38.086,34.668,14.160,521.973,0
1512881294.629,7.812,31.250,29.297,15.625,644.531,0
1512881294.633,42.480,32.715,22.461,33.203,558.594,0
1512881294.637,54.199,55.664,29.785,34.668,412.598,0
1512881294.641,33.691,38.086,29.297,26.367,535.645,0
1512881294.645,19.043,3.906,7.324,17.578,752.441,0
