timestamps,TP9,AF7,AF8,TP10,Right AUX,Marker0
1512969218.861,-7.324,39.062,35.156,-10.254,62.988,0
1512969218.865,-7.324,34.668,25.879,-18.066,78.613,0
1512969218.869,-12.207,39.551,16.113,-20.020,62.500,0
1512969218.872,-4.395,45.898,21.973,-15.625,42.480,0
1512969218.876,3.418,46.875,35.645,-1.953,67.871,0
1512969218.880,0.000,45.410,33.203,6.836,103.516,0
1512969218.884,2.930,48.340,19.531,5.371,67.383,0
1512969218.888,18.066,55.664,21.484,3.906,5.859,0
1512969218.892,24.414,46.387,23.926,1.465,45.898,0
1512969218.896,15.137,43.945,25.879,-2.930,101.074,0
1512969218.900,6.348,54.199,37.109,6.836,101.562,0
1512969218.904,3.418,49.316,34.668,13.184,64.453,0
1512969218.908,6.348,41.016,24.902,10.254,42.969,0
1512969218.912,3.418,37.109,27.344,11.719,87.891,0
1512969218.915,-5.859,34.668,35.156,16.113,102.539,0
1512969218.919,-2.930,34.180,33.203,18.555,19.043,0
1512969218.923,3.418,34.668,25.879,11.230,6.836,0
1512969218.927,0.000,39.062,27.344,18.066,99.609,0
1512969218.931,-8.789,48.340,32.227,30.762,95.215,0
1512969218.935,-10.254,53.711,37.109,27.344,18.066,0
1512969218.939,-8.301,49.316,31.250,18.066,-21.973,0
1512969218.943,3.418,41.504,40.527,9.766,49.805,0
1512969218.947,6.836,39.062,51.270,9.766,119.629,0
1512969218.951,6.348,44.434,42.969,18.066,45.898,0
1512969218.955,2.441,39.062,37.598,19.043,-10.254,0
1512969218.958,2.441,39.062,41.016,28.809,53.711,0
1512969218.962,1.465,39.551,37.598,26.855,111.816,0
1512969218.966,-6.348,37.109,31.738,15.625,63.477,0
1512969218.970,-0.488,35.645,44.922,19.043,2.441,0
1512969218.974,6.836,41.992,58.594,23.926,12.207,0
1512969218.978,4.883,44.434,52.734,24.414,63.477,0
1512969218.982,3.418,38.574,49.316,26.855,69.824,0
1512969218.986,4.395,42.480,48.340,24.902,1.953,0
1512969218.990,8.789,37.598,39.551,11.230,-1.953,0
1512969218.994,14.648,30.273,43.457,14.648,65.430,0
1512969218.997,0.000,27.832,49.316,21.484,100.586,0
1512969219.001,-10.254,30.273,43.945,14.160,39.551,0
1512969219.005,-6.836,27.344,36.133,4.883,-6.836,0
1512969219.009,-8.301,28.320,43.457,9.766,16.602,0
1512969219.013,-2.930,44.434,46.875,18.066,48.340,0
1512969219.017,2.441,48.340,41.504,10.254,30.762,0
1512969219.021,4.883,34.668,28.809,-0.977,-13.184,0
1512969219.025,-5.371,28.320,29.785,3.418,9.277,0
1512969219.029,-6.836,29.785,44.922,8.301,57.129,0
1512969219.033,2.930,33.203,36.621,-4.395,46.387,0
1512969219.037,5.371,29.785,25.391,-4.395,0.488,0
1512969219.040,-0.977,32.227,29.297,0.000,20.020,0
1512969219.044,-14.160,31.738,34.180,-19.043,73.242,0
1512969219.048,-11.230,36.133,40.527,-16.602,96.191,0
1512969219.052,-8.789,45.410,45.898,-0.488,37.109,0
1512969219.056,-15.137,43.457,43.945,-2.441,-14.160,0
1512969219.060,-22.949,34.668,41.504,-6.348,59.570,0
1512969219.064,-29.785,28.809,41.504,-2.441,118.652,0
1512969219.068,-29.297,24.902,39.551,-9.277,68.848,0
1512969219.072,-14.648,30.762,37.598,-13.672,-22.461,0
1512969219.076,1.953,35.156,38.574,-9.277,5.371,0
1512969219.080,1.465,26.855,37.598,-3.418,117.188,0
1512969219.083,-7.812,34.668,41.016,4.883,73.242,0
1512969219.087,-18.555,37.598,43.457,0.000,-14.648,0
1512969219.091,-17.578,34.180,41.504,-6.836,21.484,0
1512969219.095,-10.254,42.480,47.363,-0.488,100.098,0
1512969219.099,-15.137,46.387,52.246,10.254,84.961,0
1512969219.103,-11.230,43.945,47.852,8.789,-0.488,0
1512969219.107,2.930,39.551,47.852,7.812,-1.465,0
1512969219.111,0.488,34.180,56.641,14.160,39.551,0
1512969219.115,-7.324,38.086,48.340,17.578,41.992,0
1512969219.119,-10.742,37.109,41.504,19.043,-34.180,0
1512969219.122,-16.113,28.320,37.598,6.348,-48.340,0
1512969219.126,-16.602,28.320,35.645,8.789,61.035,0
1512969219.130,-1.465,37.109,43.457,19.531,90.820,0
1512969219.134,10.254,50.781,48.340,14.648,24.902,0
1512969219.138,3.418,52.246,45.898,20.020,-19.531,0
1512969219.142,-0.977,47.852,55.176,29.297,35.156,0
1512969219.146,4.883,42.480,62.988,30.762,104.980,0
1512969219.150,1.953,35.156,50.293,26.855,67.383,0
1512969219.154,4.395,38.574,35.645,26.855,-3.906,0
1512969219.158,10.254,40.039,30.273,25.879,12.207,0
1512969219.162,3.906,45.410,33.691,27.832,67.383,0
1512969219.165,-2.930,45.410,34.668,28.809,62.500,0
1512969219.169,4.395,44.922,39.062,27.832,-11.719,0
1512969219.173,19.043,49.316,55.176,35.645,-20.996,0
1512969219.177,17.578,50.293,62.500,35.645,25.391,0
1512969219.181,12.695,53.223,51.270,30.762,41.992,0
1512969219.185,10.254,58.105,50.781,40.527,16.113,0
1512969219.189,5.859,49.316,47.363,25.879,-6.836,0
1512969219.193,-1.465,35.645,44.434,8.301,39.551,0
1512969219.197,-8.789,32.227,36.621,11.719,88.379,0
1512969219.201,-10.254,27.832,31.250,9.766,57.129,0
1512969219.205,-10.254,40.039,48.340,16.113,-16.602,0
1512969219.208,-9.766,44.434,49.316,10.254,15.625,0
1512969219.212,-10.742,40.039,42.480,6.836,86.914,0
1512969219.216,-2.930,46.875,52.734,10.254,93.750,0
1512969219.220,8.789,42.969,52.246,0.977,4.395,0
1512969219.224,1.953,37.598,41.504,-3.418,-33.203,0
1512969219.228,-14.160,39.551,41.504,1.465,95.215,0
1512969219.232,-20.020,34.180,49.316,0.977,106.934,0
1512969219.236,-18.066,26.367,50.293,-3.418,0.000,0
1512969219.240,-17.090,26.855,38.086,-5.371,-7.812,0
1512969219.244,-1.953,40.039,40.527,0.000,54.688,0
1512969219.247,-7.812,38.086,38.574,-0.488,75.684,0
1512969219.251,-6.348,39.062,41.504,-2.930,31.250,0
1512969219.255,-1.953,41.992,46.875,-9.766,-9.766,0
1512969219.259,-7.324,40.527,35.645,-16.113,33.691,0
1512969219.263,-0.488,46.875,33.691,-11.230,93.262,0
1512969219.267,-4.395,44.434,35.156,-10.742,33.203,0
1512969219.271,-12.695,35.645,30.273,-9.277,-34.180,0
1512969219.275,-8.301,34.180,43.945,-2.441,11.719,0
1512969219.279,-13.672,36.133,45.410,-6.836,82.031,0
1512969219.283,-11.719,36.621,28.809,-12.695,90.820,0
1512969219.287,0.977,42.969,31.250,-5.371,22.949,0
1512969219.290,6.348,47.852,36.621,-3.418,10.742,0
1512969219.294,4.395,41.992,31.250,-15.625,70.801,0
1512969219.298,7.324,41.016,31.738,-15.137,85.449,0
1512969219.302,25.391,57.129,35.645,8.301,7.324,0
1512969219.306,18.555,48.828,31.738,9.766,-21.973,0
1512969219.310,10.254,37.598,41.504,2.930,52.734,0
1512969219.314,13.184,42.480,46.875,15.625,81.055,0
1512969219.318,9.766,42.480,35.156,16.113,58.594,0
1512969219.322,14.160,32.715,26.855,1.953,3.906,0
1512969219.326,27.344,35.156,32.227,7.324,40.039,0
1512969219.330,29.785,39.551,34.180,14.160,71.289,0
1512969219.333,25.391,34.180,28.809,13.184,48.340,0
1512969219.337,31.250,40.527,25.391,10.742,-6.836,0
1512969219.341,29.297,41.016,30.762,11.230,7.812,0
1512969219.345,20.508,45.898,40.527,13.672,89.355,0
1512969219.349,19.531,57.129,39.551,18.555,72.754,0
1512969219.353,22.949,51.758,47.852,24.414,-10.254,0
1512969219.357,24.414,46.875,64.941,35.156,-65.430,0
1512969219.361,10.742,42.969,52.734,34.668,6.348,0
1512969219.365,-2.930,44.922,28.320,20.020,89.355,0
1512969219.369,8.301,42.969,28.809,20.508,10.742,0
1512969219.372,10.254,33.691,29.785,16.602,-36.133,0
1512969219.376,-6.348,32.715,41.992,9.766,51.758,0
1512969219.380,-7.324,30.762,49.805,21.973,125.488,0
1512969219.384,1.465,38.086,42.969,27.832,57.617,0
1512969219.388,5.859,50.781,41.992,18.555,-30.762,0
1512969219.392,12.695,56.152,53.711,22.461,1.953,0
1512969219.396,10.742,45.898,58.105,27.832,73.730,0
1512969219.400,-7.812,32.715,45.898,17.090,63.477,0
1512969219.404,-21.973,33.203,43.945,11.719,8.301,0
1512969219.408,-10.742,40.039,54.688,7.812,40.039,0
1512969219.412,-3.418,33.203,55.664,1.953,78.613,0
1512969219.415,0.488,31.738,50.293,5.859,58.594,0
1512969219.419,-2.930,34.668,39.551,3.418,-0.977,0
1512969219.423,-8.301,37.598,51.270,19.531,-9.766,0
1512969219.427,-17.578,46.875,60.059,28.809,65.430,0
1512969219.431,-22.461,42.969,45.410,0.488,94.238,0
1512969219.435,-12.695,34.668,41.992,-3.418,9.766,0
1512969219.439,-4.395,33.691,50.293,7.812,-44.922,0
1512969219.443,-8.301,38.086,45.410,-0.977,25.391,0
1512969219.447,-10.254,37.598,27.344,-5.859,68.359,0
1512969219.451,-15.625,20.996,26.855,-2.930,44.434,0
1512969219.455,-13.672,28.320,39.062,0.488,33.691,0
1512969219.458,-3.906,39.062,45.410,1.953,44.434,0
1512969219.462,0.488,33.691,47.363,6.836,99.121,0
1512969219.466,12.207,48.828,58.594,20.508,83.008,0
1512969219.470,4.395,50.781,55.664,17.578,1.953,0
1512969219.474,1.953,41.504,47.852,15.137,-23.926,0
1512969219.478,3.418,39.062,41.992,22.949,42.969,0
1512969219.482,-7.324,40.527,33.691,17.090,83.984,0
1512969219.486,8.301,39.062,28.320,7.812,19.531,0
1512969219.490,15.625,32.227,30.273,2.441,-30.273,0
1512969219.494,5.859,36.133,40.039,-2.441,17.090,0
1512969219.497,8.789,42.969,46.875,5.859,34.668,0
1512969219.501,13.672,46.875,52.246,17.578,-1.953,0
1512969219.505,22.949,61.035,56.152,27.344,-39.062,0
1512969219.509,13.184,54.688,44.434,26.367,0.977,0
1512969219.513,8.789,41.992,44.922,26.367,71.777,0
1512969219.517,22.461,49.316,51.270,23.438,28.320,0
1512969219.521,23.438,44.434,33.691,17.090,-46.387,0
1512969219.525,19.043,40.527,35.156,25.391,-41.504,0
1512969219.529,25.391,44.434,53.223,38.086,26.855,0
1512969219.533,29.785,48.340,61.523,37.598,48.828,0
1512969219.537,22.461,41.504,56.152,21.484,-27.832,0
1512969219.540,21.973,45.410,46.387,17.578,-36.621,0
1512969219.544,26.367,48.340,39.062,18.066,62.012,0
1512969219.548,20.508,45.410,34.180,17.578,91.309,0
1512969219.552,14.648,55.176,46.875,31.738,16.602,0
1512969219.556,6.836,49.316,52.734,24.902,0.488,0
1512969219.560,9.277,36.621,43.457,14.160,75.684,0
1512969219.564,10.742,34.668,44.434,20.508,113.281,0
1512969219.568,16.602,45.410,51.758,27.344,41.992,0
1512969219.572,12.695,40.039,35.156,16.113,-3.418,0
1512969219.576,11.230,33.203,30.273,18.555,67.383,0
1512969219.580,29.297,44.434,37.109,29.297,131.836,0
1512969219.583,22.949,43.457,34.180,12.695,82.031,0
1512969219.587,12.207,44.434,38.086,8.789,6.836,0
1512969219.591,9.766,51.758,40.527,15.137,60.547,0
1512969219.595,10.742,49.316,45.898,19.043,116.211,0
1512969219.599,4.883,35.156,49.316,21.484,61.523,0
1512969219.603,-3.906,26.367,31.250,21.484,-5.371,0
1512969219.607,0.977,31.250,24.414,16.113,2.930,0
1512969219.611,13.184,40.527,45.410,8.301,60.059,0
1512969219.615,17.578,44.434,53.223,10.254,73.242,0
1512969219.619,5.371,34.180,35.156,6.836,58.105,0
1512969219.622,0.977,35.156,31.738,7.324,20.020,0
1512969219.626,4.883,44.922,33.203,0.977,53.711,0
1512969219.630,0.977,43.457,31.250,-3.906,100.586,0
1512969219.634,-4.395,35.156,40.039,-1.465,53.711,0
1512969219.638,-6.348,36.621,38.574,-5.371,-1.465,0
1512969219.642,3.418,43.945,44.434,8.301,51.270,0
1512969219.646,7.324,37.598,43.457,3.906,88.867,0
1512969219.650,-4.395,28.809,38.086,-0.488,35.645,0
1512969219.654,-2.441,32.227,40.527,9.277,-3.906,0
1512969219.658,7.324,37.109,39.551,7.324,-8.789,0
1512969219.662,3.418,39.551,42.969,10.742,70.312,0
1512969219.665,-9.277,39.062,44.922,18.066,104.004,0
1512969219.669,-10.742,41.016,37.109,14.160,9.766,0
1512969219.673,-5.859,29.785,40.039,10.254,14.648,0
1512969219.677,-1.953,20.508,43.457,6.348,74.707,0
1512969219.681,-3.906,29.785,31.250,2.441,104.004,0
1512969219.685,0.000,39.062,37.109,6.836,32.715,0
1512969219.689,-2.441,32.227,39.551,3.418,-39.551,0
1512969219.693,-4.883,28.809,37.598,1.953,30.762,0
1512969219.697,1.465,36.133,40.527,1.465,84.473,0
1512969219.701,-11.230,41.016,36.133,0.000,38.574,0
1512969219.705,-15.137,39.551,39.551,4.395,14.160,0
1512969219.708,-1.465,26.367,38.086,3.418,88.379,0
1512969219.712,-3.906,18.555,33.203,0.977,117.676,0
1512969219.716,0.977,26.367,42.480,9.277,61.035,0
1512969219.720,13.672,42.480,48.828,27.344,13.184,0
1512969219.724,2.441,36.621,41.504,25.391,47.363,0
1512969219.728,0.000,29.297,48.828,17.090,104.004,0
1512969219.732,3.418,34.668,40.039,13.184,63.965,0
1512969219.736,0.977,33.691,23.926,4.395,-8.789,0
1512969219.740,4.883,34.180,29.785,3.418,22.461,0
1512969219.744,8.301,38.086,41.016,8.789,83.984,0
1512969219.747,4.883,27.344,35.156,2.441,84.961,0
1512969219.751,-9.277,29.297,34.180,5.371,30.762,0
1512969219.755,11.230,55.664,59.082,30.762,27.832,0
1512969219.759,39.062,58.105,56.152,33.691,67.871,0
1512969219.763,27.344,55.664,55.176,35.645,100.098,0
1512969219.767,12.695,50.293,52.734,35.156,86.914,0
1512969219.771,5.859,45.898,30.762,26.855,1.953,0
1512969219.775,12.695,61.523,41.992,28.809,-6.836,0
1512969219.779,20.996,64.453,59.570,20.020,80.566,0
1512969219.783,17.578,50.293,46.387,5.371,96.680,0
1512969219.787,15.137,48.828,39.062,4.395,31.250,0
1512969219.790,22.949,62.500,50.293,15.137,25.879,0
1512969219.794,23.438,58.594,44.434,14.160,60.547,0
1512969219.798,16.113,42.969,31.250,7.324,78.125,0
1512969219.802,15.137,41.504,35.156,13.672,41.016,0
1512969219.806,19.531,47.363,41.504,23.926,7.324,0
1512969219.810,24.902,58.594,47.852,28.809,60.059,0
1512969219.814,11.230,57.129,54.199,26.855,116.699,0
1512969219.818,6.348,44.434,48.828,25.879,50.293,0
1512969219.822,6.836,46.875,38.086,24.414,-15.137,0
1512969219.826,5.371,49.805,37.109,11.230,34.180,0
1512969219.830,11.719,42.480,47.852,15.137,122.070,0
1512969219.833,5.371,28.809,49.316,18.555,109.863,0
1512969219.837,-6.836,26.367,39.062,12.207,16.113,0
1512969219.841,-3.906,38.574,41.016,22.461,50.293,0
1512969219.845,14.160,51.270,51.758,24.414,160.645,0
1512969219.849,19.043,47.363,44.922,15.137,143.555,0
1512969219.853,0.977,24.902,27.832,11.230,59.570,0
1512969219.857,0.977,25.391,39.551,20.020,84.961,0
1512969219.861,12.207,41.016,49.805,22.949,149.414,0
1512969219.865,10.742,42.480,51.758,17.578,145.020,0
1512969219.869,-0.977,42.480,53.711,12.695,85.449,0
1512969219.872,-7.812,36.621,39.551,6.836,71.777,0
1512969219.876,3.906,38.086,38.574,11.230,127.930,0
1512969219.880,7.812,41.016,38.086,7.324,168.945,0
1512969219.884,8.301,45.410,38.086,14.160,96.680,0
1512969219.888,11.230,49.316,48.828,24.902,68.848,0
1512969219.892,4.883,31.250,39.551,14.648,129.395,0
1512969219.896,-0.488,29.785,35.156,2.441,147.461,0
1512969219.900,-3.906,40.039,39.062,-10.254,104.980,0
1512969219.904,-3.906,39.062,33.691,-9.277,90.332,0
1512969219.908,0.977,39.062,40.527,-2.930,134.277,0
1512969219.912,-0.488,41.504,52.246,0.000,170.410,0
1512969219.915,-13.672,30.273,35.645,-2.930,122.070,0
1512969219.919,-15.137,22.461,31.250,-1.953,62.988,0
1512969219.923,-9.277,32.715,40.527,-1.465,76.172,0
1512969219.927,-10.742,38.086,35.645,-15.625,108.398,0
1512969219.931,-10.254,33.203,32.227,-10.254,113.281,0
1512969219.935,-10.254,30.762,36.621,0.977,43.457,0
1512969219.939,-8.301,36.133,49.316,-4.883,30.762,0
1512969219.943,-2.930,37.109,48.340,0.488,108.887,0
1512969219.947,2.441,43.457,49.805,16.602,142.090,0
1512969219.951,0.488,41.992,52.734,6.836,101.074,0
1512969219.955,3.418,41.504,41.992,-4.395,34.668,0
1512969219.958,8.301,45.898,31.250,-1.465,33.203,0
1512969219.962,3.418,40.527,32.227,-1.465,84.961,0
1512969219.966,0.000,39.062,37.598,5.859,65.430,0
1512969219.970,-6.348,31.738,42.969,4.883,3.906,0
1512969219.974,-14.648,27.344,44.922,10.742,17.090,0
1512969219.978,-11.719,30.762,49.316,10.742,112.305,0
1512969219.982,3.906,38.086,57.617,1.953,110.352,0
1512969219.986,8.301,39.062,56.641,5.859,11.719,0
1512969219.990,-4.395,38.574,37.109,3.418,13.672,0
1512969219.994,-7.812,47.852,33.203,11.719,115.723,0
1512969219.997,-5.859,37.598,36.621,28.320,110.352,0
1512969220.001,0.977,36.621,42.969,21.484,21.973,0
1512969220.005,2.930,43.457,49.805,11.230,2.930,0
1512969220.009,-14.648,31.250,43.457,15.625,79.102,0
1512969220.013,-9.766,31.250,41.504,11.719,143.066,0
1512969220.017,-7.812,31.738,50.293,-2.930,46.387,0
1512969220.021,-9.277,29.297,44.434,0.488,11.230,0
1512969220.025,-1.953,31.738,32.715,11.719,83.984,0
1512969220.029,-4.883,33.203,34.180,9.277,115.234,0
1512969220.033,-1.465,36.133,33.203,0.488,97.168,0
1512969220.037,8.301,51.758,44.434,13.672,18.066,0
1512969220.040,1.465,40.527,47.852,22.949,41.992,0
1512969220.044,-7.812,22.949,38.086,20.996,99.609,0
1512969220.048,-4.883,36.621,50.293,25.391,91.309,0
1512969220.052,3.906,38.574,58.105,34.180,23.438,0
1512969220.056,4.395,26.367,41.504,31.250,34.180,0
1512969220.060,2.441,20.996,44.434,18.066,83.984,0
1512969220.064,1.953,25.391,44.434,12.695,77.637,0
1512969220.068,5.859,30.762,36.621,21.484,43.945,0
1512969220.072,8.301,29.785,43.457,20.996,24.414,0
1512969220.076,7.324,38.086,53.711,14.648,73.730,0
1512969220.080,10.742,32.227,50.781,8.789,121.094,0
1512969220.083,15.137,27.344,50.781,8.789,92.773,0
1512969220.087,11.230,32.715,71.289,21.484,44.922,0
1512969220.091,2.441,18.066,61.523,26.855,55.176,0
1512969220.095,3.906,12.695,44.434,28.809,114.258,0
1512969220.099,-0.488,17.090,50.293,17.578,102.051,0
1512969220.103,-8.789,26.855,46.875,11.230,2.441,0
1512969220.107,1.465,33.203,49.316,18.555,-8.301,0
1512969220.111,11.230,35.156,58.105,12.207,79.102,0
1512969220.115,0.000,21.973,55.664,6.836,116.211,0
1512969220.119,-4.883,14.648,45.898,4.395,40.039,0
1512969220.122,0.488,25.879,47.852,-6.836,-13.184,0
1512969220.126,-2.930,27.344,45.898,-11.719,67.871,0
1512969220.130,-3.906,22.949,37.598,-4.883,141.113,0
1512969220.134,4.883,27.344,45.410,0.000,78.613,0
1512969220.138,-2.930,32.227,54.688,7.812,-3.418,0
1512969220.142,-2.930,31.738,65.430,11.230,46.387,0
1512969220.146,5.371,33.691,69.336,6.836,123.535,0
1512969220.150,0.000,33.203,48.828,-3.418,62.988,0
1512969220.154,0.488,23.926,37.109,-17.090,-3.906,0
1512969220.158,-3.418,31.250,48.828,-9.277,33.203,0
1512969220.162,-15.137,33.203,44.434,0.000,109.863,0
1512969220.165,-17.578,30.273,36.133,-9.277,77.637,0
1512969220.169,-18.555,31.738,40.527,-10.742,1.953,0
1512969220.173,-18.555,29.297,51.270,-5.859,34.180,0
1512969220.177,-10.254,39.062,58.594,-2.930,83.496,0
1512969220.181,-10.254,38.086,45.898,-8.301,81.055,0
1512969220.185,-7.812,34.668,41.504,-8.789,20.508,0
1512969220.189,-0.488,30.762,38.086,-1.953,1.465,0
1512969220.193,4.883,25.879,32.227,-4.395,40.039,0
1512969220.197,2.441,30.273,32.227,-14.160,75.684,0
1512969220.201,-3.906,34.180,31.738,-18.066,23.438,0
1512969220.205,-5.371,38.574,28.320,-10.742,-17.578,0
1512969220.208,-13.184,33.691,20.508,-5.371,38.086,0
1512969220.212,-18.066,36.133,37.109,-1.465,100.586,0
1512969220.216,-23.926,38.574,54.199,1.953,99.121,0
1512969220.220,-24.902,32.227,42.480,1.953,33.203,0
1512969220.224,-21.484,29.297,28.809,-11.230,21.484,0
1512969220.228,-19.531,33.203,35.156,-17.090,82.520,0
1512969220.232,-17.578,35.645,42.969,-1.953,76.660,0
1512969220.236,-15.137,31.738,41.992,12.207,-2.930,0
1512969220.240,-10.742,22.949,45.410,5.371,-4.883,0
1512969220.244,-3.906,28.320,48.340,5.371,33.203,0
1512969220.247,-2.930,28.809,43.945,12.207,61.523,0
1512969220.251,-7.324,14.160,37.598,4.883,36.621,0
1512969220.255,-5.371,15.137,51.758,3.906,-16.602,0
1512969220.259,-10.254,10.742,49.805,2.930,10.742,0
1512969220.263,-15.137,13.184,43.945,0.488,76.172,0
1512969220.267,-8.789,20.996,51.270,5.859,74.707,0
1512969220.271,-6.348,16.113,52.734,-0.488,18.066,0
1512969220.275,-6.348,14.160,58.594,0.977,48.828,0
1512969220.279,-6.836,11.230,56.641,7.324,116.699,0
1512969220.283,-6.348,14.160,49.316,2.930,74.219,0
1512969220.287,-3.418,27.344,58.105,7.324,8.789,0
1512969220.290,-13.672,12.207,58.594,1.953,8.301,0
1512969220.294,-9.766,6.836,64.453,0.977,72.266,0
1512969220.298,-5.371,20.996,63.477,5.859,98.633,0
1512969220.302,-5.371,21.484,50.293,7.812,-5.859,0
1512969220.306,-0.977,22.949,56.152,17.578,-28.320,0
1512969220.310,-6.348,22.949,54.688,23.926,75.195,0
1512969220.314,0.000,29.785,52.734,20.508,94.727,0
1512969220.318,10.742,24.414,59.570,22.461,16.113,0
1512969220.322,17.090,29.297,61.523,32.227,3.906,0
1512969220.326,17.090,35.156,68.848,28.809,53.711,0
1512969220.330,5.859,25.391,72.754,22.461,74.219,0
1512969220.333,4.883,20.508,61.523,21.484,33.691,0
1512969220.337,13.184,20.508,56.641,24.902,-27.344,0
1512969220.341,-5.859,13.672,52.734,18.066,12.207,0
1512969220.345,-14.160,12.695,45.410,13.672,69.824,0
1512969220.349,-11.719,18.066,46.875,13.672,58.105,0
1512969220.353,-15.625,21.973,55.664,20.996,13.184,0
1512969220.357,-6.348,25.391,55.176,21.973,18.555,0
1512969220.361,-5.859,23.926,50.781,13.672,74.219,0
1512969220.365,-1.465,37.109,62.012,15.137,57.617,0
1512969220.369,8.301,36.621,70.312,7.812,28.320,0
1512969220.372,3.906,22.949,54.688,0.977,32.715,0
1512969220.376,-10.254,19.531,38.086,7.812,82.520,0
1512969220.380,-8.301,14.648,41.016,6.836,110.352,0
1512969220.384,0.488,19.531,46.387,1.953,39.062,0
1512969220.388,2.441,23.438,37.598,1.953,8.301,0
1512969220.392,0.977,22.949,35.645,5.371,17.578,0
1512969220.396,-1.953,38.574,46.875,11.230,61.035,0
1512969220.400,-1.465,44.922,59.082,8.789,99.121,0
1512969220.404,-5.371,34.668,56.641,6.836,15.625,0
1512969220.408,-1.953,28.809,46.387,8.301,12.695,0
1512969220.412,-4.883,28.809,31.738,-0.488,71.777,0
1512969220.415,-7.324,28.320,28.320,-6.348,57.129,0
1512969220.419,-0.488,34.668,38.086,7.812,6.836,0
1512969220.423,2.930,38.086,42.969,33.203,-21.973,0
1512969220.427,0.000,31.250,43.457,35.156,42.969,0
1512969220.431,-3.906,32.227,49.316,26.367,98.145,0
1512969220.435,1.953,35.645,50.293,31.250,37.109,0
1512969220.439,13.672,43.457,41.016,23.438,-34.668,0
1512969220.443,16.602,47.363,40.039,16.113,17.578,0
1512969220.447,16.602,41.992,50.293,16.602,95.703,0
1512969220.451,20.996,41.016,43.945,19.531,22.949,0
1512969220.455,14.648,43.457,29.297,20.996,-60.059,0
1512969220.458,17.090,41.992,33.203,16.602,14.160,0
1512969220.462,14.648,29.297,40.039,12.695,82.520,0
1512969220.466,2.441,26.367,40.039,16.113,52.246,0
1512969220.470,1.465,31.250,41.504,23.438,-1.953,0
1512969220.474,6.836,29.785,38.574,25.879,13.184,0
1512969220.478,5.371,26.367,43.457,25.879,74.707,0
1512969220.482,-3.418,32.715,50.293,22.949,44.922,0
1512969220.486,-5.371,44.434,48.828,22.461,-7.812,0
1512969220.490,5.371,50.781,52.734,33.203,20.020,0
1512969220.494,1.953,37.598,52.246,34.668,66.406,0
1512969220.497,-2.930,19.043,46.875,23.926,82.031,0
1512969220.501,-0.488,21.973,48.828,20.508,57.617,0
1512969220.505,-8.789,24.414,41.992,13.184,21.484,0
1512969220.509,-11.230,20.020,41.016,-0.977,75.684,0
1512969220.513,-4.395,20.508,55.664,-5.371,117.676,0
1512969220.517,-7.812,26.855,59.082,1.953,42.480,0
1512969220.521,-11.230,32.227,58.594,-5.371,4.883,0
1512969220.525,-14.648,42.480,57.617,-1.953,15.137,0
1512969220.529,-27.832,30.762,44.922,0.977,57.129,0
1512969220.533,-28.809,16.113,41.504,-10.254,48.828,0
1512969220.537,-21.484,17.090,50.293,-5.371,13.672,0
1512969220.540,-23.926,16.113,53.223,-4.883,8.301,0
1512969220.544,-17.578,18.066,51.758,-9.277,48.828,0
1512969220.548,-10.742,14.648,42.480,-18.555,93.262,0
1512969220.552,-5.371,26.855,55.664,-14.648,21.484,0
1512969220.556,-1.465,34.668,69.336,-1.465,-40.527,0
1512969220.560,-11.719,18.066,40.039,-12.695,41.016,0
1512969220.564,-10.742,27.832,35.156,-20.020,83.984,0
1512969220.568,-9.766,41.504,41.016,-14.648,29.785,0
1512969220.572,-14.160,30.273,35.645,-15.137,-34.668,0
1512969220.576,-20.508,16.113,41.016,-13.184,-14.648,0
1512969220.580,-20.996,12.207,42.480,-7.812,83.008,0
1512969220.583,-12.695,20.020,39.551,-9.277,73.242,0
1512969220.587,-6.836,30.762,55.176,-2.930,-7.812,0
1512969220.591,-15.137,35.156,55.664,7.324,10.254,0
1512969220.595,-27.344,30.762,31.250,2.441,103.027,0
1512969220.599,-21.973,26.855,32.227,-1.465,90.332,0
1512969220.603,2.930,39.062,41.016,2.930,-8.301,0
1512969220.607,9.277,46.875,32.227,2.930,-21.973,0
1512969220.611,-5.371,24.902,23.926,3.906,62.988,0
1512969220.615,-7.812,19.531,34.180,11.719,70.312,0
1512969220.619,-3.418,32.227,45.410,17.578,-14.160,0
1512969220.622,3.906,30.273,39.062,8.301,-57.129,0
1512969220.626,15.137,28.320,43.457,6.348,31.250,0
1512969220.630,7.812,37.598,55.176,15.625,77.637,0
1512969220.634,-1.465,39.551,45.410,27.832,41.016,1
1512969220.638,-3.906,40.039,42.480,36.621,17.090,0
1512969220.642,-10.742,35.645,43.457,31.738,59.082,0
1512969220.646,-0.977,34.668,47.363,34.668,119.629,0
1512969220.650,14.648,37.109,47.363,36.621,78.613,0
1512969220.654,15.625,40.039,40.039,29.297,-4.883,0
1512969220.658,7.324,37.598,39.551,22.461,27.344,0
1512969220.662,10.254,32.227,48.828,18.555,74.707,0
1512969220.665,19.043,38.086,51.270,17.578,54.199,0
1512969220.669,24.414,41.016,39.551,27.832,17.578,0
1512969220.673,15.625,36.621,31.738,35.156,13.672,0
1512969220.677,0.977,31.250,32.227,19.043,37.109,0
1512969220.681,1.953,30.762,37.109,17.090,55.664,0
1512969220.685,10.254,48.340,55.664,30.762,40.527,0
1512969220.689,14.160,45.898,62.500,30.762,19.531,0
1512969220.693,8.301,25.879,47.363,22.461,57.129,0
1512969220.697,1.465,27.832,46.387,19.531,92.773,0
1512969220.701,5.371,39.062,64.453,28.320,57.129,0
1512969220.705,12.695,44.434,58.594,39.062,18.066,0
1512969220.708,20.508,38.086,39.551,27.344,53.711,0
1512969220.712,15.137,34.180,34.668,14.160,71.289,0
1512969220.716,8.301,30.762,36.621,12.695,62.988,0
1512969220.720,15.625,40.527,52.246,24.902,1.465,0
1512969220.724,13.184,46.875,55.664,31.738,-35.645,0
1512969220.728,-2.441,32.227,52.734,24.414,38.574,0
1512969220.732,-6.348,23.438,48.828,23.926,82.031,0
1512969220.736,3.906,34.180,52.734,23.438,5.859,0
1512969220.740,5.371,36.133,60.059,19.531,-23.438,0
1512969220.744,2.441,25.879,42.480,3.906,73.242,0
1512969220.747,10.742,31.738,41.504,0.000,98.633,0
1512969220.751,15.625,32.227,47.852,4.883,27.832,0
1512969220.755,17.578,25.391,45.410,9.277,-29.297,0
1512969220.759,21.973,29.297,46.387,15.137,13.672,0
1512969220.763,16.602,33.203,46.875,7.812,79.102,0
1512969220.767,7.324,34.180,46.387,5.371,1.953,0
1512969220.771,-2.441,28.320,38.086,8.301,-62.988,0
1512969220.775,-4.395,26.855,43.457,8.789,20.996,0
1512969220.779,2.930,33.203,52.246,-1.953,86.914,0
1512969220.783,0.488,28.809,41.504,-5.371,45.898,0
1512969220.787,2.930,27.832,31.250,3.418,-14.160,0
1512969220.790,5.859,33.203,35.645,2.930,14.160,0
1512969220.794,9.277,33.691,50.293,8.301,70.801,0
1512969220.798,8.301,31.738,44.434,7.324,74.219,0
1512969220.802,3.418,28.809,30.273,0.000,8.301,0
1512969220.806,12.207,33.691,31.738,3.906,-31.738,0
1512969220.810,10.742,45.898,44.434,1.953,48.340,0
1512969220.814,6.348,43.457,48.828,3.906,85.938,0
1512969220.818,3.906,28.809,36.133,12.695,36.621,0
1512969220.822,9.277,34.668,28.320,11.230,19.531,0
1512969220.826,2.930,39.062,31.738,5.859,41.016,0
1512969220.830,-10.742,33.691,36.621,20.020,82.031,0
1512969220.833,-6.348,40.527,35.156,25.879,71.777,0
1512969220.837,2.441,44.922,35.156,12.695,22.949,0
1512969220.841,-9.277,37.598,38.574,0.977,36.133,0
1512969220.845,-16.113,35.645,41.504,-4.395,79.102,0
1512969220.849,-3.418,43.457,42.480,1.953,77.637,0
1512969220.853,-0.488,45.410,37.598,-1.953,20.996,0
1512969220.857,-8.789,39.551,28.809,-4.395,-18.555,0
1512969220.861,-10.742,28.320,34.668,3.906,44.922,0
1512969220.865,-7.812,23.926,39.062,11.719,88.867,0
1512969220.869,-7.324,27.832,40.039,20.020,4.883,0
1512969220.872,-3.906,38.086,52.246,23.926,-33.203,0
1512969220.876,-7.324,28.320,40.527,12.207,58.594,0
1512969220.880,-5.371,22.461,23.926,11.719,129.883,0
1512969220.884,-0.977,30.273,28.809,9.277,58.594,0
1512969220.888,-1.465,37.598,38.574,-7.324,-9.277,0
1512969220.892,5.859,46.875,46.387,1.953,50.293,0
1512969220.896,-2.441,34.180,38.574,13.184,112.305,0
1512969220.900,-3.906,23.926,39.062,6.348,73.730,0
1512969220.904,2.441,30.762,46.387,-2.930,-14.648,0
1512969220.908,-3.418,33.203,32.227,-12.695,-5.371,0
1512969220.912,-9.766,30.273,26.367,-7.324,77.637,0
1512969220.915,-11.719,34.180,34.180,6.836,80.566,0
1512969220.919,-8.301,38.086,39.551,-2.930,28.320,0
1512969220.923,0.977,41.504,43.945,-6.348,7.812,0
1512969220.927,0.488,41.992,40.039,-5.371,60.059,0
1512969220.931,-7.812,33.691,42.969,-4.883,100.586,0
1512969220.935,-11.719,31.250,45.898,3.418,27.344,0
1512969220.939,-6.836,35.645,38.086,3.906,-4.395,0
1512969220.943,-2.441,30.762,34.180,-11.230,57.129,0
1512969220.947,-13.672,27.344,28.809,-18.066,71.289,0
1512969220.951,-15.625,32.715,35.156,-5.859,1.465,0
1512969220.955,-14.160,33.203,41.992,2.441,-19.043,0
1512969220.958,-24.902,26.855,37.598,3.906,25.391,0
1512969220.962,-11.230,35.645,52.734,-2.441,74.219,0
1512969220.966,-4.395,39.551,57.129,-14.648,54.199,0
1512969220.970,-6.836,28.320,46.875,-13.672,8.789,0
1512969220.974,-6.348,19.043,34.668,-1.953,1.953,0
1512969220.978,-8.301,22.461,32.715,-0.488,70.312,0
1512969220.982,-6.348,25.391,38.574,-2.930,109.375,0
1512969220.986,-5.859,22.461,44.922,-1.465,38.574,0
1512969220.990,-7.324,27.832,47.852,3.906,3.906,0
1512969220.994,-9.277,27.344,36.621,3.418,53.711,0
1512969220.997,-15.625,24.902,39.062,1.953,95.703,0
1512969221.001,-4.395,49.805,60.547,12.207,62.500,0
1512969221.005,6.348,51.758,56.641,5.859,1.953,0
1512969221.009,0.977,28.809,44.434,1.465,28.809,0
1512969221.013,-4.883,23.438,38.574,7.324,90.820,0
1512969221.017,-13.184,20.996,31.250,4.395,64.941,0
1512969221.021,-10.254,35.645,37.109,12.695,-28.809,0
1512969221.025,2.441,43.457,47.852,17.090,-18.555,0
1512969221.029,9.766,36.621,49.316,7.324,79.590,0
1512969221.033,3.906,28.809,41.992,1.953,66.406,0
1512969221.037,4.883,29.297,41.016,8.301,-20.020,0
1512969221.040,1.465,34.180,40.039,9.277,-22.461,0
1512969221.044,-8.301,40.527,45.898,15.625,67.871,0
1512969221.048,-2.930,45.410,48.340,17.578,71.777,0
1512969221.052,1.953,43.457,41.992,6.836,-18.066,0
1512969221.056,0.000,30.273,44.434,3.906,-21.484,0
1512969221.060,-3.418,26.367,50.293,8.301,60.547,0
1512969221.064,-9.766,31.250,41.016,4.883,93.750,0
1512969221.068,-7.812,29.297,37.109,10.254,-1.953,0
1512969221.072,-4.395,27.832,40.527,11.230,-44.434,0
1512969221.076,-4.395,16.602,37.598,2.441,28.320,0
1512969221.080,-1.953,28.320,36.621,15.137,88.379,0
1512969221.083,-3.418,51.758,39.551,25.391,45.898,0
1512969221.087,-1.465,46.875,39.062,25.879,-32.715,0
1512969221.091,-3.906,27.344,44.434,19.531,11.230,0
1512969221.095,-5.371,25.391,45.898,18.555,76.660,0
1512969221.099,0.000,31.250,36.621,22.949,54.199,0
1512969221.103,-3.418,28.320,43.457,12.207,12.695,0
1512969221.107,-7.812,21.484,36.133,-5.859,14.648,0
1512969221.111,-5.371,20.508,29.297,-6.348,85.449,0
1512969221.115,-9.277,30.762,38.574,9.766,119.629,0
1512969221.119,-11.719,34.180,38.086,9.277,36.621,0
1512969221.122,-12.695,37.598,38.086,7.812,-7.324,0
1512969221.126,-2.441,40.527,44.434,18.066,54.688,0
1512969221.130,-2.441,33.691,35.645,11.230,116.211,0
1512969221.134,-16.602,26.367,34.668,11.230,67.383,0
1512969221.138,-10.742,29.785,42.480,17.578,26.367,0
1512969221.142,-4.395,30.762,41.504,7.812,29.297,0
1512969221.146,-5.859,26.367,39.062,4.883,58.105,0
1512969221.150,-7.324,28.320,34.668,1.953,81.543,0
1512969221.154,-8.789,40.039,44.434,8.301,5.371,0
1512969221.158,-6.836,41.016,47.363,11.230,9.766,0
1512969221.162,4.883,37.598,41.504,0.488,76.660,0
1512969221.165,-2.930,32.715,36.621,-1.465,81.543,0
1512969221.169,-12.207,31.738,45.410,-0.488,17.090,0
1512969221.173,-3.906,30.762,53.711,5.371,0.488,0
1512969221.177,-14.648,32.227,42.480,6.836,68.359,0
1512969221.181,-21.973,39.551,41.016,0.000,110.840,0
1512969221.185,-14.160,37.109,49.805,-5.371,38.086,0
1512969221.189,-11.719,32.227,41.016,-7.324,-34.668,0
1512969221.193,-12.207,35.156,40.039,-5.371,45.410,0
1512969221.197,-12.207,39.551,42.969,-11.230,106.445,0
1512969221.201,-11.719,34.668,44.922,-5.371,30.762,0
1512969221.205,-15.625,35.156,52.734,14.648,-26.855,0
1512969221.208,-20.996,37.598,48.340,5.371,33.691,0
1512969221.212,-10.254,34.668,47.852,-6.836,123.047,0
1512969221.216,2.441,33.691,52.246,4.395,96.191,0
1512969221.220,7.812,38.574,54.688,18.555,7.812,0
1512969221.224,12.695,44.922,49.316,19.043,-2.441,0
1512969221.228,9.766,48.340,55.664,16.113,74.707,0
1512969221.232,-4.883,35.156,52.246,18.555,80.078,0
1512969221.236,0.977,37.109,43.945,21.973,-19.531,0
1512969221.240,11.230,46.875,58.105,24.902,-39.062,0
1512969221.244,-3.418,34.668,56.152,20.996,33.691,0
1512969221.247,-7.812,33.203,45.410,14.648,100.586,0
1512969221.251,-12.207,32.715,39.551,14.160,26.855,0
1512969221.255,-16.602,26.855,40.527,16.602,-27.344,0
1512969221.259,-9.277,32.227,54.199,21.484,37.109,0
1512969221.263,-3.906,42.969,52.246,16.113,78.613,0
1512969221.267,2.930,38.574,35.156,1.953,50.781,0
1512969221.271,0.488,31.738,44.922,0.488,-2.930,0
1512969221.275,-9.277,35.645,64.453,16.113,24.414,0
1512969221.279,-9.277,32.715,57.617,24.902,54.688,0
1512969221.283,-1.465,33.691,43.945,13.184,54.199,0
1512969221.287,-0.977,38.574,41.016,1.953,6.836,0
1512969221.290,-3.418,41.992,40.527,10.254,-8.789,0
1512969221.294,-0.488,41.016,47.363,7.812,87.402,0
1512969221.298,-1.953,30.762,48.340,-6.348,116.211,0
1512969221.302,-3.906,27.344,40.039,7.812,12.695,0
1512969221.306,1.953,37.109,48.828,15.625,-29.297,0
1512969221.310,-0.488,32.715,53.223,2.930,41.504,0
1512969221.314,6.836,28.320,39.062,-2.441,92.773,0
1512969221.318,9.277,34.668,35.156,-0.977,39.551,0
1512969221.322,-2.930,34.668,31.738,2.930,-44.434,0
1512969221.326,-3.418,31.250,34.180,8.789,16.602,0
1512969221.330,-4.883,24.414,42.969,16.113,114.258,0
1512969221.333,-8.301,20.996,49.316,10.742,60.059,0
1512969221.337,-7.324,23.438,60.059,9.277,-7.324,0
1512969221.341,-1.465,21.973,54.199,0.000,28.809,0
1512969221.345,11.230,30.273,39.551,-5.859,99.121,0
1512969221.349,10.742,41.504,47.363,3.418,90.332,0
1512969221.353,2.441,34.668,48.340,6.836,11.719,0
1512969221.357,1.465,24.902,39.062,6.836,13.184,0
1512969221.361,5.859,31.250,43.457,7.812,74.219,0
1512969221.365,4.883,40.039,45.410,13.672,88.379,0
1512969221.369,3.418,35.645,48.828,12.695,12.207,0
1512969221.372,2.930,27.832,58.105,7.324,-19.043,0
1512969221.376,-0.488,35.156,58.594,11.230,62.012,0
1512969221.380,-3.906,28.809,43.457,14.648,106.445,0
1512969221.384,-2.930,25.879,35.156,19.531,41.016,0
1512969221.388,-3.418,39.551,40.039,21.973,9.277,0
1512969221.392,-0.977,34.668,41.504,14.648,39.062,0
1512969221.396,4.883,27.832,47.363,8.301,79.590,0
1512969221.400,7.324,34.668,45.898,17.578,89.844,0
1512969221.404,12.695,36.621,45.898,26.855,-6.348,0
1512969221.408,16.602,39.551,57.617,27.832,-19.043,0
1512969221.412,20.508,44.434,51.758,33.203,62.012,0
1512969221.415,19.043,27.832,33.203,36.621,49.316,0
1512969221.419,5.859,18.555,27.344,41.016,0.488,0
1512969221.423,2.441,24.414,34.180,35.156,-7.812,0
1512969221.427,-0.977,21.973,38.086,22.461,29.785,0
1512969221.431,-4.883,24.902,39.062,18.555,69.824,0
1512969221.435,-0.488,38.574,52.734,26.855,44.922,0
1512969221.439,-12.207,35.156,65.430,36.133,-7.812,0
1512969221.443,-21.973,22.461,50.293,32.227,10.254,0
1512969221.447,-17.090,22.461,44.434,21.973,74.707,0
1512969221.451,-6.348,34.180,49.316,20.508,74.219,0
1512969221.455,-6.836,39.062,35.645,17.090,24.902,0
1512969221.458,-18.066,25.391,36.621,12.695,11.230,0
1512969221.462,-15.625,18.066,37.109,5.371,66.406,0
1512969221.466,3.418,29.785,44.922,11.230,91.797,0
1512969221.470,3.906,27.832,50.781,13.672,-10.742,0
1512969221.474,-11.230,31.738,54.688,24.414,-71.289,0
1512969221.478,-7.324,41.504,60.547,31.738,14.160,0
1512969221.482,-11.230,27.832,45.410,6.836,62.012,0
1512969221.486,-32.715,20.508,35.645,-12.207,-7.324,0
1512969221.490,-30.273,28.809,44.922,-10.742,-20.996,0
1512969221.494,-11.719,40.527,44.434,4.883,71.777,0
1512969221.497,-16.602,37.109,37.598,5.371,82.031,0
1512969221.501,-16.602,18.555,39.551,-1.465,19.043,0
1512969221.505,-5.859,23.926,52.734,7.324,-5.859,0
1512969221.509,-13.184,32.715,51.270,11.719,41.992,0
1512969221.513,-16.602,29.785,40.527,3.906,105.469,0
1512969221.517,-2.930,34.668,37.109,2.930,42.480,0
1512969221.521,9.277,41.504,43.457,2.441,-43.457,0
1512969221.525,7.324,40.039,43.945,-3.906,19.531,0
1512969221.529,0.977,36.621,32.715,-2.441,85.449,0
1512969221.533,-10.254,32.715,38.086,1.465,46.875,0
1512969221.537,-20.020,35.645,46.875,-4.395,-11.230,0
1512969221.540,-15.625,38.086,47.363,-7.812,5.371,0
1512969221.544,-6.348,36.621,37.109,-14.160,70.801,0
1512969221.548,-8.301,37.109,30.762,-10.254,63.477,0
1512969221.552,-15.137,30.273,33.203,5.859,20.020,0
1512969221.556,-7.812,34.180,37.109,15.137,-3.418,0
1512969221.560,3.418,35.645,48.828,11.230,22.461,0
1512969221.564,9.766,39.551,45.898,10.742,63.965,0
1512969221.568,11.719,54.199,41.016,18.555,44.434,0
1512969221.572,9.766,55.664,35.156,14.160,6.836,0
1512969221.576,11.230,47.852,32.227,17.578,-1.465,0
1512969221.580,19.531,55.664,41.992,25.879,44.434,0
1512969221.583,19.043,64.453,40.527,15.137,66.406,0
1512969221.587,22.949,65.430,41.504,15.625,-5.371,0
1512969221.591,22.461,62.012,41.016,24.414,5.371,0
1512969221.595,23.926,63.477,46.875,35.645,64.941,0
1512969221.599,36.133,63.477,62.012,37.598,46.875,0
1512969221.603,20.020,54.688,56.641,34.180,-6.348,0
1512969221.607,4.883,49.805,44.434,30.762,-51.758,0
1512969221.611,17.578,50.293,41.992,20.996,9.277,0
1512969221.615,24.902,58.105,48.828,30.762,68.848,0
1512969221.619,21.484,63.477,54.199,42.969,1.465,0
1512969221.622,17.578,58.105,48.340,36.133,-51.270,0
1512969221.626,21.484,57.129,44.922,27.832,-8.789,0
1512969221.630,22.949,52.734,54.688,25.391,71.289,0
1512969221.634,25.391,48.828,65.918,18.066,25.391,0
1512969221.638,27.344,48.340,69.336,18.555,-45.410,0
1512969221.642,14.160,40.039,72.754,26.855,14.160,0
1512969221.646,1.465,28.809,56.641,18.555,64.453,0
1512969221.650,7.812,31.738,42.969,15.625,48.828,0
1512969221.654,18.555,40.039,57.617,29.297,-39.062,0
1512969221.658,11.230,41.504,61.523,26.855,-35.645,0
1512969221.662,10.254,43.457,57.129,22.461,52.246,0
1512969221.665,8.789,37.109,70.312,29.785,56.152,0
1512969221.669,-0.977,36.133,73.242,19.531,-8.789,0
1512969221.673,2.441,34.668,70.312,2.441,-30.273,0
1512969221.677,5.371,29.297,60.059,0.000,50.781,0
1512969221.681,-3.418,28.320,45.898,2.930,73.730,0
1512969221.685,-9.766,21.973,49.805,3.906,-4.395,0
1512969221.689,1.953,32.227,59.082,0.977,-42.969,0
1512969221.693,3.418,34.180,66.895,-3.418,3.418,0
1512969221.697,-1.953,28.809,58.594,-8.789,35.645,0
1512969221.701,5.371,40.039,47.363,-13.672,-14.648,0
1512969221.705,-1.465,39.551,46.875,-11.230,-43.457,0
1512969221.708,-13.184,36.133,54.199,-1.953,10.254,0
1512969221.712,-15.137,33.691,62.988,-2.441,65.918,0
1512969221.716,-7.812,31.250,65.918,3.418,7.324,0
1512969221.720,-4.883,33.203,52.734,5.859,-52.734,0
1512969221.724,-7.812,26.855,41.992,-1.465,-30.273,0
1512969221.728,-14.648,16.113,44.434,-14.648,27.832,0
1512969221.732,-16.113,18.555,46.387,-19.531,34.180,0
1512969221.736,-0.977,27.344,44.434,-9.277,-43.945,0
1512969221.740,7.812,29.785,40.039,-3.906,-51.270,0
1512969221.744,-10.254,32.227,39.062,-5.859,12.207,0
1512969221.747,-11.719,35.156,52.246,9.766,39.551,0
1512969221.751,3.906,44.434,56.641,10.742,19.531,0
1512969221.755,1.465,40.039,42.480,-5.859,-17.090,0
1512969221.759,-0.488,29.785,35.645,-1.953,5.859,0
1512969221.763,-2.441,33.203,32.715,-7.812,94.727,0
1512969221.767,2.930,43.457,34.180,-3.906,86.914,0
1512969221.771,15.625,38.574,33.203,9.766,-0.977,0
1512969221.775,7.812,25.391,27.344,5.371,30.273,0
1512969221.779,-0.977,30.273,32.715,0.488,87.402,0
1512969221.783,10.742,38.574,43.457,7.812,57.129,0
1512969221.787,21.484,41.504,43.945,5.371,-24.414,0
1512969221.790,12.695,41.504,32.227,-3.906,-43.457,0
1512969221.794,2.930,43.945,36.133,0.977,38.086,0
1512969221.798,2.930,48.828,41.504,10.254,60.547,0
1512969221.802,1.953,44.922,34.180,4.395,-24.902,0
1512969221.806,-3.906,48.340,31.250,6.836,-53.223,0
1512969221.810,-5.859,41.016,31.738,11.230,42.969,0
1512969221.814,-3.418,31.738,40.039,4.883,83.984,0
1512969221.818,1.465,39.062,43.457,12.207,6.348,0
1512969221.822,7.812,40.527,36.133,15.137,-45.898,0
1512969221.826,16.602,39.551,50.293,13.672,14.648,0
1512969221.830,20.996,40.039,57.617,16.113,82.520,0
1512969221.833,24.414,47.363,48.340,15.625,34.668,0
1512969221.837,24.414,45.410,41.504,15.625,-42.969,0
1512969221.841,17.578,38.574,37.109,12.207,-6.348,0
1512969221.845,12.695,28.809,43.945,14.160,72.266,0
1512969221.849,11.719,24.902,52.246,24.902,1.953,0
1512969221.853,6.836,33.691,43.945,21.484,-80.566,0
1512969221.857,2.441,32.227,33.691,17.090,-25.879,0
1512969221.861,5.371,28.320,50.781,20.996,43.945,0
1512969221.865,9.766,29.297,55.176,11.230,49.805,0
1512969221.869,19.043,43.457,54.199,34.180,0.977,0
1512969221.872,23.926,45.410,58.594,40.039,-33.691,0
1512969221.876,17.090,36.621,43.457,17.090,24.902,0
1512969221.880,15.137,37.109,46.875,20.996,70.801,0
1512969221.884,15.137,39.551,59.082,26.855,31.250,0
1512969221.888,9.277,39.551,46.875,23.926,-2.930,0
1512969221.892,9.766,35.645,42.969,15.137,-0.977,0
1512969221.896,17.090,38.574,50.781,6.836,41.992,2
1512969221.900,12.207,29.297,48.828,9.277,41.016,0
1512969221.904,9.277,29.297,49.316,23.926,-20.996,0
1512969221.908,7.812,33.203,45.410,20.996,-2.441,0
1512969221.912,10.742,35.645,48.340,14.160,47.852,0
1512969221.915,14.160,39.062,48.828,16.602,76.172,0
1512969221.919,3.906,34.180,45.410,12.207,8.301,0
1512969221.923,-4.395,27.832,41.992,8.789,-19.531,0
1512969221.927,0.488,33.691,52.246,13.672,44.922,0
1512969221.931,-0.488,38.086,63.477,2.930,81.543,0
1512969221.935,2.441,33.203,48.340,-5.371,14.648,0
1512969221.939,7.324,29.785,34.180,-14.160,-50.293,0
1512969221.943,-2.441,26.855,30.273,-14.648,20.508,0
1512969221.947,-0.488,38.086,43.457,5.859,72.266,0
1512969221.951,4.395,49.316,53.711,16.602,15.625,0
1512969221.955,5.859,45.410,40.039,7.812,-35.156,0
1512969221.958,3.418,37.109,41.504,7.812,19.043,0
1512969221.962,3.906,38.086,54.199,13.672,77.148,0
1512969221.966,1.465,29.785,38.574,0.488,41.016,0
1512969221.970,9.766,41.016,40.527,6.836,-10.254,0
1512969221.974,27.832,58.594,55.176,21.973,-31.250,0
1512969221.978,8.301,36.133,36.621,17.578,31.738,0
1512969221.982,-3.418,33.203,43.457,17.578,63.477,0
1512969221.986,6.836,53.711,56.152,16.113,-15.625,0
1512969221.990,13.184,54.199,54.688,17.578,-32.715,0
1512969221.994,11.719,34.180,52.734,19.043,33.203,0
1512969221.997,0.000,29.785,37.109,12.695,50.293,0
1512969222.001,1.465,35.156,34.668,19.043,2.441,0
1512969222.005,10.254,39.551,41.016,31.250,-12.695,0
1512969222.009,1.953,35.156,43.457,20.020,32.227,0
1512969222.013,1.953,31.738,44.922,7.324,79.102,0
1512969222.017,9.277,33.691,44.434,17.578,57.617,0
1512969222.021,10.742,36.133,46.387,17.090,0.977,0
1512969222.025,3.418,37.598,41.016,3.418,15.137,0
1512969222.029,0.000,36.621,45.410,6.836,35.156,0
1512969222.033,3.418,32.227,60.059,19.043,26.855,0
1512969222.037,-3.418,27.344,45.410,20.996,11.719,0
1512969222.040,0.977,34.180,34.180,23.438,-15.137,0
1512969222.044,-0.488,33.691,47.852,29.785,31.250,0
1512969222.048,-9.766,25.879,39.551,20.020,83.496,0
1512969222.052,8.789,37.598,38.086,12.207,25.879,0
1512969222.056,11.719,39.551,59.082,20.020,-14.160,0
1512969222.060,1.953,38.086,58.594,25.879,61.035,0
1512969222.064,2.441,42.969,52.246,21.973,110.840,0
1512969222.068,-4.395,32.715,57.129,14.160,44.922,0
1512969222.072,-8.301,32.715,53.223,4.395,-7.812,0
1512969222.076,-0.488,45.898,53.711,15.625,9.277,0
1512969222.080,-2.441,38.574,57.617,22.949,74.219,0
1512969222.083,-12.207,31.738,46.387,12.695,57.617,0
1512969222.087,-5.371,36.133,42.969,17.578,-13.184,0
1512969222.091,8.789,42.480,59.570,20.508,6.836,0
1512969222.095,15.625,42.480,64.941,18.066,89.355,0
1512969222.099,10.254,39.062,55.664,13.672,79.590,0
1512969222.103,-5.371,39.062,42.969,7.812,25.879,0
1512969222.107,-14.160,34.668,37.598,9.766,47.363,0
1512969222.111,-5.859,37.109,52.734,12.695,83.496,0
1512969222.115,1.465,48.340,53.711,13.672,92.285,0
1512969222.119,10.742,56.641,44.922,15.137,20.020,0
1512969222.122,13.184,48.828,51.758,18.066,-19.043,0
1512969222.126,-2.441,30.762,53.711,11.719,68.359,0
1512969222.130,-3.418,35.156,44.434,2.930,80.566,0
1512969222.134,5.859,45.410,36.133,-3.418,16.602,0
1512969222.138,1.953,42.480,29.297,1.465,-12.207,0
1512969222.142,-15.625,38.086,27.832,7.324,34.668,0
1512969222.146,-21.484,35.645,37.598,2.930,101.074,0
1512969222.150,-14.160,43.945,41.016,5.371,76.172,0
1512969222.154,-7.324,61.035,41.504,15.625,36.133,0
1512969222.158,-6.348,55.176,48.340,14.160,31.250,0
1512969222.162,2.930,48.340,43.457,5.859,73.730,0
1512969222.165,4.883,44.434,41.016,-5.371,63.965,0
1512969222.169,-1.465,31.738,38.574,-14.648,6.348,0
1512969222.173,3.418,32.715,36.133,-15.625,-1.953,0
1512969222.177,-2.930,41.016,37.109,-5.859,37.598,0
1512969222.181,-7.812,42.480,37.598,-0.488,49.316,0
1512969222.185,-11.719,32.715,36.133,-6.348,12.695,0
1512969222.189,-4.883,39.551,34.180,1.953,-28.809,0
1512969222.193,0.488,54.199,34.180,19.043,26.855,0
1512969222.197,-1.465,45.410,35.156,22.949,111.816,0
1512969222.201,0.488,38.574,43.457,18.555,62.988,0
1512969222.205,4.883,39.062,40.527,5.859,-35.156,0
1512969222.208,-2.441,31.738,33.203,-6.348,-25.879,0
1512969222.212,-1.465,29.297,38.574,0.488,36.133,0
1512969222.216,0.000,36.133,37.598,3.906,46.875,0
1512969222.220,9.277,41.992,41.016,12.207,0.000,0
1512969222.224,14.648,37.598,47.363,12.695,-19.043,0
1512969222.228,-6.836,31.738,35.156,8.789,59.570,0
1512969222.232,-13.184,30.273,30.273,12.207,80.566,0
1512969222.236,5.371,43.945,46.387,18.555,-21.484,0
1512969222.240,12.207,41.016,51.758,23.438,-62.500,0
1512969222.244,5.859,8.789,35.156,11.719,42.480,0
1512969222.247,12.207,-0.488,45.898,15.625,94.238,0
1512969222.251,-4.395,-1.465,54.199,15.137,22.949,0
1512969222.255,-14.648,-5.371,38.574,9.277,-38.086,0
1512969222.259,-3.418,5.371,35.645,17.090,7.324,0
1512969222.263,-9.277,9.277,37.109,4.395,95.703,0
1512969222.267,-15.625,5.859,42.480,1.953,40.039,0
1512969222.271,-17.578,6.836,55.176,13.184,-56.641,0
1512969222.275,-11.719,12.695,66.406,15.137,-0.488,0
1512969222.279,-1.953,13.672,60.059,15.137,79.590,0
1512969222.283,-6.348,14.160,50.781,13.672,75.684,0
1512969222.287,-7.324,16.113,45.410,11.230,13.672,0
1512969222.290,-4.883,14.160,32.227,3.418,15.625,0
1512969222.294,-20.508,5.371,30.273,-2.441,78.125,0
1512969222.298,-26.855,2.930,45.410,0.000,78.125,0
1512969222.302,-15.625,14.160,55.176,8.301,31.738,0
1512969222.306,-8.301,15.625,52.734,12.695,-4.395,0
1512969222.310,-1.953,23.926,58.594,13.184,34.180,0
1512969222.314,5.371,27.344,57.617,12.695,55.664,0
1512969222.318,2.930,25.391,49.316,16.602,4.395,0
1512969222.322,-3.906,27.344,43.945,17.090,-1.465,0
1512969222.326,4.395,27.832,40.039,4.395,47.363,0
1512969222.330,13.184,28.320,34.668,3.906,82.520,0
1512969222.333,1.953,18.555,28.320,8.301,71.289,0
1512969222.337,-6.836,16.602,35.645,6.836,14.160,0
1512969222.341,0.488,21.973,36.621,5.371,20.020,0
1512969222.345,4.883,31.738,41.016,-4.395,102.539,0
1512969222.349,-2.930,34.180,47.363,-4.883,104.980,0
1512969222.353,-6.348,28.809,39.062,11.719,18.555,0
1512969222.357,-3.418,31.250,32.227,17.578,-39.551,0
1512969222.361,3.418,31.250,30.762,6.348,22.949,0
1512969222.365,4.395,26.367,28.809,-3.418,67.871,0
1512969222.369,-7.324,24.414,38.086,-2.441,18.555,0
1512969222.372,-6.836,27.832,45.410,4.395,-10.254,0
1512969222.376,-4.883,25.391,38.086,7.812,35.645,0
1512969222.380,-10.742,19.531,31.250,1.953,83.496,0
1512969222.384,-1.465,26.855,35.645,6.348,22.949,0
1512969222.388,9.277,31.250,48.340,7.324,-30.762,0
1512969222.392,9.277,32.227,47.852,12.207,-11.719,0
1512969222.396,-9.277,27.832,43.457,7.324,52.734,3
1512969222.400,-12.695,24.902,41.504,-4.883,45.410,0
1512969222.404,0.488,24.414,36.621,-5.859,-42.969,0
1512969222.408,4.883,24.414,40.527,-2.930,0.977,0
1512969222.412,0.977,21.484,41.992,-8.789,87.891,0
1512969222.415,-4.883,26.367,43.457,-1.465,58.105,0
1512969222.419,-3.906,36.133,46.875,5.859,-2.930,0
1512969222.423,-16.602,20.020,37.598,-7.812,9.277,0
1512969222.427,-16.113,19.043,47.852,-0.977,37.109,0
1512969222.431,-1.953,26.855,44.922,7.812,48.828,0
1512969222.435,-8.301,30.273,38.086,5.371,38.086,0
1512969222.439,-11.719,38.574,54.199,4.395,1.953,0
1512969222.443,-10.742,28.809,56.641,0.488,26.855,0
1512969222.447,-27.344,8.301,38.574,-0.977,37.109,0
1512969222.451,-33.203,6.348,37.109,1.953,2.930,0
1512969222.455,-17.090,17.090,41.992,7.324,-14.160,0
1512969222.458,-20.508,20.020,42.969,10.254,30.762,0
1512969222.462,-16.602,24.902,57.129,4.883,96.191,0
1512969222.466,-2.930,24.902,54.199,-0.977,93.750,0
1512969222.470,-6.348,22.461,41.992,-1.465,15.625,0
1512969222.474,-17.090,23.438,42.480,-5.371,-12.207,0
1512969222.478,-17.578,15.625,37.109,-7.324,61.523,0
1512969222.482,-10.254,13.184,35.645,2.930,90.332,0
1512969222.486,-7.324,18.555,39.551,4.395,22.949,0
1512969222.490,-15.137,19.043,42.969,-3.906,3.418,0
1512969222.494,-19.531,24.414,49.316,1.465,53.223,0
1512969222.497,-21.484,20.508,49.805,-1.953,107.422,0
1512969222.501,-18.555,21.973,53.223,-3.418,65.918,0
1512969222.505,-3.906,30.273,52.734,10.742,-32.227,0
1512969222.509,-7.812,16.602,35.645,2.441,-8.301,0
1512969222.513,-8.789,17.090,31.250,-2.441,57.129,0
1512969222.517,-4.883,26.855,39.551,17.578,42.969,0
1512969222.521,-2.930,30.273,42.969,17.578,0.488,0
1512969222.525,11.719,36.133,36.621,-1.953,5.859,0
1512969222.529,3.906,25.391,23.926,-15.137,80.078,0
1512969222.533,-2.441,18.066,32.227,-9.277,75.684,0
1512969222.537,-3.418,25.391,42.969,-0.488,-3.906,0
1512969222.540,0.977,29.297,42.969,0.488,-7.812,0
1512969222.544,16.113,32.227,38.574,3.906,47.363,0
1512969222.548,14.160,43.945,46.387,21.484,57.617,0
1512969222.552,-0.488,38.086,45.898,25.391,-16.113,0
1512969222.556,2.930,34.180,28.809,25.391,-47.852,0
1512969222.560,-1.465,32.227,25.391,19.043,26.367,0
1512969222.564,-7.812,19.531,26.367,17.578,48.828,0
1512969222.568,10.254,35.156,31.738,33.691,-3.418,0
1512969222.572,18.066,39.062,28.809,19.043,-22.461,0
1512969222.576,23.926,32.227,35.645,12.207,-8.301,0
1512969222.580,33.203,40.039,47.363,29.297,39.551,0
1512969222.583,20.020,34.180,42.969,29.297,25.391,0
1512969222.587,18.555,38.086,41.504,18.555,-40.527,0
1512969222.591,18.066,40.039,35.645,22.949,-14.648,0
1512969222.595,19.531,41.992,41.992,31.738,37.598,0
1512969222.599,30.273,42.969,40.039,26.367,11.230,0
1512969222.603,19.531,27.344,38.086,24.414,-41.992,0
1512969222.607,5.371,22.949,44.434,29.785,-34.180,0
1512969222.611,10.254,32.227,35.645,35.645,13.184,0
1512969222.615,21.973,43.457,35.645,42.969,17.090,0
1512969222.619,19.043,42.480,42.969,35.645,-13.672,0
1512969222.622,19.531,37.109,48.340,26.855,-26.367,0
1512969222.626,26.855,32.227,49.316,28.809,37.598,0
1512969222.630,21.973,24.902,43.945,20.996,76.172,0
1512969222.634,22.461,37.598,45.410,32.227,50.781,0
1512969222.638,24.902,41.016,42.480,41.992,10.254,0
1512969222.642,20.020,27.832,36.133,24.902,-8.789,0
1512969222.646,11.230,24.414,39.062,19.531,40.039,0
1512969222.650,5.371,29.785,38.574,24.414,71.289,0
1512969222.654,12.695,39.062,45.410,27.832,8.301,0
1512969222.658,13.184,34.180,45.898,23.438,-3.906,0
1512969222.662,14.648,30.273,43.457,14.160,47.363,0
1512969222.665,12.695,38.574,48.340,1.953,101.562,0
1512969222.669,10.742,34.180,45.898,0.977,41.016,0
1512969222.673,16.602,38.086,41.504,4.883,-5.859,0
1512969222.677,16.602,42.480,34.180,7.324,78.125,0
1512969222.681,13.672,31.738,44.434,20.020,96.191,0
1512969222.685,8.789,23.926,44.922,16.113,12.695,0
1512969222.689,1.953,21.973,42.480,7.812,-32.715,0
1512969222.693,0.000,23.438,51.270,10.254,43.457,0
1512969222.697,1.953,23.926,39.551,7.324,115.723,0
1512969222.701,0.488,28.320,28.320,-5.371,75.684,0
1512969222.705,-1.465,32.227,33.691,-8.789,3.906,0
1512969222.708,0.000,40.039,35.156,-11.230,48.340,0
1512969222.712,5.859,39.551,29.785,-11.230,105.957,0
1512969222.716,4.395,38.574,37.109,-10.742,84.473,0
1512969222.720,0.488,38.086,43.457,-13.184,27.344,0
1512969222.724,-2.930,28.809,33.691,-16.113,19.531,0
1512969222.728,-2.930,29.785,38.086,-17.090,77.148,0
1512969222.732,-4.883,27.344,40.527,-17.090,66.895,0
1512969222.736,-5.859,30.273,30.762,-15.137,-11.719,0
1512969222.740,-11.719,28.809,25.879,-10.742,23.926,0
1512969222.744,-8.301,27.832,28.320,-6.836,88.379,0
1512969222.747,2.930,31.738,27.832,-7.812,103.027,0
1512969222.751,5.859,43.457,38.574,0.000,74.707,0
1512969222.755,-0.977,41.016,42.480,2.930,62.500,0
1512969222.759,-7.324,34.668,37.598,-1.953,88.867,0
1512969222.763,2.441,41.016,40.527,15.137,119.141,0
1512969222.767,13.184,33.691,40.039,23.438,90.820,0
1512969222.771,14.160,23.438,37.598,14.648,-2.441,0
1512969222.775,-4.395,16.113,28.320,16.602,24.414,0
1512969222.779,-18.066,18.555,31.250,23.438,81.055,0
1512969222.783,-0.488,29.297,49.316,26.367,77.637,0
1512969222.787,10.742,36.621,44.922,20.020,46.875,0
1512969222.790,5.859,38.574,29.785,17.090,34.180,0
1512969222.794,-5.371,30.273,17.578,14.160,83.008,0
1512969222.798,-7.812,29.297,29.785,13.672,117.676,0
1512969222.802,4.883,39.551,46.387,19.531,43.945,0
1512969222.806,10.254,41.016,34.668,12.695,-1.465,0
1512969222.810,7.324,28.809,33.203,6.836,63.477,0
1512969222.814,3.906,15.137,33.203,0.977,135.742,0
1512969222.818,5.859,17.578,31.250,2.441,90.820,0
1512969222.822,10.254,33.203,40.039,19.043,0.977,0
1512969222.826,19.043,44.922,47.363,33.691,31.250,0
1512969222.830,9.277,35.156,40.527,20.020,116.211,0
1512969222.833,-4.395,29.297,31.738,0.977,120.117,0
1512969222.837,1.953,35.156,35.156,2.441,34.668,0
1512969222.841,1.465,40.527,40.039,20.508,31.738,0
1512969222.845,-1.465,40.039,34.668,22.949,113.770,0
1512969222.849,2.930,36.621,34.180,2.930,98.633,0
1512969222.853,5.859,36.621,28.809,-2.441,32.227,0
1512969222.857,5.371,30.762,32.715,4.395,23.926,0
1512969222.861,5.371,28.809,49.805,9.277,81.055,0
1512969222.865,8.789,30.273,48.828,8.301,113.770,0
1512969222.869,13.672,30.762,39.551,8.301,71.777,0
1512969222.872,13.672,28.809,36.621,0.977,50.781,0
1512969222.876,5.371,31.738,33.203,4.395,79.102,0
1512969222.880,-4.883,39.062,43.945,16.113,109.375,0
1512969222.884,-3.418,36.133,38.086,6.348,64.941,0
1512969222.888,-0.977,36.133,28.809,4.395,33.691,0
1512969222.892,-4.395,37.598,37.598,7.812,64.453,0
1512969222.896,-1.953,34.180,51.270,8.301,116.211,4
1512969222.900,-6.348,35.156,49.316,7.812,105.957,0
1512969222.904,-11.230,28.320,40.527,9.277,34.180,0
1512969222.908,-0.977,30.273,39.551,13.672,54.199,0
1512969222.912,0.488,35.645,39.551,1.953,124.512,0
1512969222.915,-3.906,26.367,41.992,0.000,241.699,0
1512969222.919,3.418,30.273,37.598,9.766,280.762,0
1512969222.923,7.324,41.504,40.039,11.719,271.973,0
1512969222.927,2.441,32.227,39.551,7.812,352.539,0
1512969222.931,12.695,32.715,36.621,17.090,398.926,0
1512969222.935,17.578,41.504,44.922,27.344,365.234,0
1512969222.939,2.930,34.180,43.945,18.555,305.664,0
1512969222.943,6.348,29.785,36.621,12.695,339.844,0
1512969222.947,6.836,26.855,41.504,16.113,422.363,0
1512969222.951,1.465,34.668,56.152,23.926,418.945,0
1512969222.955,0.977,38.574,47.363,21.484,326.660,0
1512969222.958,-0.977,28.320,27.344,13.184,297.852,0
1512969222.962,7.812,34.180,35.156,14.160,343.262,0
1512969222.966,3.418,40.527,40.527,19.531,385.742,0
1512969222.970,4.395,39.062,38.574,23.438,326.660,0
1512969222.974,12.207,37.598,40.039,17.578,240.723,0
1512969222.978,1.953,31.250,37.598,22.461,322.754,0
1512969222.982,-7.812,33.203,38.574,40.527,369.629,0
1512969222.986,-5.371,42.480,49.316,41.016,277.344,0
1512969222.990,-12.207,36.133,48.340,24.414,219.727,0
1512969222.994,-1.953,29.785,41.016,15.625,273.438,0
1512969222.997,12.695,35.156,33.203,11.719,341.797,0
1512969223.001,0.977,40.039,36.133,13.184,260.742,0
1512969223.005,-0.977,45.410,40.527,13.672,156.738,0
1512969223.009,1.953,37.598,33.203,12.207,179.688,0
1512969223.013,-3.906,33.203,34.180,18.555,246.582,0
1512969223.017,-4.395,32.715,39.551,13.184,221.680,0
1512969223.021,1.465,41.504,39.062,11.719,135.742,0
1512969223.025,6.348,46.387,39.062,13.184,131.836,0
1512969223.029,-0.488,35.156,54.688,16.602,200.684,0
1512969223.033,-7.812,30.273,46.875,19.043,189.453,0
1512969223.037,-0.977,32.715,23.438,12.207,93.750,0
1512969223.040,-3.418,35.645,26.367,16.113,77.637,0
1512969223.044,-12.207,36.621,37.109,6.836,164.551,0
1512969223.048,-9.277,35.645,35.156,7.324,190.918,0
1512969223.052,0.488,36.133,30.273,19.531,122.559,0
1512969223.056,2.930,41.016,40.039,22.949,99.121,0
1512969223.060,0.977,39.062,48.340,27.344,157.715,0
1512969223.064,-0.488,36.133,42.969,21.973,174.805,0
1512969223.068,-5.371,31.738,36.133,8.789,135.742,0
1512969223.072,-2.930,35.156,44.922,9.277,68.359,0
1512969223.076,-4.395,34.180,41.504,3.418,71.777,0
1512969223.080,-4.395,31.250,30.762,-3.418,158.691,0
1512969223.083,5.371,32.227,35.645,0.977,151.855,0
1512969223.087,4.395,23.926,33.691,1.953,74.707,0
1512969223.091,-2.930,22.461,29.297,-1.465,40.039,0
1512969223.095,0.977,35.156,44.922,1.465,119.629,0
1512969223.099,0.000,37.109,54.199,9.277,144.043,0
1512969223.103,-2.441,29.297,52.246,2.930,66.895,0
1512969223.107,7.812,37.109,57.617,2.930,16.602,0
1512969223.111,-0.977,43.945,47.363,0.977,88.867,0
1512969223.115,-15.625,42.969,35.645,-2.930,148.438,0
1512969223.119,-17.090,39.551,32.715,2.441,74.707,0
1512969223.122,-12.695,32.715,35.645,9.277,32.227,0
1512969223.126,-8.301,27.344,45.410,22.461,94.238,0
1512969223.130,-11.719,21.484,52.246,9.277,180.664,0
1512969223.134,-11.719,25.879,58.594,-11.719,109.863,0
1512969223.138,-6.836,35.645,49.805,-11.230,6.836,0
1512969223.142,-8.789,30.762,36.133,-5.859,45.898,0
1512969223.146,-5.371,20.020,41.504,0.977,109.375,0
1512969223.150,-7.812,25.879,43.457,0.000,104.492,0
1512969223.154,-7.812,43.945,38.086,5.371,-0.488,0
1512969223.158,-6.836,41.504,36.133,6.836,-40.527,0
1512969223.162,-16.602,26.367,42.969,-1.465,70.312,0
1512969223.165,-16.602,30.762,50.293,1.953,116.211,0
1512969223.169,-15.137,38.574,43.945,4.395,27.344,0
1512969223.173,-12.207,32.715,33.203,-6.836,-14.160,0
1512969223.177,-4.395,30.762,27.344,-8.301,45.898,0
1512969223.181,1.953,28.809,36.621,11.719,104.004,0
1512969223.185,4.883,27.832,38.086,17.090,80.078,0
1512969223.189,8.789,32.227,41.016,24.414,36.621,0
1512969223.193,11.230,41.992,56.641,43.945,27.832,0
1512969223.197,6.348,47.852,49.805,35.156,43.457,0
1512969223.201,12.207,57.129,40.527,36.621,47.363,0
1512969223.205,21.973,57.617,50.293,43.945,5.371,0
1512969223.208,9.766,30.273,37.598,19.531,14.160,0
1512969223.212,5.859,26.367,22.949,15.137,77.637,0
1512969223.216,14.160,35.645,29.297,25.879,79.102,0
1512969223.220,12.207,37.598,41.992,19.043,14.648,0
1512969223.224,14.160,40.039,51.758,20.020,-9.766,0
1512969223.228,19.531,44.434,46.387,23.926,45.410,0
1512969223.232,19.531,44.922,26.367,24.414,64.453,0
1512969223.236,27.344,49.316,24.414,28.809,27.344,0
1512969223.240,19.531,52.734,38.574,27.344,-14.160,0
1512969223.244,20.996,54.199,45.410,33.203,0.488,0
1512969223.247,17.090,45.898,29.297,23.438,83.008,0
1512969223.251,1.465,32.227,28.320,26.855,63.477,0
1512969223.255,13.672,39.062,39.062,46.387,-34.180,0
1512969223.259,11.230,42.969,37.109,39.551,-18.555,0
1512969223.263,2.930,36.621,33.203,29.785,99.121,0
1512969223.267,5.371,37.598,25.879,31.250,123.535,0
1512969223.271,0.488,39.062,35.156,23.438,9.277,0
1512969223.275,-4.883,34.668,38.574,13.672,3.906,0
1512969223.279,3.906,37.598,23.438,6.836,117.188,0
1512969223.283,18.066,50.293,31.250,12.207,92.285,0
1512969223.287,13.184,53.711,40.039,20.996,-16.113,0
1512969223.290,13.672,44.434,32.715,12.207,-32.715,0
1512969223.294,23.438,43.945,32.227,13.672,44.922,0
1512969223.298,15.625,47.363,37.109,8.789,75.684,0
1512969223.302,-2.930,35.645,37.109,8.789,4.883,0
1512969223.306,-12.695,31.738,28.320,20.996,-52.246,0
1512969223.310,-18.066,34.180,28.320,14.648,22.461,0
1512969223.314,-18.066,39.551,36.133,14.160,59.570,0
1512969223.318,-19.531,40.527,29.297,16.113,20.020,0
1512969223.322,-12.207,47.363,26.855,14.648,-15.137,0
1512969223.326,7.812,49.805,43.945,15.137,-4.395,0
1512969223.330,11.230,35.156,37.598,9.277,68.848,0
1512969223.333,4.883,35.156,25.391,8.789,54.199,0
1512969223.337,-0.488,39.062,27.832,6.836,-38.574,0
1512969223.341,5.371,38.086,32.227,8.789,-25.879,0
1512969223.345,0.000,34.180,32.227,0.000,48.828,0
1512969223.349,-21.973,32.715,36.621,-10.742,56.152,0
1512969223.353,-15.625,43.457,41.016,6.348,-15.137,0
1512969223.357,-4.395,46.875,36.621,11.719,-42.969,0
1512969223.361,-14.648,32.227,34.668,0.000,30.273,0
1512969223.365,-10.254,26.367,36.133,-2.441,96.191,0
1512969223.369,-1.953,33.691,30.273,-7.324,29.297,0
1512969223.372,-1.953,32.715,30.273,-7.324,-51.270,0
1512969223.376,-1.953,35.645,44.922,0.488,-2.441,0
1512969223.380,0.977,39.062,50.293,5.371,54.688,0
1512969223.384,11.719,41.504,39.551,7.812,-2.441,0
1512969223.388,13.672,38.086,33.203,12.207,-61.035,0
1512969223.392,0.488,32.227,36.621,15.625,-48.828,0
1512969223.396,-10.254,29.297,38.086,20.996,14.648,5
1512969223.400,-6.348,24.902,28.320,9.766,35.645,0
1512969223.404,-1.465,39.062,35.645,7.324,-29.785,0
1512969223.408,-2.930,41.016,48.340,0.977,-59.570,0
1512969223.412,-5.859,28.320,40.039,-16.602,7.812,0
1512969223.415,-18.066,27.344,38.574,-5.371,50.293,0
1512969223.419,-13.672,35.645,49.805,13.184,-34.668,0
1512969223.423,5.371,48.828,45.410,17.578,-83.984,0
1512969223.427,8.789,37.109,30.273,9.766,-18.066,0
1512969223.431,6.348,25.879,19.531,-1.953,44.922,0
1512969223.435,6.836,32.715,20.508,-0.977,2.930,0
1512969223.439,11.230,34.180,37.109,0.977,-92.285,0
1512969223.443,11.230,37.598,32.715,-2.441,-41.504,0
1512969223.447,-2.930,40.527,32.715,4.883,52.734,0
1512969223.451,-4.883,38.086,35.156,7.812,-10.742,0
1512969223.455,-1.953,37.109,23.926,-1.953,-75.684,0
1512969223.458,2.441,42.969,32.227,0.488,0.000,0
1512969223.462,13.184,52.246,46.875,17.578,75.195,0
1512969223.466,15.625,50.293,51.270,23.926,59.082,0
1512969223.470,3.418,34.668,36.621,19.531,-30.762,0
1512969223.474,-5.371,28.320,18.066,10.254,-60.547,0
1512969223.478,2.441,33.203,17.090,-3.418,41.016,0
1512969223.482,7.324,29.297,33.691,0.488,84.473,0
1512969223.486,7.324,42.969,42.480,9.766,-12.695,0
1512969223.490,12.207,52.734,36.621,10.254,-29.297,0
1512969223.494,14.648,41.504,38.086,7.324,43.945,0
1512969223.497,8.789,41.504,37.598,8.301,51.758,0
1512969223.501,6.836,39.062,32.227,9.277,3.418,0
1512969223.505,7.812,40.039,32.715,1.953,-23.438,0
1512969223.509,7.812,42.480,32.227,-4.395,-17.090,0
1512969223.513,11.719,38.086,35.645,-3.906,48.340,0
1512969223.517,5.371,35.156,38.574,3.906,42.480,0
1512969223.521,5.859,44.922,41.016,16.602,-21.484,0
1512969223.525,4.395,43.945,41.504,17.578,-17.578,0
1512969223.529,6.836,37.598,40.039,12.695,3.418,0
1512969223.533,0.977,36.621,44.922,17.090,6.836,0
1512969223.537,-2.441,36.133,44.434,19.531,-18.555,0
1512969223.540,5.859,37.109,41.504,10.742,-44.922,0
1512969223.544,0.977,29.297,40.039,0.977,34.668,0
1512969223.548,-6.836,27.832,41.992,6.348,79.102,0
1512969223.552,-2.930,32.715,40.527,10.254,4.883,0
1512969223.556,1.953,33.691,48.828,18.555,-62.012,0
1512969223.560,-1.465,43.945,58.594,32.227,-50.293,0
1512969223.564,1.465,48.340,64.453,27.832,34.180,0
1512969223.568,12.695,47.363,60.547,29.297,33.203,0
1512969223.572,14.160,46.875,47.363,30.273,-64.941,0
1512969223.576,8.789,36.621,46.387,15.625,-79.590,0
1512969223.580,16.602,29.297,41.992,-3.906,40.527,0
1512969223.583,19.531,43.945,39.062,-1.953,56.152,0
1512969223.587,5.859,49.805,41.016,14.648,-61.035,0
1512969223.591,0.488,46.875,40.039,20.996,-77.148,0
1512969223.595,2.441,48.828,48.340,26.367,31.250,0
1512969223.599,1.465,53.223,57.129,26.855,38.086,0
1512969223.603,9.277,58.105,51.758,23.926,-37.598,0
1512969223.607,13.184,46.387,46.875,13.184,-56.152,0
1512969223.611,9.766,37.598,42.480,3.906,14.160,0
1512969223.615,5.859,37.109,30.762,9.766,31.738,0
1512969223.619,-6.348,39.062,36.621,10.742,-57.129,0
1512969223.622,-6.348,46.387,48.340,6.348,-70.312,0
1512969223.626,2.930,40.039,38.086,0.000,0.000,0
1512969223.630,4.395,38.086,37.109,1.465,42.969,0
1512969223.634,-1.465,45.898,44.434,11.719,-7.324,0
1512969223.638,-12.695,36.133,41.016,12.695,-57.617,0
1512969223.642,-0.488,43.945,38.086,-4.883,-21.973,0
1512969223.646,17.578,54.688,43.457,-18.555,63.477,0
1512969223.650,7.812,48.340,39.062,-6.836,41.992,0
1512969223.654,-9.277,40.527,32.715,-2.930,-54.199,0
1512969223.658,-11.719,34.180,30.273,-6.348,-32.715,0
1512969223.662,-9.277,34.180,34.180,-6.348,37.109,0
1512969223.665,-1.465,38.086,31.738,-12.207,34.668,0
1512969223.669,11.230,40.039,30.762,-17.090,-45.898,0
1512969223.673,11.230,40.039,30.273,-7.324,-63.477,0
1512969223.677,10.254,42.969,32.227,5.371,9.766,0
1512969223.681,2.441,46.875,38.086,7.324,50.781,0
1512969223.685,10.742,56.152,42.969,7.324,-0.977,0
1512969223.689,26.855,64.941,52.246,18.555,-87.402,0
1512969223.693,11.719,56.152,47.363,15.625,-60.059,0
1512969223.697,3.906,45.410,34.180,14.648,27.832,0
1512969223.701,8.301,40.039,25.391,12.207,20.020,0
1512969223.705,10.254,32.715,27.832,9.766,-26.367,0
1512969223.708,18.066,31.738,40.527,22.461,-26.855,0
1512969223.712,17.578,37.598,39.062,25.879,27.832,0
1512969223.716,18.066,40.039,43.457,38.086,36.133,0
1512969223.720,20.996,45.898,37.598,46.387,-60.059,0
1512969223.724,20.508,47.852,28.809,33.203,-106.445,0
1512969223.728,24.902,56.641,51.758,31.250,-0.977,0
1512969223.732,30.762,54.688,53.223,36.621,62.012,0
1512969223.736,31.738,31.250,34.668,34.668,-35.645,0
1512969223.740,23.926,34.180,29.785,32.715,-73.242,0
1512969223.744,14.648,44.922,43.457,35.156,31.250,0
1512969223.747,7.812,43.457,49.805,40.039,82.031,0
1512969223.751,-0.488,32.715,40.039,37.109,15.137,0
1512969223.755,0.488,30.762,42.969,39.062,-44.434,0
1512969223.759,2.441,34.668,43.945,33.691,-8.789,0
1512969223.763,-6.836,33.203,41.992,21.484,43.945,0
1512969223.767,-1.465,40.039,48.828,20.020,34.668,0
1512969223.771,16.113,42.969,47.852,17.090,-36.133,0
1512969223.775,16.602,33.691,42.969,13.672,-12.695,0
1512969223.779,2.930,34.668,39.062,8.301,54.199,0
1512969223.783,-9.277,40.527,31.250,1.465,29.785,0
1512969223.787,-11.719,34.668,31.738,6.348,-8.301,0
1512969223.790,-11.719,31.250,41.992,16.602,-20.020,0
1512969223.794,-1.465,39.551,51.270,29.785,24.902,0
1512969223.798,5.859,39.551,47.363,21.973,67.871,0
1512969223.802,9.766,43.945,56.152,10.742,5.371,0
1512969223.806,7.324,48.828,61.035,10.254,-43.945,0
1512969223.810,-5.859,39.062,46.387,0.977,20.508,0
1512969223.814,-2.930,38.086,42.480,6.348,64.941,0
1512969223.818,-5.371,37.109,33.691,6.348,32.715,0
1512969223.822,2.441,42.480,34.668,3.418,-17.090,0
1512969223.826,12.695,49.316,41.504,3.418,-1.465,0
1512969223.830,13.184,50.781,52.734,5.859,84.473,0
1512969223.833,11.719,48.340,51.758,13.184,83.496,0
1512969223.837,-10.742,35.645,38.574,13.672,0.488,0
1512969223.841,-14.648,30.273,39.551,6.348,-36.621,0
1512969223.845,-2.441,29.785,38.086,5.859,22.949,0
1512969223.849,1.465,39.551,38.086,10.254,32.227,0
1512969223.853,1.953,48.340,41.992,17.090,-26.855,0
1512969223.857,-2.441,41.016,40.527,14.160,-64.941,0
1512969223.861,2.930,44.434,47.852,2.930,-32.715,0
1512969223.865,5.371,51.758,44.434,-1.953,52.734,0
1512969223.869,-8.301,42.969,32.715,2.930,-29.785,0
1512969223.872,-3.418,40.039,39.062,17.578,-66.895,0
1512969223.876,-1.465,39.551,41.504,16.113,24.902,0
1512969223.880,-9.277,30.273,33.691,0.000,80.078,0
1512969223.884,-7.812,30.273,33.691,4.883,13.672,0
1512969223.888,-3.906,45.898,42.969,15.137,-47.852,0
1512969223.892,-3.418,44.922,46.875,12.695,-29.297,0
1512969223.896,-11.230,35.156,41.992,5.371,29.297,0
1512969223.900,-9.766,40.039,38.086,15.137,43.945,0
1512969223.904,11.230,51.270,46.875,30.273,-62.500,0
1512969223.908,14.160,55.664,52.246,17.578,-86.426,0
1512969223.912,-0.488,38.086,35.156,-1.465,19.531,0
1512969223.915,-5.859,27.832,31.738,-3.906,55.664,0
1512969223.919,-8.789,29.785,35.156,3.906,-17.578,0
1512969223.923,-11.230,35.156,29.785,16.113,-63.477,0
1512969223.927,0.488,44.922,37.109,19.531,12.695,0
1512969223.931,4.883,43.945,44.922,20.996,83.008,0
1512969223.935,-6.348,30.762,31.738,16.602,30.273,0
1512969223.939,-4.883,37.598,28.320,19.531,-15.137,0
1512969223.943,15.137,46.387,41.016,32.715,10.254,0
1512969223.947,17.090,36.621,41.016,23.926,68.359,0
1512969223.951,6.836,41.016,37.598,10.254,41.992,0
1512969223.955,14.648,52.246,34.668,17.090,-12.695,0
1512969223.958,23.926,44.434,28.320,20.996,8.789,0
1512969223.962,28.809,43.945,31.738,16.113,86.914,0
1512969223.966,20.020,43.945,50.781,19.043,89.355,0
1512969223.970,16.113,46.387,54.199,31.738,-10.254,0
1512969223.974,22.949,53.711,40.039,27.344,-5.859,0
1512969223.978,19.531,54.199,35.645,30.762,90.332,0
1512969223.982,22.461,60.059,44.434,46.387,99.121,0
1512969223.986,17.578,50.781,41.504,35.645,25.391,0
1512969223.990,4.883,37.109,38.574,23.438,-37.598,0
1512969223.994,14.648,47.363,41.504,16.602,-30.273,0
1512969223.997,25.879,51.758,35.645,9.766,49.316,0
1512969224.001,20.020,45.410,36.621,15.625,68.848,0
1512969224.005,9.277,44.434,42.969,21.484,-5.859,0
1512969224.009,2.930,47.852,53.711,27.344,14.160,0
1512969224.013,6.836,52.246,46.875,23.438,91.309,0
1512969224.017,14.160,51.270,41.504,17.090,69.336,0
1512969224.021,20.508,55.176,47.852,25.879,-16.602,0
1512969224.025,22.461,55.176,44.922,26.855,-20.996,0
1512969224.029,12.207,42.969,35.645,6.836,68.359,0
1512969224.033,3.906,31.250,32.715,-6.836,85.449,0
1512969224.037,-3.906,37.598,37.598,5.371,20.020,0
1512969224.040,0.488,50.293,37.109,21.484,18.066,0
1512969224.044,13.184,46.875,47.852,20.020,80.078,0
1512969224.048,12.207,50.293,49.805,20.020,100.586,0
1512969224.052,12.695,56.641,39.062,28.809,-14.160,0
1512969224.056,11.230,50.781,41.992,19.043,-60.547,0
1512969224.060,4.883,39.062,40.527,2.441,17.090,0
1512969224.064,3.418,39.062,31.738,-1.953,66.406,0
1512969224.068,-0.488,40.527,32.227,6.348,33.203,0
1512969224.072,-8.789,32.227,30.762,8.789,-33.203,0
1512969224.076,-6.836,29.785,28.320,1.953,1.465,0
1512969224.080,-0.977,40.527,32.715,-0.977,65.430,0
1512969224.083,3.906,42.480,47.363,0.488,19.043,0
1512969224.087,0.977,34.668,39.062,-6.348,-60.059,0
1512969224.091,-5.859,37.109,26.367,-3.906,-39.062,0
1512969224.095,-3.906,36.621,36.133,4.395,36.133,0
1512969224.099,0.000,31.250,38.574,0.488,49.805,0
1512969224.103,1.465,30.762,38.086,-3.906,13.184,0
1512969224.107,-11.719,19.531,28.320,-11.230,-22.949,0
1512969224.111,-20.508,9.277,32.715,-9.766,23.926,0
1512969224.115,-9.277,20.508,44.922,-0.977,80.566,0
1512969224.119,4.395,29.785,41.992,-0.977,23.926,0
1512969224.122,-6.348,30.762,41.504,-8.301,-27.832,0
1512969224.126,-16.113,33.691,39.551,-1.465,26.855,0
1512969224.130,-14.160,28.320,35.156,-4.883,71.289,0
1512969224.134,-11.230,35.156,43.945,-14.160,43.945,0
1512969224.138,-1.465,43.457,45.410,-13.184,-38.086,0
1512969224.142,-0.488,31.738,39.551,-13.672,-60.547,0
1512969224.146,-11.719,20.508,35.645,-10.742,31.250,0
1512969224.150,-20.996,17.578,25.391,-17.578,96.191,0
1512969224.154,-18.066,21.973,35.156,-9.766,17.090,0
1512969224.158,-18.066,23.926,38.086,-2.441,-11.230,0
1512969224.162,-16.113,28.320,37.598,-5.859,52.246,0
1512969224.165,-4.883,36.621,47.852,-2.930,86.426,0
1512969224.169,-10.254,31.250,51.270,0.977,27.832,0
1512969224.173,-10.742,28.809,50.293,0.488,9.277,0
1512969224.177,2.930,45.898,49.805,2.930,44.922,0
1512969224.181,3.418,40.039,39.551,8.789,79.590,0
1512969224.185,-13.184,12.695,23.438,-3.418,24.902,0
1512969224.189,-10.254,19.043,27.344,-1.953,-56.152,0
1512969224.193,-2.441,21.484,29.785,-8.301,20.508,0
1512969224.197,-6.348,22.461,29.297,-10.254,132.324,0
1512969224.201,-2.930,39.551,32.227,3.418,60.547,0
1512969224.205,-0.488,39.062,37.598,1.953,-17.578,0
1512969224.208,4.883,31.738,53.223,2.930,20.996,0
1512969224.212,11.719,41.504,46.387,10.742,71.289,0
1512969224.216,9.277,48.340,37.109,18.555,85.449,0
1512969224.220,1.953,38.086,40.527,12.695,-3.418,0
1512969224.224,4.883,32.227,33.691,6.836,-39.062,0
1512969224.228,6.836,30.273,32.715,7.324,67.383,0
1512969224.232,0.488,29.785,35.645,4.883,66.406,0
1512969224.236,-4.395,35.156,36.621,11.719,-28.320,0
1512969224.240,-5.859,39.551,42.480,24.414,-51.270,0
1512969224.244,0.977,41.504,47.363,32.715,0.000,0
1512969224.247,5.371,39.551,46.875,29.785,84.961,0
1512969224.251,8.789,53.223,53.223,25.391,55.664,0
1512969224.255,6.348,58.594,47.363,29.785,-46.387,0
1512969224.259,4.395,37.109,30.273,30.273,-19.043,0
1512969224.263,11.719,32.715,41.504,21.484,62.500,0
1512969224.267,4.883,31.250,41.504,10.742,66.895,0
1512969224.271,0.488,25.879,32.715,6.836,-4.395,0
1512969224.275,1.953,34.668,42.480,10.742,-39.551,0
1512969224.279,-1.465,38.574,45.410,13.184,20.996,0
1512969224.283,0.977,40.039,45.898,11.719,80.566,0
1512969224.287,5.371,41.992,45.410,8.301,25.391,0
1512969224.290,11.719,39.062,43.457,4.883,-26.367,0
1512969224.294,5.371,43.457,42.480,15.625,40.039,0
1512969224.298,-1.465,42.969,40.039,24.414,69.336,0
1512969224.302,0.488,40.039,41.016,10.742,20.996,0
1512969224.306,-6.348,38.574,41.992,4.395,-4.395,0
1512969224.310,-13.184,25.879,31.250,7.324,40.039,0
1512969224.314,-16.602,30.273,21.973,1.953,111.328,0
1512969224.318,-9.277,42.969,37.598,3.418,49.805,0
1512969224.322,-8.301,33.203,49.316,5.859,-61.035,0
1512969224.326,-9.277,35.156,47.852,3.418,-23.438,0
1512969224.330,-0.488,36.133,40.527,-0.977,62.988,0
1512969224.333,-5.371,37.598,40.039,4.395,48.340,0
1512969224.337,-15.137,39.551,40.039,5.371,-28.320,0
1512969224.341,-10.742,31.250,35.156,-2.441,-31.738,0
1512969224.345,-8.301,33.691,27.832,-6.836,58.594,0
1512969224.349,-6.836,34.180,27.344,-0.977,48.340,0
1512969224.353,-10.742,31.250,36.133,4.395,-23.926,0
1512969224.357,-17.090,30.273,36.133,4.883,-7.324,0
1512969224.361,-13.672,29.297,43.457,7.324,45.410,0
1512969224.365,-0.977,40.527,57.129,8.301,68.359,0
1512969224.369,11.230,51.758,48.828,2.930,20.020,0
1512969224.372,8.301,42.480,18.555,-3.418,-13.672,0
1512969224.376,-1.953,35.156,18.066,0.000,23.438,0
1512969224.380,-11.230,31.250,40.039,7.324,56.152,0
1512969224.384,-3.906,38.086,43.945,17.090,34.180,0
1512969224.388,6.836,45.410,42.480,14.160,-14.160,0
1512969224.392,0.977,30.762,38.574,3.906,0.977,0
1512969224.396,-0.977,23.438,32.227,7.324,77.148,0
1512969224.400,1.953,40.527,34.668,20.508,101.562,0
1512969224.404,1.465,51.270,41.992,22.949,33.691,0
1512969224.408,0.977,45.898,49.805,18.066,-2.441,0
1512969224.412,0.977,36.621,42.480,18.555,78.125,0
1512969224.415,-1.953,31.738,34.668,20.020,114.258,0
1512969224.419,-0.488,41.992,44.434,24.902,43.945,0
1512969224.423,4.395,55.176,44.434,27.832,24.414,0
1512969224.427,-7.324,49.316,29.785,16.602,46.387,0
1512969224.431,-13.184,31.250,27.344,6.836,97.168,0
1512969224.435,6.348,31.250,42.480,14.160,67.383,0
1512969224.439,10.742,39.551,50.293,18.066,1.953,0
1512969224.443,4.395,41.504,55.664,17.090,32.715,0
1512969224.447,13.672,45.410,53.223,15.625,71.777,0
1512969224.451,19.043,50.293,44.434,17.578,79.102,0
1512969224.455,7.324,44.922,47.852,17.090,-1.953,0
1512969224.458,4.395,38.574,37.109,8.789,14.648,0
1512969224.462,5.859,41.992,31.738,4.395,108.398,0
1512969224.466,-4.395,31.250,41.992,9.277,107.910,0
1512969224.470,2.930,33.203,48.340,20.508,52.734,0
1512969224.474,10.254,48.828,53.223,22.461,9.277,0
1512969224.478,6.836,47.852,60.059,17.578,70.801,0
1512969224.482,-0.488,39.062,42.480,14.648,103.027,0
1512969224.486,-9.277,37.109,31.738,13.184,36.621,0
1512969224.490,-10.254,33.203,41.016,12.695,-8.301,0
1512969224.494,-14.160,33.691,40.527,9.277,55.176,0
1512969224.497,-5.371,38.574,42.480,8.789,114.746,0
1512969224.501,-1.953,39.551,39.551,16.602,33.691,0
1512969224.505,-10.254,40.527,34.180,17.090,-44.922,0
1512969224.509,-1.953,43.457,47.852,17.578,33.691,0
1512969224.513,1.465,35.645,58.594,19.531,126.465,0
1512969224.517,4.395,40.527,50.293,17.090,84.961,0
1512969224.521,0.488,49.805,40.039,19.531,-17.090,0
1512969224.525,-4.395,37.109,39.062,13.184,18.066,0
1512969224.529,-3.418,32.227,36.621,12.207,114.258,0
1512969224.533,-11.719,33.691,35.156,7.812,100.586,0
1512969224.537,-8.789,42.480,30.273,5.371,18.066,0
1512969224.540,-3.906,43.945,31.250,3.418,21.973,0
1512969224.544,3.418,37.109,41.016,-8.301,95.703,0
1512969224.548,8.789,44.434,29.297,-12.207,125.000,0
1512969224.552,1.465,49.805,33.203,-7.812,69.824,0
1512969224.556,-5.371,41.992,50.781,-2.930,20.996,0
1512969224.560,-0.977,46.875,43.945,-0.977,39.551,0
1512969224.564,-11.719,41.504,25.391,-2.930,77.148,0
1512969224.568,-20.996,32.227,25.879,2.930,76.660,0
1512969224.572,-6.836,38.574,40.039,4.883,6.836,0
1512969224.576,0.488,42.480,42.969,3.418,-3.418,0
1512969224.580,-5.371,41.016,45.898,19.043,101.074,0
1512969224.583,-12.207,38.574,38.086,21.484,129.883,0
1512969224.587,-5.371,38.574,34.668,16.113,32.227,0
1512969224.591,8.789,41.992,43.945,9.766,9.277,0
1512969224.595,9.766,36.621,49.805,5.371,85.449,0
1512969224.599,9.766,35.156,43.457,15.137,109.375,0
1512969224.603,14.648,40.527,42.969,12.695,49.805,0
1512969224.607,19.043,47.363,54.199,9.277,6.348,0
1512969224.611,16.113,45.410,48.340,15.137,42.969,0
1512969224.615,9.766,35.645,41.016,15.137,112.793,0
1512969224.619,2.930,31.738,38.574,14.648,44.922,0
1512969224.622,2.930,34.180,36.133,20.508,-15.625,0
1512969224.626,9.277,39.062,45.410,26.367,62.012,0
1512969224.630,-3.418,38.086,50.781,17.090,108.398,0
1512969224.634,-2.441,40.527,46.875,15.625,57.129,0
1512969224.638,1.465,38.086,43.457,16.602,3.418,0
1512969224.642,-10.254,28.809,33.203,9.277,36.621,0
1512969224.646,-2.930,34.668,37.598,18.066,98.145,0
1512969224.650,6.836,43.457,40.527,21.973,91.797,0
1512969224.654,7.812,41.016,41.504,18.066,-8.789,0
1512969224.658,7.812,40.039,49.805,18.555,-12.207,0
1512969224.662,4.395,35.645,46.387,7.324,80.078,0
1512969224.665,0.000,34.668,43.945,1.465,125.977,0
1512969224.669,5.859,35.645,43.945,6.836,53.223,0
1512969224.673,8.301,37.109,41.016,10.742,3.418,0
1512969224.677,0.000,33.203,40.527,10.254,66.895,0
1512969224.681,-5.859,30.762,44.434,16.602,112.793,0
1512969224.685,-1.465,43.457,47.363,33.203,51.270,0
1512969224.689,7.812,40.527,51.758,25.879,-13.672,0
1512969224.693,20.508,30.273,58.594,14.648,28.320,0
1512969224.697,14.648,22.949,53.223,13.672,62.012,0
1512969224.701,-2.930,20.996,43.945,14.648,27.344,0
1512969224.705,-1.953,19.043,40.527,16.602,13.184,0
1512969224.708,6.348,14.648,47.363,9.766,22.461,0
1512969224.712,6.836,14.648,53.711,2.930,74.219,0
1512969224.716,-8.301,7.812,46.387,8.789,95.703,0
1512969224.720,-10.742,13.184,46.387,14.160,32.227,0
1512969224.724,-3.906,17.090,49.316,3.418,-2.441,0
1512969224.728,-4.395,17.090,57.129,4.395,48.828,0
1512969224.732,4.883,25.879,53.711,7.812,96.680,0
1512969224.736,6.348,19.531,42.480,-2.930,60.059,0
1512969224.740,2.441,11.230,40.039,-10.254,19.043,0
1512969224.744,-4.883,10.742,45.410,-14.160,38.574,0
1512969224.747,-13.672,7.324,48.828,-11.719,97.168,0
1512969224.751,-20.020,4.395,33.691,-12.695,71.777,0
1512969224.755,-21.484,11.719,26.855,-11.230,-30.762,0
1512969224.759,-6.348,19.531,41.504,-6.836,29.785,0
1512969224.763,-12.695,17.090,37.598,-5.371,141.602,0
1512969224.767,-19.043,17.578,26.855,-0.488,91.309,0
1512969224.771,8.301,34.668,43.945,0.488,12.207,0
1512969224.775,5.371,34.668,45.898,-2.441,11.719,0
1512969224.779,-12.207,20.996,30.273,0.488,74.219,0
1512969224.783,-10.254,16.602,29.785,5.371,102.051,0
1512969224.787,1.953,26.855,43.457,5.859,23.926,0
1512969224.790,8.301,33.203,44.434,4.883,-17.578,0
1512969224.794,8.301,28.809,26.367,5.371,72.754,0
1512969224.798,5.371,22.461,17.578,0.488,126.465,0
1512969224.802,11.230,27.344,27.832,-1.465,57.129,0
1512969224.806,7.324,34.180,29.785,9.277,-7.812,0
1512969224.810,-4.395,33.691,32.227,17.578,60.059,0
1512969224.814,3.418,38.086,39.551,21.484,136.230,0
1512969224.818,10.254,38.574,40.527,24.414,72.266,0
1512969224.822,15.625,30.762,37.598,18.066,24.902,0
1512969224.826,14.648,18.555,30.273,14.648,74.707,0
1512969224.830,0.488,25.879,31.738,29.297,111.816,0
1512969224.833,1.953,39.062,39.062,39.551,97.656,0
1512969224.837,19.531,35.156,36.621,38.086,22.461,0
1512969224.841,15.137,28.809,33.203,31.738,16.113,0
1512969224.845,2.441,28.320,35.156,40.527,76.172,0
1512969224.849,5.371,31.250,40.527,47.363,98.633,0
1512969224.853,12.695,37.598,49.805,36.133,31.738,0
1512969224.857,18.066,48.828,52.246,40.527,-5.371,0
1512969224.861,11.719,36.133,47.852,32.715,65.918,0
1512969224.865,9.766,31.250,56.641,29.297,107.910,0
1512969224.869,20.508,35.645,53.223,36.621,54.688,0
1512969224.872,19.531,31.738,37.598,22.949,17.578,0
1512969224.876,14.648,33.203,36.621,18.066,47.363,0
1512969224.880,15.625,29.785,46.387,22.949,99.609,0
1512969224.884,17.578,34.668,61.523,24.902,89.844,0
1512969224.888,20.020,42.969,57.617,33.203,28.320,0
1512969224.892,17.578,35.156,45.410,27.344,30.273,0
1512969224.896,5.859,20.508,37.109,14.648,109.863,0
1512969224.900,1.953,31.738,45.410,17.578,93.750,0
1512969224.904,9.766,41.016,57.617,26.855,0.000,0
1512969224.908,7.812,30.273,50.293,23.926,-3.418,0
1512969224.912,-3.418,20.996,36.621,14.160,57.617,0
1512969224.915,-3.906,22.949,30.762,10.254,82.031,0
1512969224.919,-6.348,25.879,34.668,4.883,-29.297,0
1512969224.923,-0.977,27.344,40.039,2.930,-55.664,0
1512969224.927,10.742,28.809,56.152,11.719,42.969,0
1512969224.931,-5.371,20.996,46.875,14.160,97.656,0
1512969224.935,-14.160,30.273,39.062,5.859,28.809,0
1512969224.939,-2.441,32.715,50.781,1.953,-65.430,0
1512969224.943,-2.441,29.785,36.621,2.441,42.480,0
1512969224.947,2.441,40.527,23.926,5.371,131.348,0
1512969224.951,-0.488,28.320,26.367,-0.488,55.176,0
1512969224.955,-11.719,22.949,29.297,-2.441,-10.742,0
1512969224.958,-3.418,35.645,36.133,7.812,16.602,0
1512969224.962,4.883,32.227,47.852,13.184,100.586,0
1512969224.966,4.883,31.738,47.852,14.648,117.188,0
1512969224.970,3.906,35.156,37.598,11.719,36.621,0
1512969224.974,7.812,30.762,27.344,4.883,16.602,0
1512969224.978,5.371,30.273,33.203,-0.488,93.262,0
1512969224.982,2.441,38.086,41.016,8.789,114.258,0
1512969224.986,-5.371,39.551,32.227,19.043,35.645,0
1512969224.990,-4.395,36.621,31.738,12.695,7.812,0
1512969224.994,1.953,31.250,44.922,8.789,65.918,0
1512969224.997,-0.977,33.203,46.387,13.672,108.887,0
1512969225.001,0.977,33.203,33.203,13.672,64.941,0
1512969225.005,10.254,24.414,30.762,15.137,0.488,0
1512969225.009,4.883,21.484,36.133,22.949,25.879,0
1512969225.013,-18.066,20.996,43.945,27.832,104.980,0
1512969225.017,-0.977,30.273,59.082,37.598,106.445,0
1512969225.021,23.926,32.715,59.082,35.645,30.273,0
1512969225.025,18.066,30.273,51.270,37.598,16.602,0
1512969225.029,13.184,30.273,51.270,38.574,33.203,0
1512969225.033,15.137,28.320,38.574,23.926,87.402,0
1512969225.037,11.230,27.832,23.926,23.438,49.316,0
1512969225.040,12.207,38.574,32.715,31.250,-20.020,0
1512969225.044,12.207,40.527,42.969,29.297,71.289,0
1512969225.048,4.883,26.855,46.875,25.879,124.023,0
1512969225.052,1.465,19.043,55.664,28.320,41.016,0
1512969225.056,7.812,23.438,46.875,31.250,-22.461,0
1512969225.060,13.672,33.203,49.805,35.645,49.316,0
1512969225.064,14.160,44.922,58.105,41.016,121.094,0
1512969225.068,13.184,44.434,41.992,31.738,45.898,0
1512969225.072,6.348,36.621,32.227,22.949,-29.297,0
1512969225.076,2.441,27.832,34.180,24.414,-18.066,0
1512969225.080,9.277,38.086,42.480,29.297,85.449,0
1512969225.083,6.348,37.598,41.016,25.391,85.449,0
1512969225.087,-9.277,20.020,23.926,19.043,-30.273,0
1512969225.091,-3.418,25.391,38.086,18.066,-28.809,0
1512969225.095,17.578,37.598,58.594,16.113,64.941,0
1512969225.099,19.043,42.969,47.363,19.531,93.750,0
1512969225.103,12.207,47.363,41.992,16.113,13.672,0
1512969225.107,8.301,47.363,41.016,11.719,-28.809,0
1512969225.111,5.371,45.410,34.180,9.766,68.848,0
1512969225.115,8.301,43.457,29.785,-1.953,93.750,0
1512969225.119,2.930,40.039,36.621,-5.859,-12.695,0
1512969225.122,-2.930,48.340,47.363,11.230,-27.832,0
1512969225.126,-4.883,43.945,52.246,6.836,42.969,0
1512969225.130,-3.906,23.438,46.875,-10.254,76.172,0
1512969225.134,5.371,23.926,40.527,-11.230,49.316,0
1512969225.138,6.836,31.738,41.016,-10.742,11.719,0
1512969225.142,-2.930,36.133,41.992,3.906,59.082,0
1512969225.146,-10.254,34.180,40.527,5.371,102.051,0
1512969225.150,-5.859,35.156,41.016,0.000,54.199,0
1512969225.154,-7.812,36.621,39.551,8.301,9.277,0
1512969225.158,-8.301,33.691,47.852,5.371,3.906,0
1512969225.162,9.277,45.410,62.988,5.371,39.062,0
1512969225.165,1.953,42.480,52.246,0.977,41.992,0
1512969225.169,-13.672,24.414,36.133,-12.207,-11.719,0
1512969225.173,-6.348,27.344,37.109,-0.977,0.000,0
1512969225.177,-7.812,28.809,41.992,16.113,30.273,0
1512969225.181,-14.160,20.508,35.645,13.672,51.758,0
1512969225.185,-11.230,13.672,33.691,0.488,46.875,0
1512969225.189,-1.953,22.461,40.039,1.953,-28.320,0
1512969225.193,-0.488,29.297,50.293,11.230,3.418,0
1512969225.197,-11.230,23.926,49.805,22.461,89.355,0
1512969225.201,-14.648,33.691,47.363,20.996,71.289,0
1512969225.205,-8.789,40.527,52.246,20.508,-3.906,0
1512969225.208,-8.301,28.809,49.316,14.160,-6.348,0
1512969225.212,-12.695,28.809,40.527,2.441,69.824,0
1512969225.216,-2.441,38.086,46.387,9.277,90.820,0
1512969225.220,8.301,39.062,47.852,8.789,-2.930,0
1512969225.224,0.000,31.738,31.738,3.906,-50.293,0
1512969225.228,4.395,28.809,32.715,8.789,47.363,0
1512969225.232,1.465,31.250,42.480,14.160,88.867,0
1512969225.236,-7.324,31.250,40.527,11.230,28.320,0
1512969225.240,3.418,30.762,44.434,11.719,-6.348,0
1512969225.244,10.742,43.457,55.664,20.508,30.762,0
1512969225.247,9.766,47.852,61.035,16.602,85.449,0
1512969225.251,1.465,39.062,46.387,10.254,43.945,0
1512969225.255,3.418,34.180,31.250,15.137,-30.762,0
1512969225.259,6.348,33.203,34.180,20.508,-5.859,0
1512969225.263,1.953,44.434,41.992,25.391,61.035,0
1512969225.267,4.883,48.340,49.805,25.391,32.227,0
1512969225.271,15.625,41.504,49.316,24.902,-24.414,0
1512969225.275,19.043,39.062,46.875,15.137,-9.766,0
1512969225.279,34.668,51.270,49.805,11.230,45.898,0
1512969225.283,33.691,53.223,44.922,20.996,31.738,0
1512969225.287,19.531,48.340,47.363,22.461,-65.918,0
1512969225.290,20.996,44.922,45.410,7.324,-85.449,0
1512969225.294,26.367,43.945,39.551,8.789,-2.930,0
1512969225.298,21.973,53.711,49.805,28.809,35.156,0
1512969225.302,19.531,50.293,49.316,34.180,-43.457,0
1512969225.306,24.414,48.828,44.434,28.809,-98.633,0
1512969225.310,20.020,47.852,42.969,29.297,-54.199,0
1512969225.314,21.484,41.016,52.246,42.969,-18.066,0
1512969225.318,21.484,41.992,54.199,38.574,-28.320,0
1512969225.322,17.090,45.898,51.270,26.855,-60.547,0
1512969225.326,20.996,45.410,51.270,29.297,-75.684,0
1512969225.330,25.879,46.387,49.805,29.297,-26.855,0
1512969225.333,31.738,64.453,53.223,25.391,21.484,0
1512969225.337,23.926,57.617,48.828,21.484,-11.230,0
1512969225.341,4.395,41.504,51.758,26.367,-43.945,0
1512969225.345,-2.930,40.527,47.363,32.715,14.160,0
1512969225.349,7.812,41.992,39.551,27.344,41.504,0
1512969225.353,22.461,46.875,58.105,32.227,-38.574,0
1512969225.357,13.672,41.016,58.105,40.039,-101.074,0
1512969225.361,9.766,37.598,44.922,27.344,-57.129,0
1512969225.365,11.230,41.992,55.664,22.949,14.160,0
1512969225.369,-1.953,44.434,43.457,22.949,-25.879,0
1512969225.372,4.883,40.527,37.109,20.020,-70.801,0
1512969225.376,14.160,38.574,43.945,8.789,3.906,0
1512969225.380,4.883,41.016,53.223,11.719,68.848,0
1512969225.384,-2.441,39.551,54.199,20.996,-13.672,0
1512969225.388,-4.883,31.738,38.086,17.578,-81.543,0
1512969225.392,-4.883,33.203,41.016,14.160,-14.648,0
1512969225.396,0.488,45.410,56.152,20.996,59.082,0
1512969225.400,5.859,33.203,52.246,14.648,52.734,0
1512969225.404,-1.953,24.414,44.434,9.766,-65.430,0
1512969225.408,-1.953,32.227,51.270,15.137,-75.195,0
1512969225.412,5.859,27.832,59.082,11.230,33.203,0
1512969225.415,4.883,32.227,48.828,4.395,80.078,0
1512969225.419,6.348,48.828,42.480,14.648,-13.672,0
1512969225.423,4.395,40.039,46.875,13.184,-62.500,0
1512969225.427,6.348,28.809,49.805,1.953,18.066,0
1512969225.431,1.953,36.621,59.570,10.742,62.012,0
1512969225.435,-5.371,40.039,56.152,11.230,5.859,0
1512969225.439,-11.230,35.156,54.199,1.953,-61.523,0
1512969225.443,-13.672,37.109,65.430,7.324,-38.574,0
1512969225.447,-5.859,38.574,64.941,6.348,4.395,0
1512969225.451,-0.488,36.621,54.199,-9.277,-26.855,0
1512969225.455,0.977,35.156,46.387,-16.113,-66.406,0
1512969225.458,9.766,50.293,58.105,-5.371,-50.781,0
1512969225.462,6.348,57.129,70.312,12.695,-8.301,0
1512969225.466,-12.695,30.762,51.758,14.648,3.906,0
1512969225.470,-5.859,33.203,44.922,18.066,-23.926,0
1512969225.474,1.465,42.480,50.293,13.672,-64.941,0
1512969225.478,2.930,37.598,61.035,13.184,-20.508,0
1512969225.482,3.906,29.297,62.012,15.625,26.367,0
1512969225.486,8.789,33.203,47.852,17.090,-18.066,0
1512969225.490,11.719,43.457,41.504,14.160,-67.871,0
1512969225.494,20.508,47.852,52.734,17.578,-54.199,0
1512969225.497,27.832,50.293,67.871,34.180,14.648,0
1512969225.501,16.602,51.758,57.129,32.715,-6.836,0
1512969225.505,9.766,47.363,52.246,29.297,-93.262,0
1512969225.509,21.484,50.293,57.617,29.785,-104.980,0
1512969225.513,35.156,47.852,49.805,21.484,1.953,0
1512969225.517,33.203,45.410,44.922,23.438,41.504,0
1512969225.521,22.949,50.781,52.734,31.250,-40.039,0
1512969225.525,17.578,43.945,54.688,36.133,-54.688,0
1512969225.529,16.602,40.039,49.805,36.621,28.809,0
1512969225.533,20.996,46.387,50.781,27.832,39.551,0
1512969225.537,20.996,49.316,47.852,20.020,-18.555,0
1512969225.540,23.926,56.152,56.641,22.949,-58.594,0
1512969225.544,27.832,53.711,63.477,27.832,12.695,0
1512969225.548,28.320,49.805,58.594,26.855,66.895,0
1512969225.552,36.621,53.711,51.270,16.602,-10.742,0
1512969225.556,34.180,49.805,43.945,8.789,-60.547,0
1512969225.560,28.320,42.480,51.270,5.859,-9.766,0
1512969225.564,21.973,28.809,50.781,1.465,58.105,0
1512969225.568,16.602,28.320,42.969,11.230,3.418,0
1512969225.572,22.461,38.086,47.363,18.555,-58.594,0
1512969225.576,23.926,44.434,54.688,23.438,-18.066,0
1512969225.580,16.113,50.293,51.758,23.438,28.320,0
1512969225.583,18.555,51.270,50.293,23.926,23.438,0
1512969225.587,19.043,51.758,58.105,19.043,-33.203,0
1512969225.591,6.836,42.969,57.617,17.090,-41.504,0
1512969225.595,9.277,43.945,56.641,27.832,15.137,0
1512969225.599,14.160,42.969,60.059,16.602,13.672,0
1512969225.603,14.648,37.598,52.246,12.695,-27.344,0
1512969225.607,22.949,41.016,54.199,18.066,-15.625,0
1512969225.611,26.367,41.992,60.059,27.832,23.926,0
1512969225.615,17.578,42.969,53.711,30.762,32.227,0
1512969225.619,2.930,35.156,47.363,19.531,-2.930,0
1512969225.622,13.184,41.016,49.805,23.926,-14.648,0
1512969225.626,19.043,44.922,59.082,29.297,-3.418,0
1512969225.630,10.742,42.480,61.035,27.832,36.621,0
1512969225.634,10.254,53.223,63.477,29.785,16.113,0
1512969225.638,13.184,51.758,57.617,31.250,-47.363,0
1512969225.642,12.207,38.574,48.828,30.273,-44.922,0
1512969225.646,5.859,35.645,55.664,35.156,21.484,0
1512969225.650,16.113,39.062,60.059,31.738,58.594,0
1512969225.654,20.020,41.016,52.246,20.996,-29.785,0
1512969225.658,17.578,35.156,43.945,13.672,-47.363,0
1512969225.662,20.508,38.086,43.945,18.555,31.738,0
1512969225.665,21.973,50.293,62.500,33.203,39.062,0
1512969225.669,16.602,53.223,68.359,28.809,-28.809,0
1512969225.673,10.254,50.781,47.852,20.996,-47.852,0
1512969225.677,9.766,41.504,41.504,20.020,9.766,0
1512969225.681,9.766,38.574,49.805,22.949,47.852,0
1512969225.685,12.695,42.969,60.547,32.715,-19.531,0
1512969225.689,10.254,40.039,57.617,35.645,-54.688,0
1512969225.693,-3.906,29.297,52.246,32.227,-5.371,0
1512969225.697,-10.742,29.297,45.410,19.043,58.105,0
1512969225.701,-4.883,33.203,39.551,9.766,46.875,0
1512969225.705,4.395,38.574,59.570,20.508,-2.441,0
1512969225.708,17.578,44.922,52.734,16.602,15.137,0
1512969225.712,11.719,42.969,37.109,0.488,81.543,0
1512969225.716,2.930,44.922,45.410,-4.395,55.664,0
1512969225.720,13.672,57.617,48.828,-1.465,-48.340,0
1512969225.724,16.113,48.340,43.457,-1.465,-41.016,0
1512969225.728,10.254,34.668,35.645,-6.348,35.645,0
1512969225.732,3.418,27.832,35.645,1.953,72.266,0
1512969225.736,-1.953,25.391,33.691,4.395,27.832,0
1512969225.740,7.324,36.621,41.992,2.930,-2.930,0
1512969225.744,11.230,39.062,49.805,6.348,50.781,0
1512969225.747,8.789,40.039,48.828,6.836,65.918,0
1512969225.751,2.441,40.527,40.527,9.766,53.711,0
1512969225.755,-1.465,38.086,34.180,8.789,10.254,0
1512969225.759,3.418,40.039,39.551,5.371,12.695,0
1512969225.763,4.883,48.828,47.852,5.371,74.219,0
1512969225.767,8.301,42.969,50.293,2.930,54.688,0
1512969225.771,15.137,33.203,36.621,-6.348,30.273,0
1512969225.775,9.277,33.691,40.039,-5.859,37.598,0
1512969225.779,9.766,34.180,48.828,1.465,47.852,0
1512969225.783,20.020,37.598,41.016,5.371,49.805,0
1512969225.787,17.090,46.387,38.574,15.625,34.180,0
1512969225.790,7.812,40.039,37.109,12.207,2.930,0
1512969225.794,9.766,34.180,43.945,14.648,54.199,0
1512969225.798,14.648,40.527,59.082,24.902,130.371,0
1512969225.802,5.371,40.527,60.059,26.367,66.406,0
1512969225.806,12.695,52.246,57.617,37.598,5.371,0
1512969225.810,18.555,55.176,49.805,33.691,66.895,0
1512969225.814,15.625,43.457,45.898,29.785,126.953,0
1512969225.818,25.391,49.316,54.199,43.457,93.262,0
1512969225.822,20.020,42.969,48.340,40.039,21.484,0
1512969225.826,11.719,36.621,41.992,33.691,36.621,0
1512969225.830,6.348,32.227,48.828,28.809,135.254,0
1512969225.833,3.906,29.297,57.617,38.086,114.258,0
1512969225.837,12.207,37.598,56.641,46.875,22.949,0
1512969225.841,20.020,40.527,36.621,30.273,40.039,0
1512969225.845,26.367,43.945,48.828,29.785,103.027,0
1512969225.849,20.996,50.293,68.359,35.645,119.629,0
1512969225.853,13.184,52.246,51.270,26.367,33.691,0
1512969225.857,13.184,51.758,49.805,25.879,26.855,0
1512969225.861,11.719,46.875,55.664,28.320,91.797,0
1512969225.865,-0.977,34.668,54.199,24.902,95.215,0
1512969225.869,-7.812,35.645,55.176,20.996,33.691,0
1512969225.872,-9.277,34.180,42.969,12.695,-20.020,0
1512969225.876,-11.230,24.902,38.574,12.207,49.316,0
1512969225.880,-19.531,24.414,46.387,17.090,120.605,0
1512969225.884,-15.625,28.809,47.852,12.207,65.430,0
1512969225.888,9.766,42.969,53.223,14.160,1.465,0
1512969225.892,19.043,42.969,58.594,16.602,32.227,0
1512969225.896,15.137,49.316,61.523,17.090,68.848,0
1512969225.900,8.301,52.246,58.105,19.043,67.383,0
1512969225.904,-11.719,30.762,41.016,7.324,17.578,0
1512969225.908,-21.973,26.367,35.156,-2.441,3.906,0
1512969225.912,-8.789,34.180,46.387,-5.371,70.801,0
1512969225.915,-13.672,32.715,46.387,-19.043,76.172,0
1512969225.919,-17.090,31.738,44.922,-14.648,-16.113,0
1512969225.923,-11.230,32.227,45.898,4.395,-27.344,0
1512969225.927,-18.066,34.668,40.527,-3.906,26.367,0
1512969225.931,-14.160,39.062,50.293,-16.113,70.801,0
1512969225.935,1.953,51.758,55.176,1.953,74.707,0
1512969225.939,-2.441,41.992,41.016,2.441,20.020,0
1512969225.943,9.277,32.715,33.203,-4.883,14.160,0
1512969225.947,20.508,40.039,40.039,5.371,74.219,0
1512969225.951,13.184,33.691,40.039,4.883,71.289,0
1512969225.955,9.277,29.297,32.227,-3.418,20.508,0
1512969225.958,7.812,32.227,38.574,0.488,17.090,0
1512969225.962,1.465,40.527,43.945,19.043,58.594,0
1512969225.966,0.000,42.480,44.922,34.180,92.773,0
1512969225.970,2.441,38.086,42.969,34.180,42.969,0
1512969225.974,9.766,42.969,50.781,40.527,9.277,0
1512969225.978,14.160,41.016,50.781,34.180,83.984,0
1512969225.982,8.789,32.227,39.551,17.578,127.930,0
1512969225.986,15.137,43.945,36.621,28.809,55.176,0
1512969225.990,18.066,43.945,39.551,34.180,26.855,0
1512969225.994,9.277,29.785,50.781,35.156,103.027,0
1512969225.997,5.859,31.738,40.527,41.016,137.695,0
1512969226.001,10.254,40.527,35.645,32.715,94.238,0
1512969226.005,8.789,44.434,43.945,29.785,34.180,0
1512969226.009,7.812,43.945,38.086,40.527,71.777,0
1512969226.013,15.137,41.504,43.945,39.062,160.645,0
1512969226.017,20.020,43.945,52.734,31.250,103.027,0
1512969226.021,12.207,39.551,36.133,21.484,17.578,0
1512969226.025,10.742,48.340,38.574,18.066,76.660,0
1512969226.029,19.531,56.152,57.617,23.438,126.465,0
1512969226.033,14.160,40.039,42.969,11.719,105.957,0
1512969226.037,5.371,26.367,31.250,1.465,64.941,0
1512969226.040,-4.883,33.203,34.668,-1.953,80.078,0
1512969226.044,-1.465,47.852,40.527,0.000,124.023,0
1512969226.048,13.184,56.641,49.316,6.836,114.746,0
1512969226.052,0.977,46.387,48.340,11.719,92.285,0
1512969226.056,-3.906,32.227,55.664,8.301,73.730,0
1512969226.060,-8.301,30.273,53.711,-5.859,75.195,0
1512969226.064,-20.996,28.809,31.738,-11.230,89.355,0
1512969226.068,-10.742,41.016,32.227,1.953,93.750,0
1512969226.072,5.859,48.340,46.387,2.930,58.105,0
1512969226.076,3.906,32.227,41.016,-3.906,67.871,0
1512969226.080,-0.977,26.367,29.785,-2.930,144.531,0
1512969226.083,-3.418,31.738,35.645,4.883,127.441,0
1512969226.087,-0.977,32.715,50.293,6.836,32.227,0
1512969226.091,2.930,37.598,61.035,4.395,-9.277,0
1512969226.095,-5.371,35.156,62.988,2.930,61.523,0
1512969226.099,-10.254,32.715,60.547,0.977,118.652,0
1512969226.103,-3.906,36.133,45.410,-0.977,60.547,0
1512969226.107,0.977,31.738,34.668,5.859,-14.648,0
1512969226.111,-5.859,40.039,41.016,16.602,3.906,0
1512969226.115,-10.742,43.945,51.758,12.695,59.082,0
1512969226.119,-5.859,32.227,59.082,7.324,25.391,0
1512969226.122,-8.789,21.484,55.664,6.348,-21.484,0
1512969226.126,-13.672,14.160,43.457,1.465,14.648,0
1512969226.130,-2.930,25.391,46.387,5.859,87.891,0
1512969226.134,-5.371,27.344,45.898,0.000,54.688,0
1512969226.138,-4.395,36.133,44.434,5.371,-4.395,0
1512969226.142,5.859,40.527,41.016,9.766,24.902,0
1512969226.146,16.113,40.527,41.016,10.254,74.707,0
1512969226.150,18.066,48.340,51.758,17.090,51.758,0
1512969226.154,7.324,44.922,51.758,13.672,-50.293,0
1512969226.158,8.789,45.898,48.340,18.555,-43.945,0
1512969226.162,15.137,42.969,38.086,10.742,48.828,0
1512969226.165,21.484,33.691,31.250,4.883,69.336,0
1512969226.169,23.926,37.598,43.945,14.648,-11.230,0
1512969226.173,9.766,41.016,48.828,13.672,-68.359,0
1512969226.177,1.465,36.133,40.527,6.348,11.230,0
1512969226.181,4.883,37.598,34.180,14.648,63.477,0
1512969226.185,5.371,43.945,30.762,18.066,20.996,0
1512969226.189,11.719,56.641,35.156,0.977,-30.273,0
1512969226.193,20.020,54.199,41.016,0.977,-9.766,0
1512969226.197,23.438,47.363,43.457,4.883,37.598,0
1512969226.201,24.902,52.734,45.898,9.766,34.668,0
1512969226.205,23.926,53.711,52.246,20.996,38.574,0
1512969226.208,20.996,52.246,48.828,13.184,7.324,0
1512969226.212,17.578,46.387,33.203,4.395,53.223,0
1512969226.216,9.277,41.504,32.715,8.789,84.961,0
1512969226.220,12.695,39.062,46.875,9.277,-4.883,0
1512969226.224,11.719,36.133,37.598,10.742,11.719,0
1512969226.228,14.160,41.016,31.250,16.602,65.918,0
1512969226.232,19.043,47.363,34.668,30.273,78.125,0
1512969226.236,11.719,49.805,38.086,34.668,47.363,0
1512969226.240,14.160,46.875,46.387,27.344,-12.207,0
1512969226.244,11.230,35.645,49.316,22.461,22.949,0
1512969226.247,10.742,42.969,56.152,31.250,95.215,0
1512969226.251,20.020,41.504,51.270,32.227,62.500,0
1512969226.255,20.020,31.738,38.574,29.297,4.395,0
1512969226.259,11.230,35.156,42.969,25.879,25.879,0
1512969226.263,11.230,34.180,50.293,22.461,72.754,0
1512969226.267,13.184,33.691,43.945,25.879,71.777,0
1512969226.271,5.859,31.738,33.203,25.391,-14.160,0
1512969226.275,2.930,33.203,38.574,23.438,-25.391,0
1512969226.279,13.184,38.086,49.805,20.020,58.105,0
1512969226.283,15.625,36.621,55.664,20.996,91.309,0
1512969226.287,12.207,47.852,54.199,26.367,15.137,0
1512969226.290,16.602,51.270,48.828,29.297,-43.945,0
1512969226.294,13.672,38.574,40.039,13.672,46.875,0
1512969226.298,12.695,33.691,40.039,9.766,101.074,0
1512969226.302,6.348,39.551,37.109,14.160,20.508,0
1512969226.306,0.000,42.480,33.691,6.836,-6.348,0
1512969226.310,3.418,30.273,36.621,-4.883,38.574,0
1512969226.314,7.324,26.855,36.133,-8.301,61.035,0
1512969226.318,5.371,36.133,42.969,0.488,53.223,0
1512969226.322,-4.883,35.645,41.992,-0.977,30.273,0
1512969226.326,1.953,49.316,38.086,1.953,29.785,0
1512969226.330,6.348,55.176,30.762,-0.977,71.289,0
1512969226.333,-1.953,45.410,32.715,-3.906,55.664,0
1512969226.337,1.465,50.781,37.598,2.930,4.395,0
1512969226.341,0.000,42.969,30.273,-8.301,13.672,0
1512969226.345,0.488,30.273,40.039,-10.742,55.664,0
1512969226.349,5.859,33.203,44.434,-4.395,46.875,0
1512969226.353,-2.441,34.668,28.320,-12.207,2.441,0
1512969226.357,-14.648,29.785,22.949,-16.602,-6.348,0
1512969226.361,-8.301,34.668,27.344,-10.254,58.594,0
1512969226.365,-2.930,41.992,38.086,1.953,95.703,0
1512969226.369,-5.371,44.434,38.086,0.977,52.734,0
1512969226.372,2.930,47.852,35.645,-2.441,-11.719,0
1512969226.376,0.977,47.363,42.969,-0.977,16.602,0
1512969226.380,1.953,44.922,41.504,-4.395,81.543,0
1512969226.384,11.719,51.270,41.504,-1.465,62.012,0
1512969226.388,9.277,44.922,46.875,-1.953,0.000,0
1512969226.392,8.789,32.227,35.645,-0.488,-41.504,0
1512969226.396,4.395,28.320,21.973,6.836,22.949,0
1512969226.400,0.977,39.062,31.250,7.324,78.125,0
1512969226.404,8.301,45.410,38.086,6.348,16.602,0
1512969226.408,17.578,53.223,44.922,19.531,26.367,0
1512969226.412,15.625,48.340,41.504,16.113,79.590,0
1512969226.415,11.719,45.410,36.621,19.043,98.633,0
1512969226.419,5.859,50.781,44.922,32.715,48.828,0
1512969226.423,5.371,46.387,53.223,27.832,-20.996,0
1512969226.427,15.137,49.316,52.246,23.926,36.133,0
1512969226.431,10.742,43.945,40.039,16.602,96.680,0
1512969226.435,7.812,41.992,45.410,12.695,36.621,0
1512969226.439,3.906,34.180,46.875,29.297,-29.785,0
1512969226.443,6.836,38.086,40.039,37.598,21.973,0
1512969226.447,10.254,44.434,45.898,17.578,99.121,0
1512969226.451,12.695,36.133,52.734,12.207,71.289,0
1512969226.455,18.066,41.504,51.270,20.508,0.000,0
1512969226.458,5.859,41.016,50.781,15.625,37.598,0
1512969226.462,5.371,33.691,53.223,8.789,131.348,0
1512969226.466,9.766,38.574,52.734,13.184,148.438,0
1512969226.470,1.953,40.527,57.617,24.902,63.965,0
1512969226.474,-1.953,37.109,60.547,24.902,19.043,0
1512969226.478,9.277,39.062,58.105,22.461,95.215,0
1512969226.482,12.207,38.574,56.152,25.879,100.098,0
1512969226.486,-6.836,33.691,41.992,16.113,43.945,0
1512969226.490,-7.324,31.250,41.504,13.672,35.645,0
1512969226.494,-9.277,29.785,47.852,15.625,98.633,0
1512969226.497,-5.859,38.574,52.246,19.531,147.461,0
1512969226.501,4.395,39.551,61.035,24.414,84.961,0
1512969226.505,12.695,41.992,67.383,20.020,15.625,0
1512969226.509,14.160,40.527,57.129,4.395,54.199,0
1512969226.513,9.277,29.297,46.387,2.930,115.723,0
1512969226.517,7.324,45.410,52.246,13.184,118.164,0
1512969226.521,-2.930,41.992,47.363,7.324,41.504,0
1512969226.525,0.977,26.855,44.922,5.371,23.926,0
1512969226.529,-5.859,24.902,39.551,5.371,67.871,0
1512969226.533,-9.277,33.691,39.062,13.672,87.402,0
1512969226.537,0.977,43.457,49.316,10.254,36.133,0
1512969226.540,-1.953,41.016,44.434,3.906,5.371,0
1512969226.544,-9.277,39.062,39.062,7.812,38.574,0
1512969226.548,-10.742,41.504,44.434,11.719,93.750,0
1512969226.552,8.789,51.270,40.039,11.230,66.406,0
1512969226.556,15.625,41.504,37.598,0.000,-22.949,0
1512969226.560,7.812,35.156,34.180,5.859,5.859,0
1512969226.564,-3.906,41.992,34.668,7.812,73.242,0
1512969226.568,-2.930,38.086,44.434,7.324,56.641,0
1512969226.572,6.348,35.645,40.039,20.020,-22.461,0
1512969226.576,9.277,36.133,27.344,19.043,10.742,0
1512969226.580,-0.488,36.133,26.367,16.113,115.723,0
1512969226.583,-6.836,38.086,36.133,24.414,83.008,0
1512969226.587,4.883,45.898,46.387,29.297,-24.902,0
1512969226.591,16.602,49.805,45.898,26.855,-31.738,0
1512969226.595,8.789,40.039,34.668,29.297,71.289,0
1512969226.599,6.348,39.062,36.621,30.762,102.539,0
1512969226.603,12.207,41.992,45.898,24.902,56.641,0
1512969226.607,12.695,48.340,39.062,23.926,30.273,0
1512969226.611,17.090,54.199,29.297,29.785,66.895,0
1512969226.615,17.578,45.410,26.367,31.738,106.934,0
1512969226.619,29.785,54.199,41.016,39.062,58.594,0
1512969226.622,32.715,58.105,47.852,35.645,7.812,0
1512969226.626,25.391,50.781,40.039,32.715,60.547,0
1512969226.630,29.297,61.523,41.016,43.945,93.750,0
1512969226.634,16.113,55.176,40.527,44.922,66.406,0
1512969226.638,12.695,44.434,36.133,39.551,35.156,0
1512969226.642,16.602,50.293,39.551,32.227,18.555,0
1512969226.646,13.672,55.176,46.875,29.297,89.844,0
1512969226.650,13.672,51.270,41.992,28.809,73.242,0
1512969226.654,11.719,56.152,43.945,34.180,-7.812,0
1512969226.658,15.625,59.082,48.828,41.504,24.414,0
1512969226.662,17.578,56.152,42.969,42.480,91.309,0
1512969226.665,15.625,57.129,54.688,34.668,100.586,0
1512969226.669,16.602,53.711,53.223,29.297,31.250,0
1512969226.673,16.602,48.828,38.574,32.227,4.883,0
1512969226.677,20.996,49.805,41.992,35.645,70.801,0
1512969226.681,22.461,47.363,42.969,25.391,98.633,0
1512969226.685,15.625,42.969,35.156,13.184,61.523,0
1512969226.689,24.414,52.734,44.922,22.461,14.648,0
1512969226.693,32.715,55.664,45.898,14.648,35.645,0
1512969226.697,17.578,49.316,43.457,18.555,104.492,0
1512969226.701,10.742,56.641,54.199,31.738,94.727,0
1512969226.705,18.066,53.223,43.457,2.441,11.719,0
1512969226.708,18.066,53.711,45.898,-7.812,35.645,0
1512969226.712,0.488,51.758,43.945,4.883,121.582,0
1512969226.716,-5.859,40.039,26.367,8.789,86.426,0
1512969226.720,0.488,48.828,25.879,5.859,4.395,0
1512969226.724,-9.277,42.480,25.391,-3.418,-8.301,0
1512969226.728,-12.207,42.969,35.156,6.836,49.316,0
1512969226.732,-10.254,44.922,49.805,14.648,102.051,0
1512969226.736,-2.441,40.039,44.922,7.812,54.688,0
1512969226.740,14.160,57.617,44.434,13.184,-4.395,0
1512969226.744,2.930,55.176,45.410,6.836,58.594,0
1512969226.747,-2.441,45.410,43.457,-0.488,112.305,0
1512969226.751,-1.953,43.457,43.945,7.812,57.617,0
1512969226.755,-15.137,33.203,42.480,8.789,-23.926,0
1512969226.759,-6.836,41.016,51.270,10.742,11.230,0
1512969226.763,1.465,49.805,60.059,19.043,96.680,0
1512969226.767,-13.672,34.180,46.387,19.531,55.664,0
1512969226.771,-19.531,27.344,34.668,20.020,-36.133,0
1512969226.775,-7.324,38.086,48.828,22.949,12.207,0
1512969226.779,-5.371,37.109,50.293,16.113,104.004,0
1512969226.783,-6.836,33.691,47.363,12.207,110.352,0
1512969226.787,-7.324,32.715,49.316,16.602,59.570,0
1512969226.790,-10.254,39.062,53.223,31.250,22.949,0
1512969226.794,-8.301,41.504,50.781,31.250,75.195,0
1512969226.798,-1.465,34.668,41.504,19.531,109.375,0
1512969226.802,2.441,38.574,42.480,19.043,43.457,0
1512969226.806,10.254,49.805,44.922,23.926,8.301,0
1512969226.810,10.742,51.270,52.734,30.762,28.809,0
1512969226.814,9.766,42.969,60.547,27.344,63.477,0
1512969226.818,12.695,41.504,61.035,26.855,64.453,0
1512969226.822,8.301,41.504,44.922,27.344,24.414,0
1512969226.826,4.883,40.527,36.133,24.414,50.781,0
1512969226.830,8.301,44.922,33.691,21.973,85.449,0
1512969226.833,8.789,45.898,20.508,13.184,81.055,0
1512969226.837,4.883,42.480,25.879,16.113,35.156,0
1512969226.841,2.930,42.480,40.039,19.043,20.508,0
1512969226.845,10.254,54.199,41.016,11.719,81.055,0
1512969226.849,19.531,63.965,42.969,21.484,94.238,0
1512969226.853,19.531,59.082,50.293,26.855,35.645,0
1512969226.857,5.859,41.504,41.992,16.602,-4.883,0
1512969226.861,0.000,35.645,29.785,10.742,9.766,0
1512969226.865,16.113,48.340,39.062,18.555,104.004,0
1512969226.869,24.902,48.828,43.945,14.160,65.918,0
1512969226.872,17.578,38.574,32.227,1.465,-26.367,0
1512969226.876,9.766,37.598,26.367,1.465,41.016,0
1512969226.880,7.324,49.805,38.574,6.348,103.027,0
1512969226.884,10.742,47.852,48.828,11.230,72.266,0
1512969226.888,24.414,52.734,55.176,18.555,-3.906,0
1512969226.892,20.996,61.035,46.875,16.113,-1.465,0
1512969226.896,11.230,40.527,39.062,7.812,66.406,0
1512969226.900,17.578,35.156,46.387,19.531,59.082,0
1512969226.904,1.953,45.410,41.504,24.902,-11.719,0
1512969226.908,-8.789,45.410,42.969,20.996,-4.395,0
1512969226.912,7.812,40.039,57.129,25.879,89.355,0
1512969226.915,19.531,38.574,51.270,22.461,122.070,0
1512969226.919,21.973,48.828,51.758,25.879,62.012,0
1512969226.923,25.391,52.246,58.105,31.250,30.273,0
1512969226.927,18.066,42.969,47.852,20.020,73.730,0
1512969226.931,6.348,44.434,52.734,16.602,84.961,0
1512969226.935,1.465,43.457,53.711,8.301,24.414,0
1512969226.939,1.953,34.668,44.434,5.859,1.953,0
1512969226.943,-0.977,31.738,50.293,5.859,20.508,0
1512969226.947,0.488,36.621,52.734,0.000,39.551,0
1512969226.951,13.672,35.645,49.316,6.836,25.391,0
1512969226.955,7.324,31.250,58.594,9.766,-5.859,0
1512969226.958,-14.160,27.832,57.617,8.301,16.602,0
1512969226.962,-10.254,30.273,54.688,20.508,41.992,0
1512969226.966,0.000,34.180,52.246,9.766,42.480,0
1512969226.970,1.953,37.109,49.316,-4.395,35.645,0
1512969226.974,-7.324,43.457,56.152,5.371,21.484,0
1512969226.978,-15.137,37.109,55.664,8.301,57.617,0
1512969226.982,-17.578,22.461,41.016,-6.348,74.707,0
1512969226.986,-20.996,24.414,37.109,-15.137,39.551,0
1512969226.990,-17.090,25.879,43.945,-6.836,3.418,0
1512969226.994,-1.465,33.203,45.898,0.488,11.230,0
1512969226.997,12.207,39.551,46.387,1.953,56.152,0
1512969227.001,4.883,36.621,44.922,0.488,74.707,0
1512969227.005,-5.859,39.062,50.293,5.371,0.488,0
1512969227.009,-12.207,37.598,51.270,15.137,-18.555,0
1512969227.013,-9.277,30.273,30.762,8.301,115.234,0
1512969227.017,5.371,41.016,40.527,16.602,136.719,0
1512969227.021,7.812,47.363,51.270,24.902,41.992,0
1512969227.025,1.465,34.668,37.598,10.742,52.246,0
1512969227.029,0.977,34.180,38.574,5.371,126.953,0
1512969227.033,9.766,39.551,41.504,7.812,97.656,0
1512969227.037,15.137,46.875,36.621,14.648,38.574,0
1512969227.040,18.555,55.176,32.715,23.926,34.180,0
1512969227.044,15.137,53.223,26.367,16.602,81.055,0
1512969227.048,19.043,45.898,29.785,12.695,118.164,0
1512969227.052,23.438,39.062,36.133,19.531,39.062,0
1512969227.056,25.391,53.223,44.434,27.344,-2.441,0
1512969227.060,30.273,58.594,43.945,26.367,70.312,0
1512969227.064,30.762,54.688,45.898,29.785,116.211,0
1512969227.068,27.344,50.293,54.199,38.086,81.543,0
1512969227.072,24.902,47.852,53.223,28.809,27.832,0
1512969227.076,24.902,46.387,43.945,17.578,23.438,0
1512969227.080,17.578,38.574,30.273,13.184,77.637,0
1512969227.083,18.555,46.387,30.273,14.648,108.887,0
1512969227.087,24.902,48.828,41.016,23.438,36.133,0
1512969227.091,31.738,48.828,48.828,39.062,13.672,0
1512969227.095,31.250,52.734,47.852,41.992,58.594,0
1512969227.099,11.230,43.457,41.992,27.832,23.438,0
1512969227.103,2.930,35.645,34.668,20.508,-32.715,0
1512969227.107,15.137,41.016,44.922,20.508,-33.203,0
1512969227.111,28.809,44.922,56.641,24.902,21.484,0
1512969227.115,33.691,37.109,51.270,26.367,49.316,0
1512969227.119,28.320,38.086,53.711,19.531,16.602,0
1512969227.122,15.625,35.645,49.316,15.137,-12.695,0
1512969227.126,20.508,41.992,53.223,32.227,9.766,0
1512969227.130,27.832,53.223,55.176,38.086,52.246,0
1512969227.134,18.066,41.016,39.551,25.879,33.203,0
1512969227.138,12.207,40.039,41.992,30.762,-2.441,0
1512969227.142,8.301,38.086,46.875,32.227,-29.785,0
1512969227.146,19.531,38.086,54.688,23.438,29.785,0
1512969227.150,20.508,48.828,63.965,23.926,96.191,0
1512969227.154,7.812,38.574,47.363,21.973,19.531,0
1512969227.158,12.207,31.738,46.387,13.184,-33.203,0
1512969227.162,16.113,34.180,55.664,9.277,37.109,0
1512969227.165,20.020,39.551,47.363,15.625,64.941,0
1512969227.169,18.066,42.969,47.363,23.438,2.441,0
1512969227.173,5.371,36.621,54.688,13.672,-14.160,0
1512969227.177,6.836,23.438,48.828,0.488,39.062,0
1512969227.181,6.836,20.508,44.434,-5.371,92.285,0
1512969227.185,8.789,36.133,50.293,8.789,74.707,0
1512969227.189,10.742,23.926,50.293,18.066,-20.996,0
1512969227.193,8.789,16.113,51.270,13.184,-2.441,0
1512969227.197,7.812,22.461,33.691,1.953,101.074,0
1512969227.201,10.254,31.738,35.645,6.348,72.266,0
1512969227.205,12.207,36.133,40.527,16.602,-12.207,0
1512969227.208,14.160,35.645,36.133,3.906,19.043,0
1512969227.212,19.043,41.016,42.480,-9.277,96.191,0
1512969227.216,8.301,36.621,41.992,-0.488,76.172,0
1512969227.220,-8.789,33.203,36.621,6.836,-1.465,0
1512969227.224,-3.418,35.645,52.246,7.324,1.465,0
1512969227.228,14.648,39.062,55.176,1.953,70.312,0
1512969227.232,19.043,39.551,35.156,-2.441,67.871,0
1512969227.236,5.859,41.504,26.855,8.301,1.465,0
1512969227.240,6.348,45.898,28.320,13.184,-7.812,0
1512969227.244,17.090,42.480,29.785,14.160,27.344,0
1512969227.247,13.184,37.109,34.180,6.836,47.363,0
1512969227.251,13.672,41.016,40.527,4.883,33.203,0
1512969227.255,14.160,39.551,38.574,-0.488,1.953,0
1512969227.259,11.719,37.598,41.016,0.977,11.719,0
1512969227.263,26.367,56.641,47.852,25.879,78.613,0
1512969227.267,18.555,56.152,41.992,27.832,55.176,0
1512969227.271,1.465,35.156,34.180,16.602,-43.457,0
1512969227.275,0.977,31.738,27.832,15.137,-50.293,0
1512969227.279,2.930,37.598,28.320,8.301,25.879,0
1512969227.283,0.488,37.598,29.785,4.395,56.152,0
1512969227.287,4.883,36.133,37.598,17.578,9.766,0
1512969227.290,13.184,45.410,51.758,29.297,-22.949,0
1512969227.294,8.301,36.133,41.016,18.066,25.879,0
1512969227.298,14.160,36.133,39.062,11.230,83.496,0
1512969227.302,14.648,45.410,43.945,19.043,26.367,0
1512969227.306,5.859,44.922,44.434,25.879,-18.555,0
1512969227.310,14.648,53.223,43.945,21.973,28.809,0
1512969227.314,12.207,42.969,34.180,13.184,83.008,0
1512969227.318,9.277,31.250,44.434,17.090,44.922,0
1512969227.322,8.301,36.621,47.852,15.625,-31.738,0
1512969227.326,-0.488,39.551,42.969,12.207,9.277,0
1512969227.330,5.371,38.086,51.758,18.066,81.543,0
1512969227.333,11.230,38.574,46.387,20.996,59.082,0
1512969227.337,16.113,41.992,41.992,18.066,-37.598,0
1512969227.341,21.973,49.316,52.734,11.719,-39.551,0
1512969227.345,9.766,42.480,51.270,1.465,111.328,0
1512969227.349,-1.465,36.133,48.828,7.812,136.719,0
1512969227.353,2.930,42.969,42.969,20.996,0.488,0
1512969227.357,10.254,42.480,33.203,19.043,-35.645,0
1512969227.361,17.578,38.086,41.504,10.742,48.340,0
1512969227.365,12.695,38.086,50.293,6.348,90.820,0
1512969227.369,3.418,41.016,49.805,6.836,20.996,0
1512969227.372,3.906,47.363,49.805,5.859,-31.250,0
1512969227.376,5.371,48.340,53.223,9.277,26.367,0
1512969227.380,3.906,47.363,50.781,7.812,95.703,0
1512969227.384,4.883,46.387,41.992,-2.441,84.961,0
1512969227.388,3.906,47.363,33.691,2.441,8.301,0
1512969227.392,5.371,43.945,41.016,-0.977,7.812,0
1512969227.396,9.277,42.480,53.223,-14.648,81.543,0
1512969227.400,10.254,50.293,51.758,-6.348,73.242,0
1512969227.404,6.348,47.852,44.922,2.930,30.762,0
1512969227.408,0.977,43.457,47.363,10.742,11.719,0
1512969227.412,-0.488,44.922,56.641,16.113,39.551,0
1512969227.415,0.000,48.340,41.504,2.441,76.172,0
1512969227.419,7.324,55.664,41.992,9.277,48.828,0
1512969227.423,7.324,55.664,46.387,16.113,6.348,0
1512969227.427,-0.977,42.969,39.062,-0.977,21.484,0
1512969227.431,-3.418,39.062,44.922,-5.859,79.102,0
1512969227.435,-5.371,43.457,55.664,-1.465,70.801,0
1512969227.439,-9.277,42.480,56.641,4.395,7.812,0
1512969227.443,-3.418,42.480,40.527,7.324,18.555,0
1512969227.447,1.953,40.527,33.691,2.441,74.219,0
1512969227.451,9.766,43.945,41.504,15.137,86.426,0
1512969227.455,13.184,49.316,46.875,24.902,39.062,0
1512969227.458,16.113,49.805,49.805,17.578,-1.953,0
1512969227.462,3.418,39.551,44.922,22.949,63.965,0
1512969227.466,-2.930,40.527,43.945,23.926,116.699,0
1512969227.470,4.883,48.828,51.758,24.902,25.879,0
1512969227.474,-5.371,32.227,49.316,22.949,-29.785,0
1512969227.478,-5.859,29.785,42.480,18.555,58.105,0
1512969227.482,-0.488,39.551,54.199,24.902,94.238,0
1512969227.486,12.207,45.898,57.617,22.461,42.480,0
1512969227.490,14.648,41.992,43.945,7.324,27.832,0
1512969227.494,1.953,40.039,38.086,4.395,73.242,0
1512969227.497,1.953,41.992,37.109,16.113,127.930,0
1512969227.501,4.883,37.109,41.016,24.414,94.238,0
1512969227.505,1.465,45.898,57.129,33.691,24.902,0
1512969227.509,-7.324,41.016,56.152,30.273,35.645,0
1512969227.513,-5.371,27.344,52.246,20.020,62.500,0
1512969227.517,4.883,35.645,59.570,28.320,32.715,0
1512969227.521,0.977,37.109,47.852,26.855,-15.625,0
1512969227.525,-9.277,33.691,35.156,20.508,12.695,0
1512969227.529,-0.488,44.434,42.969,17.578,100.098,0
1512969227.533,6.348,37.598,35.156,7.324,88.379,0
1512969227.537,0.488,33.691,36.621,3.906,11.719,0
1512969227.540,-2.441,40.527,54.199,7.812,0.000,0
1512969227.544,2.930,43.945,56.641,9.277,21.484,0
1512969227.548,4.395,41.504,43.945,9.277,52.734,0
1512969227.552,4.883,38.086,42.480,16.113,40.039,0
1512969227.556,-4.395,38.086,53.223,23.926,7.812,0
1512969227.560,-9.766,36.621,42.969,22.949,49.316,0
1512969227.564,-0.488,41.016,36.133,19.531,65.918,0
1512969227.568,-7.812,42.480,41.504,17.090,41.504,0
1512969227.572,-9.277,36.133,42.480,21.484,26.855,0
1512969227.576,-5.371,33.691,43.945,23.438,20.020,0
1512969227.580,-3.418,37.598,42.480,12.207,71.777,0
1512969227.583,-9.766,34.180,32.715,-2.930,101.074,0
1512969227.587,-18.066,34.668,29.785,-4.883,27.832,0
1512969227.591,0.000,55.664,50.293,12.207,0.488,0
1512969227.595,5.371,54.688,61.035,12.695,44.434,0
1512969227.599,2.930,38.574,38.574,6.348,59.570,0
1512969227.603,4.395,34.668,29.785,4.883,6.836,0
1512969227.607,1.465,35.156,43.945,4.395,-44.434,0
1512969227.611,3.418,34.668,34.180,2.930,19.531,0
1512969227.615,1.953,31.250,30.273,7.812,91.309,0
1512969227.619,-9.766,33.203,41.504,18.555,57.129,0
1512969227.622,-9.277,37.109,45.410,18.066,15.137,0
1512969227.626,-0.977,35.645,47.852,19.531,42.480,0
1512969227.630,13.184,50.293,48.340,21.484,83.496,0
1512969227.634,16.113,53.223,54.199,16.113,40.527,0
1512969227.638,10.742,40.039,47.363,19.043,-30.762,0
1512969227.642,6.836,36.621,32.227,27.344,-10.254,0
1512969227.646,5.371,32.227,39.551,31.738,48.828,0
1512969227.650,3.418,29.297,41.992,22.949,55.176,0
1512969227.654,-8.789,36.133,41.016,19.043,-15.137,0
1512969227.658,-9.766,39.551,53.223,18.555,5.859,0
1512969227.662,0.977,35.645,59.570,21.973,97.168,0
1512969227.665,8.301,41.992,54.199,30.273,118.164,0
1512969227.669,6.836,40.039,50.293,22.461,56.641,0
1512969227.673,3.418,36.621,40.527,19.043,20.996,0
1512969227.677,0.000,39.551,36.133,20.020,60.547,0
1512969227.681,3.906,34.180,45.410,21.973,95.703,0
1512969227.685,1.465,24.414,45.898,18.555,60.547,0
1512969227.689,0.488,25.879,37.598,13.672,4.395,0
1512969227.693,9.277,37.598,52.734,20.508,32.227,0
1512969227.697,10.254,46.387,67.871,27.344,67.383,0
1512969227.701,-2.441,37.598,48.340,21.484,36.621,0
1512969227.705,-4.883,38.086,41.992,22.461,11.230,0
1512969227.708,3.906,40.039,51.270,20.996,49.316,0
1512969227.712,4.395,26.855,42.480,8.789,84.961,0
1512969227.716,8.301,40.527,43.945,21.973,82.520,0
1512969227.720,5.859,47.363,49.805,32.227,50.781,0
1512969227.724,-9.277,34.668,50.781,19.531,15.137,0
1512969227.728,-9.277,29.297,50.293,11.719,62.012,0
1512969227.732,-3.418,27.344,41.504,7.812,96.191,0
1512969227.736,-2.930,38.574,48.340,11.230,41.504,0
1512969227.740,-3.418,46.875,54.688,12.207,4.883,0
1512969227.744,1.953,40.039,45.898,14.160,41.992,0
1512969227.747,2.930,36.621,46.875,15.625,92.285,0
1512969227.751,-0.977,32.715,47.852,8.789,76.660,0
1512969227.755,4.883,25.879,46.387,5.859,3.906,0
1512969227.759,5.859,33.691,45.410,11.230,5.859,0
1512969227.763,2.441,38.574,45.898,8.789,99.609,0
1512969227.767,1.953,32.715,45.898,-2.930,107.910,0
1512969227.771,4.395,32.715,37.109,-4.395,15.625,0
1512969227.775,2.930,41.016,43.457,3.906,1.465,0
1512969227.779,-4.395,46.387,50.781,8.301,71.289,0
1512969227.783,1.465,39.062,48.828,6.836,73.730,0
1512969227.787,1.465,33.203,49.316,0.000,9.766,0
1512969227.790,-2.441,32.715,48.828,8.301,12.695,0
1512969227.794,-6.836,36.621,45.410,13.672,89.355,0
1512969227.798,-2.441,38.574,39.062,-0.977,121.582,0
1512969227.802,10.742,43.457,48.828,-3.418,51.270,0
1512969227.806,1.465,43.945,45.898,0.977,-10.254,0
1512969227.810,-0.977,42.480,34.180,13.184,42.480,0
1512969227.814,10.742,42.480,40.527,18.555,97.168,0
1512969227.818,15.137,43.945,47.852,12.207,52.734,0
1512969227.822,13.184,50.293,46.387,17.090,-27.832,0
1512969227.826,18.555,53.223,46.875,22.949,1.465,0
1512969227.830,11.719,55.176,42.480,22.949,76.660,0
1512969227.833,8.301,51.270,36.133,24.902,54.688,0
1512969227.837,13.672,43.457,35.156,25.391,-12.207,0
1512969227.841,16.602,47.852,35.645,17.090,0.488,0
1512969227.845,17.090,57.617,40.527,12.207,59.082,0
1512969227.849,11.719,48.340,44.922,18.555,56.152,0
1512969227.853,12.695,38.574,32.227,18.066,35.645,0
1512969227.857,19.043,51.270,32.227,28.320,20.996,0
1512969227.861,10.254,49.805,33.691,38.574,24.414,0
1512969227.865,-1.465,39.062,35.156,28.320,83.496,0
1512969227.869,4.395,51.270,42.480,31.738,58.594,0
1512969227.872,19.043,58.105,50.293,42.969,-13.672,0
1512969227.876,20.020,61.523,53.223,41.016,9.277,0
1512969227.880,18.555,62.500,41.016,37.598,48.828,0
1512969227.884,19.531,58.105,33.691,36.621,31.250,0
1512969227.888,13.672,55.664,37.598,42.480,-11.719,0
1512969227.892,8.301,49.316,29.297,46.875,-29.785,0
1512969227.896,16.602,50.293,33.203,35.645,56.152,0
1512969227.900,25.391,53.711,46.387,26.367,132.812,0
1512969227.904,20.508,52.246,55.176,34.180,41.504,0
1512969227.908,18.555,57.129,67.871,41.992,-9.766,0
1512969227.912,21.484,55.664,61.523,40.039,53.711,0
