timestamps,TP9,AF7,AF8,TP10,Right AUX,Marker0
1512856762.787,11.230,37.598,52.246,41.504,74.707,0
1512856762.791,7.324,29.297,18.066,59.570,111.816,0
1512856762.795,10.254,39.551,25.879,62.500,123.047,0
1512856762.799,25.879,38.574,30.762,51.758,123.535,0
1512856762.803,31.250,35.156,32.227,46.387,123.047,0
1512856762.807,5.371,21.484,53.223,32.715,111.816,0
1512856762.811,0.488,10.742,34.668,28.809,110.352,0
1512856762.815,11.719,18.066,-4.883,43.945,90.332,0
1512856762.819,10.742,19.043,21.484,47.852,95.215,0
1512856762.822,21.484,34.180,53.711,53.223,135.742,0
1512856762.826,6.348,48.340,35.645,55.176,147.949,0
1512856762.830,7.324,55.176,48.340,56.641,124.023,0
1512856762.834,21.484,50.781,45.410,52.734,125.977,0
1512856762.838,8.789,7.324,11.230,50.293,149.902,0
1512856762.842,16.113,-1.953,11.719,51.270,124.023,0
1512856762.846,10.742,11.719,12.207,38.086,84.961,0
1512856762.850,18.555,24.902,35.156,53.223,113.281,0
1512856762.854,32.227,32.227,47.852,71.777,104.980,0
1512856762.858,18.555,29.297,40.527,69.336,76.172,0
1512856762.861,36.133,54.688,25.391,81.543,90.332,0
1512856762.865,38.086,62.500,31.250,69.336,112.793,0
1512856762.869,20.508,40.527,58.594,43.457,127.930,0
1512856762.873,29.785,32.715,46.387,43.945,107.422,0
1512856762.877,19.043,36.133,48.340,48.340,101.074,0
1512856762.881,1.953,26.367,23.438,34.668,125.000,0
1512856762.885,-2.930,7.324,21.973,37.598,104.004,0
1512856762.889,1.953,14.160,51.758,47.852,110.840,0
1512856762.893,10.254,22.949,36.621,41.504,116.699,0
1512856762.897,9.766,22.949,11.230,52.734,92.773,0
1512856762.901,20.508,36.133,-4.395,66.895,110.840,0
1512856762.904,12.695,38.574,-26.855,54.199,109.863,0
1512856762.908,17.090,41.504,35.156,55.176,85.938,0
1512856762.912,32.715,46.875,89.355,59.082,139.160,0
1512856762.916,27.832,32.227,48.340,40.527,129.395,0
1512856762.920,12.695,28.809,49.805,40.527,90.332,0
1512856762.924,13.184,38.086,44.434,49.805,102.539,0
1512856762.928,32.715,45.898,-6.836,63.965,116.211,0
1512856762.932,30.273,33.203,11.230,58.105,137.207,0
1512856762.936,16.113,19.531,29.297,43.457,117.676,0
1512856762.940,14.648,24.902,29.785,64.941,103.027,0
1512856762.944,25.391,42.480,45.410,69.336,136.719,0
1512856762.947,41.504,45.410,32.715,63.477,136.230,0
1512856762.951,36.133,39.062,9.277,70.801,139.648,0
1512856762.955,37.109,48.340,32.715,66.895,128.906,0
1512856762.959,51.270,55.664,31.738,66.895,133.789,0
1512856762.963,21.973,38.086,6.348,55.176,127.930,0
1512856762.967,10.254,23.438,35.645,47.363,100.586,0
1512856762.971,8.789,27.344,56.641,46.875,142.090,0
1512856762.975,-12.695,14.648,68.359,48.340,136.719,0
1512856762.979,-9.277,23.926,46.387,47.852,116.211,0
1512856762.983,16.113,44.434,28.320,47.852,130.371,0
1512856762.986,20.020,39.551,50.781,62.988,125.000,0
1512856762.990,17.578,33.203,40.527,70.312,113.770,0
1512856762.994,19.531,23.438,17.578,52.246,90.332,0
1512856762.998,14.160,19.043,-15.137,45.898,93.262,0
1512856763.002,22.461,33.203,10.742,61.035,105.957,0
1512856763.006,26.855,35.156,59.570,68.359,77.148,0
1512856763.010,35.645,37.109,54.688,87.402,45.898,0
1512856763.014,19.043,36.133,20.996,72.266,42.480,0
1512856763.018,20.996,32.715,8.301,45.410,77.637,0
1512856763.022,44.922,30.273,14.160,50.781,72.754,0
1512856763.026,34.180,34.668,41.992,47.363,46.875,0
1512856763.029,7.812,33.691,13.672,44.922,80.566,0
1512856763.033,3.418,43.457,-15.625,50.293,94.238,0
1512856763.037,18.555,42.969,40.527,61.523,79.102,0
1512856763.041,21.973,19.043,70.801,54.688,50.781,0
1512856763.045,8.789,26.855,53.223,39.551,62.500,0
1512856763.049,19.043,36.133,39.551,33.691,58.594,0
1512856763.053,20.508,30.762,34.668,49.316,16.113,0
1512856763.057,3.418,34.180,30.273,55.664,34.180,0
1512856763.061,11.719,33.203,48.828,46.387,62.012,0
1512856763.065,5.859,36.133,28.809,50.293,53.223,0
1512856763.069,22.949,57.617,8.789,59.570,65.430,0
1512856763.072,46.875,71.289,21.484,61.523,79.102,0
1512856763.076,26.367,30.273,21.973,44.922,72.266,0
1512856763.080,28.320,-3.906,25.879,44.922,73.730,0
1512856763.084,9.277,11.719,19.531,56.152,68.359,0
1512856763.088,-20.996,15.625,47.363,57.129,59.570,0
1512856763.092,14.160,20.020,62.988,62.012,66.895,0
1512856763.096,42.969,30.762,39.551,49.805,62.500,0
1512856763.100,49.805,44.922,53.223,44.434,62.988,0
1512856763.104,20.996,39.062,27.832,44.922,64.453,0
1512856763.108,-3.906,16.602,20.508,41.992,58.105,0
1512856763.111,16.113,31.250,50.293,45.898,63.965,0
1512856763.115,13.672,45.898,41.992,43.457,80.078,0
1512856763.119,-8.789,25.879,32.715,45.898,64.453,0
1512856763.123,-27.344,9.766,21.484,32.227,63.477,0
1512856763.127,-14.648,18.066,22.949,39.062,97.168,0
1512856763.131,18.555,21.973,11.230,52.246,98.145,0
1512856763.135,36.133,32.227,32.715,50.293,74.219,0
1512856763.139,16.113,26.367,11.230,55.176,74.707,0
1512856763.143,22.461,25.391,-8.789,66.406,53.223,0
1512856763.147,36.621,36.621,43.457,78.125,71.289,0
1512856763.151,15.625,40.527,47.363,72.266,104.492,0
1512856763.154,21.973,54.199,27.832,69.824,95.703,0
1512856763.158,29.297,43.945,50.781,57.129,53.711,0
1512856763.162,32.715,32.715,63.477,46.875,69.336,0
1512856763.166,26.855,30.273,61.523,47.852,137.207,0
1512856763.170,18.066,37.598,44.922,48.340,110.352,0
1512856763.174,14.648,29.297,-16.602,36.621,73.242,0
1512856763.178,29.785,28.320,18.555,29.785,72.754,0
1512856763.182,20.996,27.344,25.391,23.438,62.012,0
1512856763.186,4.395,10.254,-20.508,28.320,68.848,0
1512856763.190,6.836,15.137,25.879,57.617,60.059,0
1512856763.194,-1.953,33.691,77.637,71.289,55.176,0
1512856763.197,4.883,52.246,31.738,70.801,92.285,0
1512856763.201,23.926,40.039,-17.090,60.547,82.031,0
1512856763.205,27.344,16.602,19.043,43.457,54.688,0
1512856763.209,13.184,18.555,21.973,48.828,93.262,0
1512856763.213,10.742,42.969,59.082,71.777,104.492,0
1512856763.217,28.809,40.039,90.332,67.383,82.520,0
1512856763.221,36.133,25.879,68.359,60.059,72.266,0
1512856763.225,36.133,31.250,57.129,77.637,68.848,0
1512856763.229,9.766,35.156,43.457,75.195,50.781,0
1512856763.233,1.465,39.062,12.695,60.059,9.766,0
1512856763.236,25.879,37.598,-35.645,58.594,14.160,0
1512856763.240,27.344,18.066,-21.973,49.805,72.754,0
1512856763.244,22.949,26.855,44.434,54.199,79.590,0
1512856763.248,27.832,39.062,78.613,73.242,71.777,0
1512856763.252,17.090,33.691,72.266,64.941,93.262,0
1512856763.256,14.160,34.180,53.711,62.500,79.102,0
1512856763.260,25.391,38.086,37.598,63.477,49.316,0
1512856763.264,37.598,50.781,70.312,71.289,56.641,0
1512856763.268,34.180,59.570,66.895,84.961,63.477,0
1512856763.272,9.766,33.691,-13.184,68.359,87.402,0
1512856763.276,7.812,15.137,-9.766,64.941,75.684,0
1512856763.279,13.672,24.414,30.762,72.266,34.180,0
1512856763.283,20.996,28.320,38.086,62.988,57.129,0
1512856763.287,18.555,26.855,62.012,51.270,59.082,0
1512856763.291,8.301,26.367,21.973,40.039,75.195,0
1512856763.295,14.160,29.785,18.555,47.852,88.379,0
1512856763.299,27.832,37.598,69.336,74.707,58.105,0
1512856763.303,35.645,43.945,30.273,73.242,66.406,0
1512856763.307,40.527,51.758,31.250,65.430,91.797,0
1512856763.311,42.969,43.945,56.152,55.664,69.336,0
1512856763.315,37.598,23.438,27.344,39.062,59.082,0
1512856763.319,21.484,27.344,31.250,53.711,65.918,0
1512856763.322,0.977,28.809,54.688,59.570,59.570,0
1512856763.326,15.137,27.832,46.387,53.711,51.270,0
1512856763.330,32.227,48.828,32.227,58.594,50.293,0
1512856763.334,14.648,41.016,31.250,70.801,51.758,0
1512856763.338,0.488,18.066,9.766,49.316,23.926,0
1512856763.342,8.789,34.668,10.254,30.273,37.598,0
1512856763.346,20.508,46.387,53.223,43.457,74.707,0
1512856763.350,18.555,39.062,49.805,35.156,81.055,0
1512856763.354,8.789,26.855,7.812,26.367,87.891,0
1512856763.358,5.371,29.297,2.930,43.945,87.402,0
1512856763.361,-0.977,15.625,26.367,40.039,63.477,0
1512856763.365,6.836,20.020,52.246,50.781,41.992,0
1512856763.369,27.832,37.598,61.523,64.453,34.180,0
1512856763.373,24.414,26.367,29.785,43.945,55.176,0
1512856763.377,33.691,35.645,-2.441,39.062,43.457,0
1512856763.381,33.203,41.016,29.297,44.434,40.527,0
1512856763.385,10.742,37.109,67.383,56.152,56.152,0
1512856763.389,3.418,41.992,50.293,60.059,61.035,0
1512856763.393,10.742,35.645,18.555,50.293,80.566,0
1512856763.397,18.066,30.273,31.738,53.711,63.965,0
1512856763.401,13.184,24.902,59.570,67.871,32.715,0
1512856763.404,7.812,25.391,34.180,66.406,42.969,0
1512856763.408,22.461,33.691,11.230,66.895,54.199,0
1512856763.412,35.645,32.715,31.738,63.965,58.105,0
1512856763.416,32.227,31.738,37.598,32.227,28.320,0
1512856763.420,31.738,43.457,33.691,16.113,11.230,0
1512856763.424,13.672,34.668,42.480,27.832,50.781,0
1512856763.428,-4.395,23.926,18.066,42.969,42.969,0
1512856763.432,10.254,32.227,31.738,52.246,8.301,0
1512856763.436,9.766,27.344,58.594,40.527,26.855,0
1512856763.440,16.602,23.926,61.523,46.875,36.133,0
1512856763.444,19.043,18.555,50.781,47.852,5.371,0
1512856763.447,22.949,16.113,20.020,45.410,1.953,0
1512856763.451,35.645,21.973,17.578,53.711,35.645,0
1512856763.455,34.668,40.527,20.996,61.523,32.227,0
1512856763.459,37.598,64.453,26.367,62.500,23.438,0
1512856763.463,37.598,52.246,38.086,55.176,48.828,0
1512856763.467,44.922,34.668,38.574,62.500,45.898,0
1512856763.471,39.551,35.156,15.137,72.754,8.789,0
1512856763.475,8.301,24.414,16.602,59.082,-6.836,0
1512856763.479,10.254,18.555,25.879,45.898,13.672,0
1512856763.483,18.555,22.461,35.156,55.176,42.480,0
1512856763.486,13.672,17.090,67.383,53.223,18.555,0
1512856763.490,13.672,21.973,57.617,47.363,2.441,0
1512856763.494,13.672,30.273,37.598,54.199,51.758,0
1512856763.498,19.531,38.574,36.621,54.688,32.227,0
1512856763.502,39.062,52.246,61.035,59.570,14.160,0
1512856763.506,32.715,32.715,54.199,57.617,34.668,0
1512856763.510,7.812,9.277,16.602,56.152,26.855,0
1512856763.514,4.883,12.695,-25.879,62.500,26.367,0
1512856763.518,11.230,16.602,-34.180,61.523,20.020,0
1512856763.522,6.836,20.508,44.922,68.848,27.832,0
1512856763.526,13.672,27.344,84.961,77.637,42.480,0
1512856763.529,16.113,32.227,47.363,63.965,51.758,0
1512856763.533,14.648,34.668,18.555,54.199,52.246,0
1512856763.537,19.531,43.457,28.809,68.848,50.293,0
1512856763.541,25.391,40.039,72.266,73.242,72.754,0
1512856763.545,17.090,22.949,70.312,58.105,69.336,0
1512856763.549,21.484,31.738,46.875,62.988,45.898,0
1512856763.553,23.926,34.180,24.902,63.965,23.926,0
1512856763.557,21.484,17.578,1.465,45.898,42.969,0
1512856763.561,30.762,28.320,28.809,61.523,55.664,0
1512856763.565,27.832,48.340,44.922,74.707,39.551,0
1512856763.569,20.020,40.039,11.719,49.805,44.922,0
1512856763.572,17.578,36.621,29.297,56.641,71.777,0
1512856763.576,26.367,37.598,9.277,73.242,75.195,0
1512856763.580,11.719,39.062,-0.488,59.570,67.871,0
1512856763.584,7.324,36.621,49.805,49.316,62.500,0
1512856763.588,36.133,42.480,44.434,57.129,62.012,0
1512856763.592,29.297,38.574,15.625,53.711,44.434,0
1512856763.596,3.418,19.043,38.574,48.828,24.902,0
1512856763.600,22.949,34.180,66.895,64.941,35.645,0
1512856763.604,30.762,41.992,78.125,65.918,51.270,0
1512856763.608,11.719,37.598,61.523,50.781,33.691,0
1512856763.611,18.555,32.227,38.086,59.082,35.645,0
1512856763.615,23.438,29.297,20.020,58.105,38.086,0
1512856763.619,20.996,40.039,-17.090,51.758,31.738,0
1512856763.623,12.695,39.551,-5.371,62.012,17.578,0
1512856763.627,2.930,17.090,49.805,52.246,17.578,0
1512856763.631,2.441,11.719,61.035,30.762,24.414,0
1512856763.635,28.320,37.109,65.918,44.922,36.621,0
1512856763.639,39.062,44.922,50.781,61.523,57.129,0
1512856763.643,19.531,41.016,44.922,62.012,62.500,0
1512856763.647,-0.977,37.109,37.109,56.152,63.477,0
1512856763.651,7.324,21.973,10.742,50.293,52.734,0
1512856763.654,19.043,20.020,20.020,54.199,45.898,0
1512856763.658,15.625,34.668,41.016,53.223,54.688,0
1512856763.662,6.836,48.340,24.902,52.246,72.754,0
1512856763.666,18.066,48.340,54.199,64.453,52.734,0
1512856763.670,45.898,38.086,99.121,77.637,30.273,0
1512856763.674,32.715,24.414,41.504,65.430,48.340,0
1512856763.678,6.348,19.531,3.418,45.410,72.266,0
1512856763.682,2.441,24.902,34.668,54.688,51.270,0
1512856763.686,2.930,24.902,31.250,66.406,22.461,0
1512856763.690,9.277,35.156,-4.883,59.570,51.758,0
1512856763.694,13.184,38.086,18.066,49.316,51.758,0
1512856763.697,4.883,25.879,50.293,53.711,24.902,1
1512856763.701,18.555,30.273,46.387,66.895,33.203,0
1512856763.705,31.250,36.621,51.270,65.430,56.641,0
1512856763.709,38.086,26.367,40.039,56.641,63.965,0
1512856763.713,44.434,28.320,39.062,66.895,22.461,0
1512856763.717,44.434,31.738,44.922,57.617,25.879,0
1512856763.721,20.020,27.832,13.184,35.156,45.898,0
1512856763.725,1.465,31.738,16.602,28.809,30.762,0
1512856763.729,21.973,39.551,36.133,45.410,43.945,0
1512856763.733,15.625,34.668,41.504,59.570,67.871,0
1512856763.736,9.766,26.367,72.266,56.641,62.988,0
1512856763.740,36.621,31.738,69.824,67.383,57.617,0
1512856763.744,29.297,38.086,47.363,71.777,60.059,0
1512856763.748,17.090,38.086,41.504,70.312,40.039,0
1512856763.752,20.996,33.203,22.461,66.895,57.617,0
1512856763.756,0.488,26.367,15.137,54.688,64.453,0
1512856763.760,4.883,27.344,29.785,58.594,48.828,0
1512856763.764,29.785,26.367,30.762,66.895,62.012,0
1512856763.768,22.949,21.973,40.039,52.246,75.684,0
1512856763.772,19.531,31.250,42.480,44.922,63.965,0
1512856763.776,30.762,38.574,48.828,61.523,21.484,0
1512856763.779,20.508,30.273,33.203,59.082,50.293,0
1512856763.783,23.926,28.320,20.508,52.734,67.383,0
1512856763.787,22.949,28.809,18.066,57.617,54.688,0
1512856763.791,14.648,24.414,22.461,56.152,46.387,0
1512856763.795,3.906,15.625,26.367,38.574,40.039,0
1512856763.799,3.906,25.879,31.250,40.039,46.387,0
1512856763.803,23.438,46.387,83.008,60.547,30.762,0
1512856763.807,37.598,31.738,70.801,44.922,21.973,0
1512856763.811,47.852,19.531,41.016,47.363,44.922,0
1512856763.815,35.156,37.598,40.527,62.012,49.316,0
1512856763.819,4.883,34.668,23.438,54.199,36.621,0
1512856763.822,3.418,31.250,23.926,39.062,29.785,0
1512856763.826,30.762,53.223,9.766,45.410,20.020,0
1512856763.830,22.461,43.945,11.719,62.988,7.324,0
1512856763.834,-2.441,18.555,20.996,56.152,16.602,0
1512856763.838,-8.789,16.602,24.902,37.598,8.301,0
1512856763.842,3.906,28.809,49.805,41.992,7.324,0
1512856763.846,16.602,26.855,42.969,54.199,16.602,0
1512856763.850,27.344,22.461,64.941,62.500,-7.812,0
1512856763.854,26.855,28.809,58.105,64.941,2.441,0
1512856763.858,14.160,32.227,19.531,60.059,58.594,0
1512856763.861,26.367,39.062,-18.066,62.988,21.484,0
1512856763.865,26.855,38.574,-15.137,46.387,-18.066,0
1512856763.869,16.602,48.340,37.109,41.504,14.160,0
1512856763.873,18.555,49.805,52.246,56.152,3.906,0
1512856763.877,16.113,29.297,35.156,52.246,-20.020,0
1512856763.881,18.066,20.508,51.270,43.457,-12.695,0
1512856763.885,24.414,16.113,56.152,40.039,-1.465,0
1512856763.889,14.648,20.020,30.273,38.574,-18.555,0
1512856763.893,35.156,37.598,30.273,56.152,-44.434,0
1512856763.897,21.484,37.109,14.648,54.199,-26.367,0
1512856763.901,0.488,36.133,-14.160,42.969,-1.465,0
1512856763.904,22.949,51.758,15.625,53.223,-15.625,0
1512856763.908,25.879,45.410,95.703,68.359,-41.992,0
1512856763.912,18.555,29.297,76.660,62.012,-37.109,0
1512856763.916,14.648,33.203,30.273,52.734,-3.906,0
1512856763.920,-1.465,18.555,34.668,44.922,3.906,0
1512856763.924,6.348,3.418,31.738,47.852,-8.789,0
1512856763.928,32.715,21.484,13.184,62.988,-16.113,0
1512856763.932,28.320,33.691,17.090,64.941,-17.090,0
1512856763.936,19.043,43.457,51.758,64.453,8.301,0
1512856763.940,19.043,52.734,37.109,63.965,-17.090,0
1512856763.944,39.551,43.945,45.898,76.172,-15.137,0
1512856763.947,23.926,21.484,73.242,71.289,18.066,0
1512856763.951,3.418,32.715,64.453,67.871,-21.484,0
1512856763.955,26.367,41.504,39.551,62.500,-12.695,0
1512856763.959,20.020,31.250,44.434,47.852,-22.461,0
1512856763.963,-5.859,19.043,51.270,40.039,-32.715,0
1512856763.967,-8.301,13.672,24.902,39.551,-43.457,0
1512856763.971,11.719,24.902,-14.648,54.688,-41.504,0
1512856763.975,14.160,38.086,-11.719,66.895,-26.367,0
1512856763.979,16.602,54.688,55.176,68.848,-45.898,0
1512856763.983,21.484,41.992,56.152,58.594,-60.547,0
1512856763.986,17.090,27.344,30.273,60.059,-63.965,0
1512856763.990,26.855,39.551,62.012,72.266,-7.812,0
1512856763.994,21.484,38.574,65.430,64.941,-9.277,0
1512856763.998,13.184,26.367,31.738,58.105,-38.086,0
1512856764.002,17.090,27.832,10.254,52.734,-40.039,0
1512856764.006,31.250,33.691,15.137,47.852,-50.293,0
1512856764.010,27.344,32.715,25.391,41.016,-37.598,0
1512856764.014,20.020,32.715,10.742,38.574,-39.062,0
1512856764.018,21.973,42.969,15.625,59.082,-51.270,0
1512856764.022,26.367,46.875,59.082,65.918,-68.359,0
1512856764.026,30.762,41.992,79.590,65.918,-77.148,0
1512856764.029,30.762,35.156,48.340,76.172,-69.824,0
1512856764.033,26.367,20.020,16.602,66.406,-53.223,0
1512856764.037,13.672,16.113,7.324,51.758,-42.480,0
1512856764.041,18.555,32.715,33.691,68.359,-70.312,0
1512856764.045,26.855,38.574,53.711,65.430,-108.887,0
1512856764.049,24.414,33.203,54.688,71.777,-72.754,0
1512856764.053,20.508,39.062,62.988,73.242,-25.879,0
1512856764.057,11.230,44.434,70.801,56.641,-29.785,0
1512856764.061,10.742,48.340,43.457,57.617,-63.477,0
1512856764.065,6.836,33.203,6.348,37.598,-75.684,0
1512856764.069,-10.254,14.160,47.363,30.273,-72.266,0
1512856764.072,10.742,19.531,16.602,39.551,-66.895,0
1512856764.076,29.297,20.996,-32.227,38.086,-63.965,0
1512856764.080,14.648,27.344,31.250,31.250,-70.801,0
1512856764.084,31.250,40.527,62.988,53.711,-60.547,0
1512856764.088,35.645,29.297,38.574,57.617,-83.984,0
1512856764.092,15.625,34.180,32.227,48.340,-87.402,0
1512856764.096,12.207,46.387,47.852,59.082,-43.945,0
1512856764.100,11.230,33.691,55.176,53.711,-55.664,0
1512856764.104,-2.441,16.602,48.340,43.945,-68.848,0
1512856764.108,7.324,20.508,10.742,40.039,-48.828,0
1512856764.111,28.809,52.246,-3.418,47.852,-44.434,0
1512856764.115,15.137,36.133,21.484,50.293,-46.875,0
1512856764.119,3.906,5.859,14.648,42.480,-55.664,0
1512856764.123,8.301,20.508,33.691,60.547,-72.266,0
1512856764.127,10.254,47.852,57.129,66.895,-47.363,0
1512856764.131,10.742,44.922,38.574,55.664,-50.293,0
1512856764.135,20.508,21.484,20.020,62.012,-98.633,0
1512856764.139,31.250,19.043,19.531,50.781,-71.289,0
1512856764.143,48.340,40.039,58.594,62.500,-17.090,0
1512856764.147,31.738,41.992,64.941,71.777,-62.012,0
1512856764.151,8.789,24.414,11.719,56.152,-78.125,0
1512856764.154,15.137,25.391,-13.184,60.059,-32.715,0
1512856764.158,19.043,53.711,6.836,66.895,-40.039,0
1512856764.162,15.625,58.594,15.137,62.988,-32.227,0
1512856764.166,25.391,36.621,56.641,59.082,-25.391,0
1512856764.170,13.184,27.344,62.988,40.527,-51.270,0
1512856764.174,17.578,33.203,64.941,44.434,-34.668,0
1512856764.178,40.039,50.781,55.664,64.453,-62.988,0
1512856764.182,24.414,38.086,41.016,49.805,-52.734,0
1512856764.186,16.602,15.625,46.875,40.527,3.906,0
1512856764.190,10.742,14.648,10.254,42.480,-3.418,0
1512856764.194,13.184,38.086,-9.277,57.617,-8.789,0
1512856764.197,17.090,54.199,30.273,60.547,-26.367,0
1512856764.201,14.160,39.551,41.016,46.387,-18.555,0
1512856764.205,15.137,21.484,13.672,43.457,-24.414,0
1512856764.209,23.926,32.227,12.207,51.758,-57.617,0
1512856764.213,25.879,49.805,40.527,59.082,-41.016,0
1512856764.217,15.137,28.320,56.641,53.711,-20.020,0
1512856764.221,30.762,23.438,56.641,66.406,-15.625,0
1512856764.225,33.203,41.504,51.270,67.871,-22.949,0
1512856764.229,12.695,31.738,33.203,54.688,-15.137,0
1512856764.233,3.906,23.926,0.488,51.758,3.418,0
1512856764.236,6.836,33.691,22.461,48.828,-5.859,0
1512856764.240,23.438,43.457,55.664,51.758,-4.395,0
1512856764.244,29.785,38.574,24.902,36.133,29.785,0
1512856764.248,27.344,39.062,33.203,47.363,24.902,0
1512856764.252,17.578,45.410,20.996,69.824,30.762,0
1512856764.256,-5.859,28.809,-11.230,46.875,10.742,0
1512856764.260,0.000,22.949,30.273,48.828,4.395,0
1512856764.264,16.113,30.273,9.277,56.152,52.734,0
1512856764.268,16.113,32.715,15.625,45.898,25.391,0
1512856764.272,11.230,20.508,71.777,38.574,20.020,0
1512856764.276,0.000,22.461,63.477,35.156,48.828,0
1512856764.279,-4.395,23.438,54.688,32.715,40.039,0
1512856764.283,18.555,50.781,62.500,56.152,41.016,0
1512856764.287,41.504,72.754,36.621,72.266,51.270,0
1512856764.291,37.598,44.434,17.090,61.035,58.105,0
1512856764.295,25.879,28.320,7.812,62.012,31.738,0
1512856764.299,6.836,15.137,-32.715,51.270,31.738,0
1512856764.303,1.465,9.766,3.418,48.828,70.801,0
1512856764.307,0.000,25.879,70.312,41.016,60.059,0
1512856764.311,0.977,28.320,52.734,35.156,47.363,0
1512856764.315,7.324,20.996,18.555,44.434,69.824,0
1512856764.319,15.137,34.668,34.180,62.988,43.945,0
1512856764.322,29.297,49.805,48.340,72.266,60.547,0
1512856764.326,45.410,56.152,62.500,68.359,53.711,0
1512856764.330,39.551,49.805,64.941,58.594,-2.441,0
1512856764.334,25.879,27.832,41.016,51.270,20.508,0
1512856764.338,22.949,23.926,5.371,59.570,60.547,0
1512856764.342,14.648,29.297,-7.812,69.336,50.781,0
1512856764.346,11.230,28.809,5.859,67.871,47.363,0
1512856764.350,21.973,32.227,33.691,62.500,67.383,0
1512856764.354,32.227,21.484,73.242,61.035,72.266,0
1512856764.358,23.926,39.062,81.055,65.430,60.547,0
1512856764.361,12.695,61.035,67.383,70.801,36.621,0
1512856764.365,34.180,40.527,20.020,70.312,56.152,0
1512856764.369,36.133,31.250,10.254,60.059,64.453,0
1512856764.373,29.785,25.391,34.668,46.875,75.684,0
1512856764.377,47.852,31.250,-14.648,50.293,79.590,0
1512856764.381,40.039,31.250,-8.789,54.199,90.332,0
1512856764.385,40.039,31.738,50.293,67.383,84.473,0
1512856764.389,15.137,28.809,51.270,65.430,76.660,0
1512856764.393,2.441,31.250,71.777,67.871,95.215,0
1512856764.397,30.762,57.129,61.523,84.961,93.750,0
1512856764.401,24.902,45.898,33.203,73.730,104.004,0
1512856764.404,10.742,15.625,25.391,52.734,83.984,0
1512856764.408,15.137,25.879,12.695,42.480,98.633,0
1512856764.412,13.672,31.250,0.977,52.246,124.023,0
1512856764.416,-3.906,17.578,4.883,53.711,93.262,0
1512856764.420,0.977,22.461,43.457,49.805,98.633,0
1512856764.424,38.086,41.504,37.598,62.988,117.188,0
1512856764.428,52.246,44.434,38.574,67.871,115.723,0
1512856764.432,31.250,43.457,74.707,64.941,126.953,0
1512856764.436,20.996,52.246,80.566,80.078,117.676,0
1512856764.440,3.418,27.344,31.738,63.965,120.605,0
1512856764.444,2.930,15.137,-31.738,41.016,132.812,0
1512856764.447,14.648,24.902,-39.062,52.734,127.930,0
1512856764.451,11.719,29.785,17.090,40.527,112.793,0
1512856764.455,23.438,41.504,73.242,41.504,125.000,0
1512856764.459,43.945,51.270,72.266,73.242,155.273,0
1512856764.463,43.945,42.969,54.199,72.754,115.723,0
1512856764.467,2.930,20.996,36.133,41.504,115.234,0
1512856764.471,-20.020,27.832,15.137,40.527,167.969,0
1512856764.475,1.465,42.480,35.156,59.082,163.574,0
1512856764.479,24.414,32.227,54.199,61.523,133.301,0
1512856764.483,38.574,34.668,40.527,62.500,160.156,0
1512856764.486,31.738,37.109,-1.465,67.871,181.152,0
1512856764.490,11.230,40.039,-23.438,51.758,165.527,0
1512856764.494,22.461,44.922,32.715,53.711,175.781,0
1512856764.498,32.227,41.504,78.613,64.941,164.062,0
1512856764.502,14.160,24.414,46.387,43.945,155.273,0
1512856764.506,12.695,19.043,21.973,48.340,157.227,0
1512856764.510,22.949,36.133,45.898,62.500,130.859,0
1512856764.514,24.902,35.156,55.664,52.734,142.090,0
1512856764.518,24.414,27.832,32.715,60.059,172.363,0
1512856764.522,9.277,31.250,-1.953,64.941,182.617,0
1512856764.526,7.324,35.156,-11.719,60.059,173.340,0
1512856764.529,29.785,42.480,41.992,68.359,171.875,0
1512856764.533,31.738,50.781,69.336,65.430,179.199,0
1512856764.537,19.531,31.738,52.246,51.758,173.340,0
1512856764.541,13.184,18.555,28.320,50.781,155.273,0
1512856764.545,20.020,32.715,-2.441,49.805,158.691,0
1512856764.549,32.227,33.691,27.344,45.898,152.832,0
1512856764.553,22.949,38.574,57.129,41.016,139.648,0
1512856764.557,0.000,30.762,36.133,48.828,148.438,0
1512856764.561,7.812,21.973,6.348,49.316,191.895,0
1512856764.565,14.648,33.691,14.648,43.457,203.613,0
1512856764.569,15.137,39.062,26.367,44.922,176.270,0
1512856764.572,31.738,50.293,47.363,51.758,184.082,0
1512856764.576,20.020,39.062,74.707,59.570,192.871,0
1512856764.580,13.184,22.461,59.570,55.664,185.547,0
1512856764.584,16.602,21.973,-1.953,35.156,180.664,0
1512856764.588,11.230,19.043,-4.395,30.762,169.922,0
1512856764.592,17.578,21.973,1.465,47.852,181.152,0
1512856764.596,28.320,32.715,14.160,53.711,166.992,0
1512856764.600,30.273,48.828,57.129,68.359,145.508,0
1512856764.604,21.973,47.852,49.316,76.660,177.246,0
1512856764.608,3.418,26.855,45.898,52.734,186.035,0
1512856764.611,5.859,15.137,58.594,51.758,152.832,0
1512856764.615,18.066,20.996,47.852,56.641,163.574,0
1512856764.619,13.184,20.508,33.691,50.781,183.105,0
1512856764.623,5.859,24.414,48.828,49.316,175.781,0
1512856764.627,26.855,41.992,48.340,54.199,145.996,0
1512856764.631,41.504,40.039,2.930,53.223,116.699,0
1512856764.635,15.137,26.367,-8.301,45.410,145.508,0
1512856764.639,12.207,25.879,28.320,47.363,170.898,0
1512856764.643,25.879,37.109,27.832,54.688,160.156,0
1512856764.647,25.391,39.551,53.223,64.941,130.371,0
1512856764.651,16.602,36.621,42.969,63.965,152.832,0
1512856764.654,16.602,31.738,18.555,53.711,163.574,0
1512856764.658,18.555,24.902,35.645,45.898,133.301,0
1512856764.662,19.043,22.949,12.207,57.617,145.508,0
1512856764.666,30.273,39.551,20.020,77.637,142.090,0
1512856764.670,26.855,41.504,27.344,69.824,122.559,0
1512856764.674,21.484,27.344,43.457,49.316,123.535,0
1512856764.678,21.973,37.598,72.754,61.035,125.977,0
1512856764.682,13.184,37.598,61.523,68.848,137.695,0
1512856764.686,0.488,17.578,55.176,47.363,125.000,0
1512856764.690,2.930,12.207,39.551,31.738,89.844,0
1512856764.694,10.742,24.902,33.691,52.734,104.980,0
1512856764.697,18.066,27.832,13.672,63.477,107.910,0
1512856764.701,21.484,26.367,-14.160,53.711,65.430,0
1512856764.705,15.625,24.902,5.859,49.316,80.078,0
1512856764.709,18.066,35.156,38.086,47.852,92.285,0
1512856764.713,33.203,49.316,61.035,58.105,62.988,0
1512856764.717,36.621,40.527,60.547,64.941,68.359,0
1512856764.721,9.766,17.090,43.457,55.176,49.805,0
1512856764.725,10.254,12.207,19.043,54.199,48.828,0
1512856764.729,31.738,17.090,37.598,69.824,28.809,0
1512856764.733,9.277,20.508,44.434,74.219,-1.953,0
1512856764.736,1.465,36.133,22.461,78.613,11.230,0
1512856764.740,19.043,41.016,28.809,71.289,16.602,0
1512856764.744,25.391,38.574,46.387,63.477,47.363,0
1512856764.748,25.879,42.480,33.691,63.965,12.207,0
1512856764.752,22.461,39.551,44.922,58.105,-4.883,0
1512856764.756,23.438,37.109,49.316,63.477,39.062,0
1512856764.760,25.879,30.762,38.086,70.801,12.695,0
1512856764.764,18.555,23.438,43.945,66.895,7.812,0
1512856764.768,16.602,15.625,31.250,64.453,15.625,0
1512856764.772,23.438,20.996,22.949,61.523,2.930,0
1512856764.776,21.973,30.762,25.879,66.895,10.254,0
1512856764.779,23.926,22.461,13.672,64.453,-10.254,0
1512856764.783,20.996,37.109,-15.625,53.711,-0.488,0
1512856764.787,8.301,46.387,13.672,55.664,-1.465,0
1512856764.791,11.719,36.621,39.551,58.594,-19.043,0
1512856764.795,24.902,54.688,42.969,71.289,-32.715,0
1512856764.799,20.508,46.387,54.688,65.430,-29.297,0
1512856764.803,12.695,10.742,53.223,54.688,-17.090,0
1512856764.807,13.184,11.230,56.152,53.711,-41.504,0
1512856764.811,23.926,26.855,21.973,50.781,-69.824,0
1512856764.815,22.949,24.902,-28.320,40.527,-51.270,0
1512856764.819,5.371,19.043,26.367,44.922,-41.016,0
1512856764.822,0.000,24.902,45.898,52.246,-66.406,0
1512856764.826,16.602,35.156,26.367,55.664,-69.336,0
1512856764.830,28.809,37.598,67.871,60.547,-69.336,0
1512856764.834,15.137,23.926,52.734,61.035,-46.387,0
1512856764.838,11.719,35.156,25.391,59.082,-83.984,0
1512856764.842,31.738,55.176,11.719,47.852,-91.309,0
1512856764.846,38.086,48.340,13.672,54.199,-50.781,0
1512856764.850,31.738,34.180,61.035,69.336,-64.453,0
1512856764.854,11.230,19.043,26.855,53.223,-78.125,0
1512856764.858,-0.488,21.973,-24.414,34.668,-96.680,0
1512856764.861,17.578,28.809,11.230,43.945,-99.609,0
1512856764.865,20.508,26.367,38.574,41.992,-78.125,0
1512856764.869,19.043,23.438,49.805,38.086,-75.195,0
1512856764.873,23.926,31.738,54.199,54.688,-92.773,0
1512856764.877,17.090,46.875,45.410,52.734,-85.449,0
1512856764.881,15.625,55.176,40.039,48.828,-77.637,0
1512856764.885,26.855,35.156,23.438,61.523,-99.609,0
1512856764.889,20.020,30.273,32.227,54.688,-84.473,0
1512856764.893,14.160,49.316,51.758,43.945,-69.824,0
1512856764.897,30.762,38.574,26.367,43.945,-82.520,0
1512856764.901,24.414,23.926,-1.465,49.316,-63.477,0
1512856764.904,8.789,17.090,-2.930,50.293,-83.496,0
1512856764.908,-8.301,8.789,20.020,29.297,-90.332,0
1512856764.912,6.348,21.484,47.852,30.762,-80.078,0
1512856764.916,24.902,44.434,57.617,56.152,-105.957,0
1512856764.920,24.902,39.062,65.918,63.965,-85.938,0
1512856764.924,33.203,37.109,39.551,63.477,-73.242,0
1512856764.928,13.184,36.133,25.879,55.176,-123.047,0
1512856764.932,10.742,28.809,18.066,30.762,-121.094,0
1512856764.936,31.250,41.016,7.812,38.574,-60.059,0
1512856764.940,37.598,41.016,20.020,51.758,-54.199,0
1512856764.944,19.043,20.020,6.348,48.828,-82.031,0
1512856764.947,9.277,18.555,18.555,43.945,-95.703,0
1512856764.951,-0.977,21.973,38.086,34.180,-85.449,2
1512856764.955,-6.836,21.484,48.828,42.969,-99.609,0
1512856764.959,20.508,38.086,50.781,49.316,-98.633,0
1512856764.963,39.551,45.410,30.273,44.434,-83.984,0
1512856764.967,22.949,37.109,41.504,54.199,-95.703,0
1512856764.971,0.488,30.273,62.012,59.082,-109.375,0
1512856764.975,5.371,28.320,31.738,50.293,-145.508,0
1512856764.979,26.855,28.809,-13.672,47.852,-126.953,0
1512856764.983,24.902,24.902,-1.465,37.598,-95.215,0
1512856764.986,-5.859,21.484,29.297,34.180,-125.488,0
1512856764.990,0.000,26.855,58.594,48.340,-118.164,0
1512856764.994,14.648,36.133,49.805,45.898,-66.406,0
1512856764.998,9.766,28.320,20.508,30.273,-59.570,0
1512856765.002,33.691,37.598,50.781,48.340,-94.727,0
1512856765.006,24.902,28.809,62.500,53.711,-102.051,0
1512856765.010,19.043,29.297,34.668,52.734,-93.262,0
1512856765.014,35.645,34.668,26.855,56.152,-95.215,0
1512856765.018,29.297,17.090,20.996,55.176,-114.258,0
1512856765.022,9.277,19.043,19.043,52.734,-114.258,0
1512856765.026,10.254,34.180,24.414,55.664,-84.473,0
1512856765.029,3.418,27.832,16.113,47.363,-69.824,0
1512856765.033,-0.977,33.203,40.527,47.363,-71.289,0
1512856765.037,17.090,50.293,82.520,64.941,-50.293,0
1512856765.041,14.160,40.039,56.641,63.965,-39.062,0
1512856765.045,13.184,34.180,27.832,62.012,-60.547,0
1512856765.049,-0.977,20.020,33.691,44.922,-74.219,0
1512856765.053,-4.395,8.301,22.949,38.086,-72.754,0
1512856765.057,26.855,18.066,16.113,46.387,-65.918,0
1512856765.061,31.250,26.855,21.973,42.480,-84.961,0
1512856765.065,24.902,35.156,47.852,43.457,-98.145,0
1512856765.069,34.180,39.062,47.852,50.781,-73.242,0
1512856765.072,20.020,35.645,34.180,56.152,-75.195,0
1512856765.076,-8.301,33.691,39.551,55.664,-80.078,0
1512856765.080,-0.977,47.363,43.945,56.641,-69.824,0
1512856765.084,19.043,56.641,45.410,54.199,-70.312,0
1512856765.088,19.043,32.227,10.742,31.738,-78.613,0
1512856765.092,5.859,23.438,-19.043,22.949,-106.934,0
1512856765.096,21.973,38.086,7.812,49.316,-84.961,0
1512856765.100,34.180,34.180,55.664,57.129,-37.109,0
1512856765.104,2.441,19.531,77.637,38.574,-57.129,0
1512856765.108,3.418,15.625,55.664,37.598,-104.980,0
1512856765.111,22.461,30.762,31.738,53.223,-112.305,0
1512856765.115,20.020,45.410,37.598,56.641,-74.219,0
1512856765.119,25.391,33.203,41.504,47.363,-50.293,0
1512856765.123,22.949,26.855,38.086,50.293,-75.195,0
1512856765.127,6.836,39.062,15.137,67.871,-96.191,0
1512856765.131,8.301,43.457,-14.160,65.918,-84.473,0
1512856765.135,26.855,38.086,10.742,57.617,-62.012,0
1512856765.139,16.113,33.691,63.477,50.293,-71.777,0
1512856765.143,-4.395,34.180,71.777,49.316,-87.891,0
1512856765.147,1.953,26.855,63.477,56.641,-72.266,0
1512856765.151,13.672,28.320,28.320,50.293,-86.914,0
1512856765.154,10.254,15.625,-2.930,32.227,-113.770,0
1512856765.158,5.859,11.230,5.371,22.949,-68.359,0
1512856765.162,16.113,35.156,25.391,39.062,-61.035,0
1512856765.166,25.879,33.691,52.734,43.945,-91.797,0
1512856765.170,25.391,33.203,46.387,36.621,-74.219,0
1512856765.174,30.762,43.457,7.812,65.918,-54.199,0
1512856765.178,24.902,30.762,-1.953,68.359,-62.500,0
1512856765.182,19.043,19.043,46.387,52.734,-77.148,0
1512856765.186,34.180,32.227,87.891,58.105,-80.078,0
1512856765.190,26.855,46.387,79.102,65.430,-79.590,0
1512856765.194,11.719,40.527,24.414,64.941,-83.008,0
1512856765.197,12.695,29.297,35.645,59.570,-89.844,0
1512856765.201,-0.977,28.320,42.480,47.363,-65.918,0
1512856765.205,9.277,30.273,22.949,44.922,-71.777,0
1512856765.209,12.695,22.949,3.418,55.176,-88.379,0
1512856765.213,10.742,20.508,20.020,57.129,-111.328,0
1512856765.217,34.180,28.809,32.715,56.641,-113.281,0
1512856765.221,34.668,33.203,33.203,58.105,-57.129,0
1512856765.225,21.973,21.484,50.781,45.898,-64.453,0
1512856765.229,35.645,36.133,71.289,43.945,-79.590,0
1512856765.233,39.062,49.316,65.918,60.059,-60.547,0
1512856765.236,24.902,35.645,35.156,71.289,-64.453,0
1512856765.240,24.902,35.156,26.855,72.754,-87.402,0
1512856765.244,13.672,37.109,23.926,57.617,-95.703,0
1512856765.248,12.207,27.344,9.766,37.109,-87.891,0
1512856765.252,22.949,24.902,24.414,27.344,-57.129,0
1512856765.256,17.578,32.715,37.109,41.504,-35.156,0
1512856765.260,2.930,34.668,47.852,53.223,-88.867,0
1512856765.264,-1.953,24.902,64.941,50.781,-81.543,0
1512856765.268,12.695,24.902,35.156,47.363,-28.320,0
1512856765.272,19.531,39.062,21.484,50.293,-59.082,0
1512856765.276,14.648,41.504,36.621,52.734,-78.125,0
1512856765.279,21.484,41.016,61.523,62.988,-51.758,0
1512856765.283,19.531,39.062,62.012,90.332,-56.152,0
1512856765.287,17.090,34.668,17.578,88.379,-73.242,0
1512856765.291,38.086,36.621,12.695,63.965,-75.195,0
1512856765.295,35.156,44.434,37.109,63.965,-77.148,0
1512856765.299,13.672,34.668,32.227,52.246,-58.105,0
1512856765.303,23.438,30.273,57.129,40.527,-66.895,0
1512856765.307,27.344,36.621,48.828,58.105,-69.336,0
1512856765.311,3.906,20.020,32.227,63.477,-48.828,0
1512856765.315,5.859,15.137,37.598,52.246,-49.316,0
1512856765.319,32.227,40.039,11.719,62.012,-38.574,0
1512856765.322,15.625,44.434,26.367,69.336,-27.344,0
1512856765.326,-6.348,26.855,70.801,67.871,-38.086,0
1512856765.330,15.137,31.738,53.711,73.242,-24.902,0
1512856765.334,25.391,36.133,25.879,69.336,-26.367,0
1512856765.338,23.926,38.086,55.176,67.871,-18.066,0
1512856765.342,34.180,41.992,45.898,63.965,-11.230,0
1512856765.346,29.297,25.391,14.160,59.570,-53.223,0
1512856765.350,23.438,15.137,11.719,60.059,-58.594,0
1512856765.354,21.973,23.438,9.277,54.199,-28.809,0
1512856765.358,19.043,33.203,18.555,64.453,-2.930,0
1512856765.361,17.090,35.645,55.664,58.594,-14.648,0
1512856765.365,10.742,29.297,77.637,47.363,-21.973,0
1512856765.369,21.484,29.785,65.918,53.711,2.441,0
1512856765.373,31.250,39.062,35.645,55.664,3.418,0
1512856765.377,32.227,40.039,11.719,64.941,-27.832,0
1512856765.381,34.668,43.457,42.969,75.684,-39.062,0
1512856765.385,24.902,56.152,66.406,74.219,-32.715,0
1512856765.389,22.461,48.340,18.066,64.941,-25.391,0
1512856765.393,19.531,27.832,4.883,46.387,-42.480,0
1512856765.397,7.324,24.414,32.227,47.852,-62.500,0
1512856765.401,2.441,20.020,31.250,49.316,-31.738,0
1512856765.404,8.789,18.066,71.777,42.969,-15.137,0
1512856765.408,26.367,31.250,76.172,61.035,-43.945,0
1512856765.412,20.996,26.855,26.855,63.477,-11.719,0
1512856765.416,8.301,23.926,16.113,55.664,12.695,0
1512856765.420,31.738,37.598,36.621,72.754,-30.273,0
1512856765.424,41.016,35.156,35.156,56.152,-48.340,0
1512856765.428,23.926,41.992,24.902,40.039,-30.273,0
1512856765.432,25.391,51.270,42.969,54.199,-38.086,0
1512856765.436,30.273,41.016,54.688,59.082,-58.105,0
1512856765.440,37.598,47.852,21.484,61.035,-65.918,0
1512856765.444,26.855,44.922,1.953,59.082,-38.086,0
1512856765.447,10.254,13.672,48.828,58.105,7.812,0
1512856765.451,-8.301,2.441,73.730,51.270,0.488,3
1512856765.455,5.371,22.461,21.484,53.711,-13.184,0
1512856765.459,35.645,37.598,-18.555,50.781,9.277,0
1512856765.463,23.926,23.926,24.414,36.621,21.484,0
1512856765.467,5.859,18.555,70.312,46.387,-4.395,0
1512856765.471,12.695,32.227,78.613,57.129,-10.742,0
1512856765.475,20.020,45.898,68.848,59.570,-34.180,0
1512856765.479,26.367,48.828,56.641,70.312,-26.855,0
1512856765.483,24.902,37.598,40.039,58.594,-32.227,0
1512856765.486,22.461,27.832,20.996,48.340,-43.457,0
1512856765.490,26.855,22.949,-5.859,55.664,14.648,0
1512856765.494,20.508,24.902,8.301,50.781,18.555,0
1512856765.498,10.742,25.391,46.387,46.875,-1.465,0
1512856765.502,17.578,33.691,41.504,57.129,-20.996,0
1512856765.506,24.902,35.156,34.668,47.852,-15.625,0
1512856765.510,15.137,20.996,56.641,39.062,3.906,0
1512856765.514,7.324,12.695,61.035,49.316,-5.371,0
1512856765.518,6.836,20.996,40.527,57.129,-7.324,0
1512856765.522,20.996,44.434,40.527,74.219,5.371,0
1512856765.526,44.434,62.012,12.695,87.402,-19.043,0
1512856765.529,32.227,60.547,-4.395,73.730,-44.922,0
1512856765.533,19.531,52.246,37.598,60.059,-15.625,0
1512856765.537,19.531,48.340,45.898,56.152,25.879,0
1512856765.541,20.020,26.855,48.828,50.781,31.250,0
1512856765.545,16.602,16.113,23.438,43.945,5.859,0
1512856765.549,0.488,5.371,24.414,31.738,5.859,0
1512856765.553,8.789,3.906,44.434,38.574,37.598,0
1512856765.557,30.273,24.902,51.758,62.012,24.902,0
1512856765.561,28.809,42.480,68.359,72.754,9.277,0
1512856765.565,28.809,57.617,62.500,72.754,-5.371,0
1512856765.569,38.086,54.199,10.742,70.801,-16.113,0
1512856765.572,9.277,28.320,-18.555,63.965,0.977,0
1512856765.576,-3.418,19.043,1.465,51.270,-10.742,0
1512856765.580,30.273,31.250,36.621,55.664,8.789,0
1512856765.584,18.066,28.320,55.664,57.617,23.438,0
1512856765.588,4.395,22.461,50.293,49.805,-5.859,0
1512856765.592,18.066,22.461,37.109,42.969,-14.160,0
1512856765.596,19.531,28.320,36.133,49.316,16.602,0
1512856765.600,20.508,38.086,-13.672,61.523,14.160,0
1512856765.604,22.949,43.945,-51.270,62.500,-2.930,0
1512856765.608,11.230,21.973,44.922,44.434,10.742,0
1512856765.611,14.160,22.949,91.309,38.086,14.160,0
1512856765.615,20.020,35.156,73.730,56.152,-8.301,0
1512856765.619,26.855,36.621,48.340,62.012,-4.883,0
1512856765.623,33.203,28.320,13.184,48.340,3.906,0
1512856765.627,7.324,27.832,25.391,50.293,-3.906,0
1512856765.631,-4.883,38.574,70.312,51.270,0.488,0
1512856765.635,18.555,32.227,53.223,46.875,-9.766,0
1512856765.639,33.203,36.621,-0.488,53.711,-9.766,0
1512856765.643,19.043,32.227,-8.789,44.434,-21.973,0
1512856765.647,16.602,34.668,43.945,56.152,-19.531,0
1512856765.651,31.738,37.598,62.500,70.801,18.066,0
1512856765.654,11.719,14.160,25.391,45.410,20.996,0
1512856765.658,14.648,21.973,26.855,40.527,25.391,0
1512856765.662,8.301,33.203,2.930,34.668,6.836,0
1512856765.666,-3.906,16.602,-11.719,31.738,-3.906,0
1512856765.670,15.137,17.578,17.090,45.898,15.625,0
1512856765.674,16.113,38.574,53.711,60.059,10.254,0
1512856765.678,5.371,41.992,51.270,59.082,-24.414,0
1512856765.682,1.953,20.996,24.414,50.293,-24.902,0
1512856765.686,14.160,14.160,41.504,53.711,35.645,0
1512856765.690,26.367,20.020,48.340,55.176,49.316,0
1512856765.694,27.344,36.133,59.082,70.801,15.137,0
1512856765.697,31.738,42.480,49.316,76.172,20.020,0
1512856765.701,25.879,26.367,31.250,53.711,41.504,0
1512856765.705,22.461,27.344,-7.812,34.180,21.484,0
1512856765.709,41.016,37.109,-19.531,51.270,29.297,0
1512856765.713,47.852,41.016,33.691,64.941,16.113,0
1512856765.717,24.414,25.391,42.480,50.781,6.836,0
1512856765.721,16.113,26.855,38.086,57.129,28.320,0
1512856765.725,24.902,42.969,63.477,79.590,17.578,0
1512856765.729,23.438,37.598,66.406,71.289,38.086,0
1512856765.733,26.855,32.227,38.574,53.223,23.926,0
1512856765.736,21.973,31.250,19.043,53.711,2.441,0
1512856765.740,15.625,30.762,13.672,67.871,40.527,0
1512856765.744,13.672,19.043,10.742,51.758,55.176,0
1512856765.748,21.973,24.902,22.461,45.898,57.617,0
1512856765.752,19.531,32.715,46.875,57.129,32.715,0
1512856765.756,-9.766,15.625,53.223,48.340,24.414,0
1512856765.760,0.977,20.508,37.598,50.293,22.949,0
1512856765.764,28.320,42.480,32.715,57.617,11.230,0
1512856765.768,21.973,44.434,51.758,47.363,2.930,0
1512856765.772,24.414,63.477,74.707,58.594,-20.996,0
1512856765.776,25.879,67.383,50.781,63.477,5.859,0
1512856765.779,25.391,40.527,-0.977,62.500,32.715,0
1512856765.783,27.832,20.020,20.996,62.012,31.250,0
1512856765.787,11.230,8.789,50.781,52.734,21.484,0
1512856765.791,7.812,7.324,22.461,46.387,5.371,0
1512856765.795,7.324,16.602,36.133,43.457,0.000,0
1512856765.799,19.043,45.410,28.320,49.805,9.277,0
1512856765.803,19.043,63.477,7.324,50.781,-4.395,0
1512856765.807,10.742,40.039,38.574,51.270,10.742,0
1512856765.811,11.719,31.250,72.754,60.547,39.551,0
1512856765.815,2.441,34.180,50.293,69.824,-0.488,0
1512856765.819,4.883,21.484,32.715,68.359,15.137,0
1512856765.822,27.344,17.578,59.570,62.012,30.762,0
1512856765.826,41.016,25.879,37.109,54.688,12.695,0
1512856765.830,21.484,28.809,49.316,50.781,42.480,0
1512856765.834,30.762,37.598,31.250,57.617,83.008,0
1512856765.838,33.203,35.645,10.254,53.223,73.730,0
1512856765.842,23.438,45.898,64.941,66.895,42.969,0
1512856765.846,9.766,48.340,55.176,64.941,35.645,0
1512856765.850,-8.301,28.320,9.277,48.340,2.441,0
1512856765.854,3.418,17.578,7.324,40.527,15.137,0
1512856765.858,11.719,20.996,18.555,45.898,-0.488,0
1512856765.861,13.184,23.926,32.715,55.176,-18.066,0
1512856765.865,-2.930,25.879,49.805,45.410,41.016,0
1512856765.869,0.977,35.645,54.688,54.688,48.340,0
1512856765.873,14.648,39.062,52.734,48.340,9.277,0
1512856765.877,18.555,34.180,36.621,25.879,15.137,0
1512856765.881,32.227,37.109,39.062,40.039,37.109,0
1512856765.885,43.457,57.617,34.180,83.984,50.293,0
1512856765.889,22.461,45.410,26.367,64.941,52.734,0
1512856765.893,8.789,21.973,25.879,27.344,35.645,0
1512856765.897,16.113,23.438,14.648,41.016,44.922,0
1512856765.901,11.230,26.367,37.598,48.828,32.715,0
1512856765.904,22.461,34.668,62.012,49.316,15.625,0
1512856765.908,28.320,45.898,40.039,62.012,29.785,0
1512856765.912,12.207,34.180,28.809,59.570,28.809,0
1512856765.916,22.949,34.180,43.945,47.852,19.043,0
1512856765.920,35.156,29.297,9.277,68.359,12.695,0
1512856765.924,19.531,23.926,17.090,95.703,24.902,0
1512856765.928,17.090,43.945,74.707,75.195,43.457,0
1512856765.932,9.766,25.879,66.406,32.227,22.949,0
1512856765.936,8.789,12.695,59.082,22.949,40.039,0
1512856765.940,10.254,19.043,27.832,21.973,76.660,0
1512856765.944,13.184,49.805,19.531,42.480,52.734,0
1512856765.947,35.645,55.176,43.945,67.871,15.625,0
1512856765.951,33.691,17.578,19.043,53.711,8.301,4
1512856765.955,6.348,20.996,-10.742,43.457,48.828,0
1512856765.959,5.371,33.203,6.348,57.129,52.246,0
1512856765.963,30.273,33.203,49.316,66.895,21.484,0
1512856765.967,20.020,31.738,47.852,59.082,30.273,0
1512856765.971,14.160,26.367,38.086,56.641,59.570,0
1512856765.975,16.113,29.297,55.176,55.176,62.988,0
1512856765.979,14.160,37.109,41.992,50.781,11.230,0
1512856765.983,29.297,45.898,-11.719,63.965,10.254,0
1512856765.986,21.484,59.082,-4.395,66.406,46.875,0
1512856765.990,9.766,40.039,75.684,60.547,56.641,0
1512856765.994,20.508,17.090,108.887,61.523,52.734,0
1512856765.998,19.043,13.184,72.754,56.641,46.387,0
1512856766.002,7.324,11.230,25.391,41.016,47.363,0
1512856766.006,-0.488,21.973,36.621,26.855,35.645,0
1512856766.010,8.789,34.668,54.688,40.039,-0.977,0
1512856766.014,15.625,45.410,21.973,31.250,13.184,0
1512856766.018,23.438,54.688,19.043,51.270,43.945,0
1512856766.022,20.996,47.363,27.344,79.102,37.598,0
1512856766.026,-3.418,24.414,13.184,61.035,12.695,0
1512856766.029,4.883,22.461,41.504,45.898,0.977,0
1512856766.033,23.926,44.922,64.453,48.340,18.555,0
1512856766.037,31.250,48.828,65.918,57.129,-3.906,0
1512856766.041,19.043,21.484,50.781,39.062,-40.527,0
1512856766.045,2.930,5.371,-3.906,32.715,9.766,0
1512856766.049,-0.977,20.996,-3.418,35.645,38.574,0
1512856766.053,17.090,39.062,20.996,44.434,9.766,0
1512856766.057,32.227,34.180,32.227,44.922,8.301,0
1512856766.061,32.715,31.250,51.270,45.410,48.828,0
1512856766.065,36.133,35.156,64.453,64.941,37.598,0
1512856766.069,18.555,30.273,53.711,60.059,40.039,0
1512856766.072,11.230,36.621,19.043,49.805,52.246,0
1512856766.076,33.691,40.527,31.738,62.012,38.574,0
1512856766.080,28.809,53.711,47.363,84.473,29.297,0
1512856766.084,-3.906,42.480,15.137,77.148,14.160,0
1512856766.088,-0.977,21.484,23.438,50.293,23.926,0
1512856766.092,18.555,32.227,56.641,44.922,40.039,0
1512856766.096,32.227,33.203,34.668,49.805,24.902,0
1512856766.100,21.973,36.621,46.387,53.223,-7.324,0
1512856766.104,-4.395,25.879,62.988,57.129,31.250,0
1512856766.108,18.555,20.020,32.715,52.246,30.273,0
1512856766.111,34.668,31.738,51.758,52.246,0.488,0
1512856766.115,27.832,30.762,32.715,51.758,-11.230,0
1512856766.119,37.109,36.133,2.930,34.668,-3.418,0
1512856766.123,36.133,58.594,40.527,54.199,31.738,0
1512856766.127,39.551,49.316,62.988,74.707,16.113,0
1512856766.131,28.809,23.926,44.434,62.988,22.949,0
1512856766.135,7.812,22.461,35.156,52.734,33.203,0
1512856766.139,0.000,19.531,27.344,46.875,55.664,0
1512856766.143,5.371,25.391,-1.465,61.035,39.551,0
1512856766.147,28.320,37.598,10.254,59.570,20.996,0
1512856766.151,38.574,29.785,57.617,57.129,44.922,0
1512856766.154,30.273,29.785,51.270,66.895,33.203,0
1512856766.158,17.090,35.645,27.832,51.758,22.461,0
1512856766.162,29.785,52.246,47.363,54.688,27.832,0
1512856766.166,30.762,55.664,52.246,50.781,41.992,0
1512856766.170,19.531,35.645,44.922,41.992,15.137,0
1512856766.174,25.391,29.297,-0.488,56.641,27.344,0
1512856766.178,21.484,34.668,3.418,49.316,17.578,0
1512856766.182,25.879,58.105,42.480,55.176,-0.977,0
1512856766.186,35.645,52.246,5.371,61.523,29.785,0
1512856766.190,20.020,38.086,-6.836,41.016,18.066,0
1512856766.194,6.836,33.691,35.645,23.438,14.160,0
1512856766.197,18.555,19.531,85.449,42.480,48.340,0
1512856766.201,24.414,19.531,90.820,54.688,42.480,0
1512856766.205,25.879,27.832,47.363,43.457,12.207,0
1512856766.209,16.113,24.414,23.438,46.387,20.020,0
1512856766.213,17.090,30.273,26.367,49.805,24.414,0
1512856766.217,28.809,42.480,-6.836,62.012,2.930,0
1512856766.221,28.320,45.898,2.930,74.707,31.738,0
1512856766.225,25.879,39.551,72.754,69.336,55.176,0
1512856766.229,26.367,46.875,95.215,69.824,6.836,0
1512856766.233,20.020,56.152,59.570,70.312,-19.531,0
1512856766.236,21.973,42.969,24.414,60.547,-13.672,0
1512856766.240,32.715,35.156,27.344,64.453,21.973,0
1512856766.244,10.742,26.855,21.973,59.570,33.691,0
1512856766.248,15.625,24.414,19.043,49.805,1.465,0
1512856766.252,46.875,34.668,20.996,55.176,6.348,0
1512856766.256,40.039,34.180,31.250,59.082,6.836,0
1512856766.260,17.090,30.762,44.434,47.363,-20.996,0
1512856766.264,36.621,51.270,70.801,62.500,-21.484,0
1512856766.268,46.387,66.406,73.242,81.543,10.742,0
1512856766.272,20.996,53.711,19.531,77.637,5.859,0
1512856766.276,15.137,43.457,8.301,72.754,-7.812,0
1512856766.279,20.996,31.738,41.504,51.270,-49.316,0
1512856766.283,23.438,32.227,47.852,38.574,-53.223,0
1512856766.287,36.621,41.016,50.781,45.898,-21.484,0
1512856766.291,33.203,41.992,30.762,43.945,-38.086,0
1512856766.295,9.277,35.156,24.902,41.016,-27.832,0
1512856766.299,20.508,35.156,40.527,55.664,-28.809,0
1512856766.303,47.363,41.016,-6.348,55.176,-27.832,0
1512856766.307,41.992,43.457,16.113,63.965,-16.602,0
1512856766.311,38.574,67.871,91.309,77.148,-35.156,0
1512856766.315,45.410,72.754,89.355,68.848,-26.367,0
1512856766.319,48.828,52.734,65.918,61.523,-3.906,0
1512856766.322,34.180,47.852,25.391,58.105,-25.879,0
1512856766.326,6.836,30.762,19.043,43.945,-24.902,0
1512856766.330,6.836,21.973,39.062,39.551,-1.465,0
1512856766.334,31.738,37.598,40.039,48.828,-18.555,0
1512856766.338,33.203,37.598,14.160,49.805,-54.199,0
1512856766.342,11.230,29.785,25.879,41.504,-71.289,0
1512856766.346,9.277,19.531,67.383,41.992,-35.156,0
1512856766.350,32.715,40.039,22.461,44.434,-21.484,0
1512856766.354,58.594,86.914,18.066,62.988,-22.949,0
1512856766.358,35.156,64.941,60.059,74.707,-59.570,0
1512856766.361,15.625,27.344,53.223,54.688,-59.570,0
1512856766.365,33.691,37.598,42.480,35.645,-45.410,0
1512856766.369,41.992,50.781,32.715,34.668,-63.965,0
1512856766.373,32.715,41.504,52.246,18.555,-57.617,0
1512856766.377,24.902,39.062,41.504,31.738,-40.039,0
1512856766.381,26.367,36.133,19.531,76.172,-44.922,0
1512856766.385,31.250,39.551,24.902,75.684,-67.871,0
1512856766.389,38.574,46.875,44.922,63.477,-65.918,0
1512856766.393,49.316,48.828,70.801,62.012,-56.641,0
1512856766.397,54.199,54.199,62.500,51.270,-78.125,0
1512856766.401,35.156,38.086,53.711,37.598,-94.238,0
1512856766.404,21.973,27.344,52.246,44.922,-78.125,0
1512856766.408,21.973,37.598,62.012,50.781,-98.633,0
1512856766.412,25.391,40.039,68.848,48.340,-98.145,0
1512856766.416,29.785,43.457,42.480,56.152,-88.379,0
1512856766.420,20.508,47.363,-2.441,63.477,-71.777,0
1512856766.424,12.207,34.668,-24.902,41.504,-66.406,0
1512856766.428,12.207,39.062,27.832,25.879,-121.582,0
1512856766.432,13.184,41.504,57.129,37.109,-133.301,0
1512856766.436,20.996,31.738,54.199,34.180,-92.285,0
1512856766.440,32.715,44.434,49.316,44.434,-95.215,0
1512856766.444,20.020,42.480,30.762,41.504,-116.699,0
1512856766.447,7.812,38.086,42.480,29.297,-109.863,0
1512856766.451,-3.906,31.738,50.293,27.832,-82.031,0
1512856766.455,-1.953,27.344,42.969,24.902,-92.773,5
1512856766.459,11.719,34.668,27.832,16.113,-124.512,0
1512856766.463,0.000,41.992,5.859,6.348,-142.090,0
1512856766.467,-3.906,51.270,20.996,3.418,-151.855,0
1512856766.471,20.020,36.133,49.316,15.625,-117.188,0
1512856766.475,18.555,27.832,45.410,32.715,-121.582,0
1512856766.479,17.090,40.527,-10.254,41.504,-134.766,0
1512856766.483,12.207,26.367,-25.391,30.762,-133.789,0
1512856766.486,13.184,32.715,34.180,30.273,-136.230,0
1512856766.490,17.090,41.992,66.406,30.273,-160.645,0
1512856766.494,7.324,23.926,67.383,20.508,-151.367,0
1512856766.498,17.578,17.578,21.484,0.000,-98.145,0
1512856766.502,16.113,29.297,-8.789,-19.531,-134.277,0
1512856766.506,-8.789,41.504,-1.465,-3.906,-149.414,0
1512856766.510,-0.488,37.109,68.359,28.809,-157.227,0
1512856766.514,1.953,30.273,36.133,40.527,-152.344,0
1512856766.518,4.395,43.945,-13.672,47.852,-155.273,0
1512856766.522,5.371,36.621,25.391,31.738,-174.805,0
1512856766.526,7.812,19.531,34.180,7.324,-128.906,0
1512856766.529,0.977,22.949,43.457,3.906,-107.910,0
1512856766.533,-20.508,19.531,25.879,5.371,-133.301,0
1512856766.537,-12.695,27.344,17.578,24.414,-159.180,0
1512856766.541,-24.414,24.414,14.160,16.602,-138.672,0
1512856766.545,-20.508,21.973,8.789,19.043,-133.789,0
1512856766.549,18.555,34.180,18.066,43.457,-122.559,0
1512856766.553,23.926,31.738,34.180,24.902,-136.230,0
1512856766.557,5.859,32.227,48.828,0.977,-138.672,0
1512856766.561,6.348,28.809,22.949,16.113,-142.578,0
1512856766.565,14.648,23.438,11.719,36.621,-171.387,0
1512856766.569,17.578,29.297,58.594,27.832,-133.789,0
1512856766.572,20.508,40.039,68.848,32.227,-98.145,0
1512856766.576,23.926,46.875,39.551,42.480,-110.352,0
1512856766.580,15.137,34.180,15.625,27.832,-129.883,0
1512856766.584,10.254,21.973,7.812,17.090,-117.676,0
1512856766.588,-4.883,14.160,-7.324,4.883,-107.910,0
1512856766.592,-4.395,28.320,3.906,5.371,-113.281,0
1512856766.596,9.277,48.828,51.758,19.043,-100.586,0
1512856766.600,-0.488,25.391,62.988,21.973,-81.055,0
1512856766.604,-0.488,11.230,43.457,19.531,-87.402,0
1512856766.608,4.395,29.785,-4.883,15.625,-119.141,0
1512856766.611,5.371,31.250,13.672,24.902,-131.348,0
1512856766.615,12.207,21.973,57.617,29.785,-114.258,0
1512856766.619,7.324,40.527,42.969,18.555,-103.027,0
1512856766.623,0.000,41.016,36.133,6.836,-104.492,0
1512856766.627,-18.066,11.719,37.109,13.672,-88.867,0
1512856766.631,-7.812,21.973,10.742,46.387,-88.867,0
1512856766.635,14.160,46.387,-38.574,61.035,-74.219,0
1512856766.639,15.137,52.734,-6.348,53.223,-73.730,0
1512856766.643,9.766,40.039,33.203,27.832,-72.266,0
1512856766.647,19.043,28.809,25.391,18.555,-60.059,0
1512856766.651,13.672,28.320,40.039,17.090,-81.543,0
1512856766.654,-8.789,22.461,57.617,-0.488,-79.102,0
1512856766.658,-7.812,20.996,44.922,7.324,-68.359,0
1512856766.662,9.277,38.574,55.176,46.387,-44.434,0
1512856766.666,14.160,42.969,34.180,41.016,-50.293,0
1512856766.670,-0.977,28.809,-27.344,28.320,-58.594,0
1512856766.674,-11.719,28.809,-11.719,20.996,-69.336,0
1512856766.678,4.883,40.039,19.043,14.160,-75.684,0
1512856766.682,11.230,32.715,32.715,17.578,-97.168,0
1512856766.686,-3.418,23.438,54.199,13.184,-109.375,0
1512856766.690,1.465,32.227,63.965,16.602,-76.172,0
1512856766.694,-0.488,29.297,29.785,21.484,-53.711,0
1512856766.697,-13.672,20.996,-16.113,33.203,-34.668,0
1512856766.701,4.883,26.367,22.461,32.715,-55.176,0
1512856766.705,19.531,47.852,64.941,26.367,-72.754,0
1512856766.709,2.930,34.668,53.711,24.414,-73.242,0
1512856766.713,-3.906,26.855,40.527,20.508,-63.965,0
1512856766.717,0.488,41.016,22.461,26.855,-41.992,0
1512856766.721,-6.836,26.855,28.809,22.949,-38.574,0
1512856766.725,2.441,23.438,12.207,9.277,-61.523,0
1512856766.729,27.832,32.227,-24.902,12.207,-81.543,0
1512856766.733,32.227,36.133,29.785,16.602,-45.898,0
1512856766.736,0.977,23.438,77.637,8.789,-11.230,0
1512856766.740,2.441,32.715,81.543,29.297,-57.617,0
1512856766.744,4.883,56.152,80.078,41.504,-72.754,0
1512856766.748,-1.953,43.945,56.641,35.156,-57.129,0
1512856766.752,-2.441,13.672,34.180,26.367,-41.016,0
1512856766.756,-1.953,21.973,0.000,16.113,-45.898,0
1512856766.760,8.301,41.992,29.785,20.020,-102.051,0
1512856766.764,11.719,37.109,49.805,33.691,-62.012,0
1512856766.768,3.906,21.484,18.066,37.109,-32.227,0
1512856766.772,-9.766,26.367,44.434,38.086,-53.711,0
1512856766.776,1.465,46.875,79.590,51.758,-31.250,0
1512856766.779,23.926,52.734,78.125,65.430,-25.879,0
1512856766.783,20.508,32.715,20.996,53.223,-30.273,0
1512856766.787,19.043,37.109,-2.930,34.668,-31.738,0
1512856766.791,14.160,38.574,27.344,21.973,-19.043,0
1512856766.795,-4.883,25.879,43.945,2.441,-21.484,0
1512856766.799,5.859,29.297,47.852,13.184,-34.180,0
1512856766.803,25.391,29.297,29.785,43.457,-59.570,0
1512856766.807,22.461,41.016,41.016,46.875,-82.520,0
1512856766.811,10.742,45.898,28.809,19.043,-14.160,0
1512856766.815,18.555,43.457,37.109,15.625,14.160,0
1512856766.819,18.555,60.547,43.457,24.414,-11.230,0
1512856766.822,4.883,48.828,51.270,34.180,-31.250,0
1512856766.826,4.395,20.508,43.457,32.715,-19.531,0
1512856766.830,-6.348,23.438,-1.465,25.879,-28.320,0
1512856766.834,-13.184,21.973,8.789,27.832,-1.465,0
1512856766.838,6.836,32.227,54.199,38.086,32.715,0
1512856766.842,25.391,45.898,71.777,53.711,-18.555,0
1512856766.846,14.648,34.668,54.688,46.875,20.020,0
1512856766.850,20.996,34.668,36.621,49.805,47.852,0
1512856766.854,31.250,41.992,38.574,61.035,25.879,0
1512856766.858,20.020,42.480,61.035,68.848,5.859,0
1512856766.861,13.184,47.363,57.617,80.566,12.695,0
1512856766.865,5.371,28.320,45.898,66.895,56.641,0
1512856766.869,6.348,13.184,27.832,43.945,58.105,0
1512856766.873,18.066,26.367,20.996,34.668,47.363,0
1512856766.877,13.672,27.832,43.457,39.062,32.227,0
1512856766.881,9.766,31.738,22.949,55.664,16.113,0
1512856766.885,20.020,50.781,36.133,56.641,28.320,0
1512856766.889,16.602,40.039,74.219,70.801,40.527,0
1512856766.893,16.602,38.574,69.824,77.637,12.207,0
1512856766.897,27.832,48.340,40.039,62.500,-10.254,0
1512856766.901,12.207,30.273,17.578,50.293,14.160,0
1512856766.904,-14.160,11.719,19.531,49.805,10.254,0
1512856766.908,0.488,29.785,53.711,55.664,4.395,0
1512856766.912,13.672,33.203,75.195,63.965,6.348,0
1512856766.916,9.766,33.203,60.547,62.988,-21.973,0
1512856766.920,-0.488,31.250,49.316,42.480,-39.551,0
1512856766.924,7.324,31.250,15.625,43.945,12.695,0
1512856766.928,3.906,37.598,22.949,56.152,60.059,0
1512856766.932,4.883,36.621,55.176,59.570,47.363,0
1512856766.936,26.367,49.316,62.012,67.871,1.953,0
1512856766.940,8.301,23.438,17.090,68.848,-6.836,0
1512856766.944,0.977,-1.953,-7.324,68.359,-21.973,0
1512856766.947,21.973,31.250,40.527,68.848,4.395,0
1512856766.951,17.578,45.410,39.062,56.641,23.926,0
1512856766.955,10.742,32.715,20.020,57.617,-3.906,0
1512856766.959,14.648,35.645,77.637,67.871,46.875,0
1512856766.963,-0.977,18.555,119.141,65.430,56.152,0
1512856766.967,-13.184,17.578,67.383,57.617,21.484,0
1512856766.971,-4.883,20.508,13.184,38.086,0.488,0
1512856766.975,3.418,16.602,22.949,34.668,-9.766,0
1512856766.979,20.996,39.551,23.926,52.734,3.418,0
1512856766.983,45.898,55.176,8.789,62.012,18.555,0
1512856766.986,31.250,35.156,39.551,60.547,9.277,0
1512856766.990,-3.418,29.785,80.078,68.359,-10.254,0
1512856766.994,-8.789,32.715,69.336,68.359,19.043,0
1512856766.998,2.441,33.203,14.648,55.176,45.410,0
1512856767.002,17.578,25.879,-18.066,52.734,49.805,0
1512856767.006,12.695,11.230,8.789,43.457,7.812,0
1512856767.010,-12.695,17.578,59.082,39.551,-35.156,0
1512856767.014,0.488,37.598,98.145,72.266,1.953,0
1512856767.018,28.809,48.828,92.773,78.613,23.926,0
1512856767.022,32.227,34.668,47.852,62.012,44.434,0
1512856767.026,32.715,32.227,38.574,70.312,45.898,0
1512856767.029,17.578,28.809,2.441,78.125,17.578,0
1512856767.033,1.465,24.414,-0.977,79.102,6.836,0
1512856767.037,21.973,32.227,77.148,100.586,19.043,0
1512856767.041,34.180,47.852,99.609,113.770,31.250,0
1512856767.045,17.090,43.457,40.527,88.379,45.898,0
1512856767.049,40.039,37.598,32.715,83.984,64.453,0
1512856767.053,53.223,44.922,95.215,87.402,77.637,0
1512856767.057,49.805,27.832,60.059,94.727,80.566,0
1512856767.061,56.641,24.414,-36.621,96.191,80.078,0
1512856767.065,35.156,27.832,3.906,86.426,77.148,0
1512856767.069,24.414,39.551,88.379,106.445,84.473,0
1512856767.072,18.555,30.762,74.707,89.844,73.730,0
1512856767.076,5.371,21.484,74.219,73.730,83.984,0
1512856767.080,6.348,33.203,67.383,81.543,108.887,0
1512856767.084,16.113,25.879,17.090,65.430,9.277,0
1512856767.088,38.574,41.504,34.668,68.359,-22.949,0
1512856767.092,25.391,41.992,48.340,63.965,40.039,0
1512856767.096,3.906,14.648,18.066,54.688,96.191,0
1512856767.100,5.371,14.160,19.043,60.547,96.680,0
1512856767.104,16.113,31.250,56.641,58.105,73.242,0
1512856767.108,10.742,31.250,43.945,50.781,28.809,0
1512856767.111,0.000,22.461,20.996,51.758,24.414,0
1512856767.115,8.301,23.926,-6.348,58.594,101.562,0
1512856767.119,32.715,34.668,-19.043,62.012,75.684,0
1512856767.123,48.340,51.758,84.961,79.102,57.617,0
1512856767.127,12.207,43.457,111.816,79.102,81.543,0
1512856767.131,-24.414,10.742,45.410,63.477,43.457,0
1512856767.135,-15.625,10.254,19.043,65.430,41.992,0
1512856767.139,5.859,23.438,15.137,50.781,13.184,0
1512856767.143,18.066,20.020,15.137,43.457,20.508,0
1512856767.147,21.484,25.391,58.594,65.430,50.293,0
1512856767.151,19.531,42.480,72.266,79.102,22.461,0
1512856767.154,12.695,36.621,36.621,57.617,9.277,0
1512856767.158,18.555,28.809,46.387,69.824,6.836,0
1512856767.162,23.926,44.922,40.039,74.707,36.621,0
1512856767.166,15.137,31.250,19.531,50.781,16.113,0
1512856767.170,-4.395,15.137,-5.371,47.852,-21.973,0
1512856767.174,15.137,28.809,8.301,55.664,24.414,0
1512856767.178,29.785,28.320,59.082,53.223,25.879,0
1512856767.182,11.719,20.020,55.664,57.617,49.316,0
1512856767.186,-1.465,27.832,35.645,52.734,38.086,0
1512856767.190,11.719,29.297,63.477,52.734,6.348,0
1512856767.194,15.625,21.973,57.129,65.918,33.691,0
1512856767.197,-8.301,24.414,14.648,53.711,37.598,0
1512856767.201,4.883,45.410,22.949,66.406,60.059,0
1512856767.205,28.320,56.152,34.668,73.242,51.758,0
1512856767.209,16.602,34.180,19.043,59.082,32.715,0
1512856767.213,4.395,13.184,30.762,63.965,34.180,0
1512856767.217,-4.883,6.836,44.922,54.199,15.625,0
1512856767.221,-10.742,6.348,40.039,42.480,39.062,0
1512856767.225,14.648,35.156,24.902,65.430,52.246,0
1512856767.229,34.668,53.223,7.812,68.848,24.902,0
1512856767.233,32.227,40.527,0.000,65.918,-11.719,0
1512856767.236,27.344,47.363,55.664,66.895,31.250,0
1512856767.240,12.695,64.941,75.684,68.359,55.664,0
1512856767.244,5.371,41.992,59.082,76.660,12.207,0
1512856767.248,0.977,11.719,58.594,71.289,-17.578,0
1512856767.252,0.977,15.137,42.480,68.848,16.602,0
1512856767.256,16.113,12.695,40.527,71.289,91.797,0
1512856767.260,6.836,10.742,32.227,63.477,85.449,0
1512856767.264,3.906,25.879,30.762,63.965,25.879,0
1512856767.268,17.578,36.621,41.992,67.871,1.465,0
1512856767.272,8.301,42.969,-10.742,65.918,29.785,0
1512856767.276,-2.441,32.227,-19.043,46.875,58.105,0
1512856767.279,12.207,27.832,37.598,44.434,35.645,0
1512856767.283,23.438,29.785,36.621,53.711,19.043,0
1512856767.287,37.109,33.691,46.387,69.336,62.988,0
1512856767.291,32.227,22.949,73.242,61.035,67.383,0
1512856767.295,4.883,14.648,76.660,57.129,70.312,0
1512856767.299,0.488,30.762,62.988,72.754,83.008,0
1512856767.303,14.648,36.621,36.621,83.008,43.945,0
1512856767.307,20.020,44.922,20.020,75.195,-10.254,0
1512856767.311,25.879,45.410,2.930,72.754,-35.156,0
1512856767.315,24.902,39.062,20.996,82.520,11.719,0
1512856767.319,17.090,31.250,67.871,77.637,20.020,0
1512856767.322,11.230,34.668,52.246,70.801,0.000,0
1512856767.326,28.809,38.086,45.898,57.129,2.441,0
1512856767.330,32.715,25.879,47.852,57.617,37.109,0
1512856767.334,24.414,31.250,27.344,86.914,77.148,0
1512856767.338,20.020,48.828,30.273,83.984,35.156,0
1512856767.342,18.555,67.383,37.109,70.801,28.809,0
1512856767.346,27.344,66.406,69.336,86.426,6.836,0
1512856767.350,19.043,39.551,70.801,84.473,-18.066,0
1512856767.354,29.785,22.461,75.684,85.449,4.883,0
1512856767.358,20.996,23.926,99.121,73.730,4.395,0
1512856767.361,7.812,37.598,59.082,64.453,-14.648,0
1512856767.365,25.879,43.945,-12.207,81.055,-4.395,0
1512856767.369,18.066,28.809,-44.922,65.430,16.602,0
1512856767.373,6.836,19.531,-46.387,53.711,13.184,0
1512856767.377,5.371,8.789,12.207,52.246,2.441,0
1512856767.381,-5.859,3.418,63.477,54.199,52.246,0
1512856767.385,12.695,32.227,58.594,80.566,25.879,0
1512856767.389,32.715,34.668,56.641,86.914,-23.438,0
1512856767.393,24.902,32.715,23.926,77.637,4.883,0
1512856767.397,7.812,34.668,22.461,79.102,9.766,0
1512856767.401,20.996,35.645,88.379,83.984,0.488,0
1512856767.404,27.832,53.223,75.684,83.008,16.602,0
1512856767.408,15.625,50.293,40.527,78.613,-11.230,0
1512856767.412,18.555,34.668,42.480,61.035,-10.742,0
1512856767.416,13.672,12.695,11.719,55.176,-0.488,0
1512856767.420,5.859,13.184,6.836,65.430,-7.812,0
1512856767.424,11.230,22.949,17.090,58.594,8.789,0
1512856767.428,10.742,19.531,-8.301,47.363,-1.465,0
1512856767.432,36.133,39.551,32.715,67.871,-29.297,0
1512856767.436,46.875,64.941,80.078,71.777,-94.238,0
1512856767.440,8.789,36.621,16.602,49.805,-52.734,0
1512856767.444,1.953,5.859,6.348,63.965,-7.812,0
1512856767.447,14.648,6.836,47.363,74.707,-14.160,0
1512856767.451,0.488,7.812,44.922,68.848,-7.324,0
1512856767.455,11.719,31.250,48.340,94.238,35.156,0
1512856767.459,22.949,53.711,27.832,101.074,34.180,0
1512856767.463,8.301,37.598,-4.395,73.242,-45.410,0
1512856767.467,0.977,26.855,49.316,77.637,-12.695,0
1512856767.471,5.859,33.691,78.613,84.961,-0.488,0
1512856767.475,14.648,44.922,49.316,82.031,-16.113,0
1512856767.479,21.973,44.922,14.160,67.383,44.922,0
1512856767.483,6.348,17.090,3.906,47.363,46.387,0
1512856767.486,-3.418,13.672,39.062,58.594,18.555,0
1512856767.490,4.883,21.484,53.711,59.570,-18.555,0
1512856767.494,34.668,31.738,74.219,70.312,-44.922,0
1512856767.498,41.016,44.922,44.922,86.426,-31.250,0
1512856767.502,22.949,47.852,28.320,101.562,-50.293,0
1512856767.506,13.672,35.156,48.828,89.844,-28.320,0
1512856767.510,-14.648,20.020,36.133,56.152,31.250,0
1512856767.514,-23.926,22.461,-13.672,44.922,10.254,0
1512856767.518,12.695,10.742,-41.992,57.129,-36.133,0
1512856767.522,10.742,18.066,34.668,64.941,-86.914,0
1512856767.526,-7.812,41.504,90.820,65.918,-58.594,0
1512856767.529,8.301,51.270,60.547,90.332,-29.785,0
1512856767.533,15.625,38.086,17.578,82.520,-35.156,0
1512856767.537,13.672,17.578,14.648,74.707,-68.848,0
1512856767.541,21.973,17.090,52.734,102.539,-57.617,0
1512856767.545,14.648,19.531,62.988,98.145,-56.152,0
1512856767.549,9.277,23.926,58.105,72.754,-79.102,0
1512856767.553,21.973,34.180,44.434,73.730,-20.508,0
1512856767.557,17.578,37.109,10.254,66.895,-35.645,0
1512856767.561,2.930,28.320,11.719,48.828,-26.367,0
1512856767.565,8.301,37.109,41.016,59.082,2.441,0
1512856767.569,0.488,41.016,22.461,65.918,-61.035,0
1512856767.572,16.113,41.504,30.273,90.332,-69.336,0
1512856767.576,30.762,32.715,44.922,75.684,-49.805,0
1512856767.580,5.859,10.742,45.410,52.734,-62.012,0
1512856767.584,6.836,17.578,57.129,75.195,-64.453,0
1512856767.588,7.812,35.645,49.316,59.570,-63.477,0
1512856767.592,23.926,46.387,55.664,44.434,-64.453,0
1512856767.596,23.926,24.902,0.000,42.480,-85.938,0
1512856767.600,11.230,5.859,-34.180,41.016,-64.453,0
1512856767.604,-6.348,26.855,11.230,61.035,-43.945,0
1512856767.608,-16.113,45.410,20.020,67.871,-37.109,0
1512856767.611,17.578,26.855,50.781,65.918,-75.684,0
1512856767.615,26.855,19.531,86.914,62.988,-48.340,0
1512856767.619,7.812,17.578,45.898,56.152,-43.945,0
1512856767.623,1.953,28.320,24.902,55.664,-129.395,0
1512856767.627,-2.441,39.551,15.625,64.941,-41.992,0
1512856767.631,4.395,52.734,25.879,71.777,-32.715,0
1512856767.635,9.766,30.273,42.969,64.453,-83.008,0
1512856767.639,-0.977,-1.953,27.344,52.734,-14.648,0
1512856767.643,11.719,24.902,32.227,64.941,-55.176,0
1512856767.647,11.719,39.551,62.500,80.566,-83.496,0
1512856767.651,-11.719,22.461,38.574,73.730,-76.660,0
1512856767.654,-9.766,23.438,-22.949,76.172,-130.371,0
1512856767.658,-2.441,17.578,-8.301,62.988,-113.770,0
1512856767.662,14.160,27.344,62.988,63.965,-33.203,0
1512856767.666,21.484,53.223,83.984,74.707,-58.594,0
1512856767.670,12.207,19.043,37.598,53.711,-100.098,0
1512856767.674,8.301,9.277,12.695,57.617,-75.684,0
1512856767.678,17.090,33.691,52.734,84.473,-54.199,0
1512856767.682,25.391,40.527,44.434,88.379,-56.641,0
1512856767.686,18.555,44.434,-37.598,81.543,-14.648,0
1512856767.690,18.066,31.738,-53.711,71.777,-47.852,0
1512856767.694,33.203,26.855,25.391,73.242,-82.031,0
1512856767.697,17.578,25.879,57.129,70.312,-63.477,0
1512856767.701,-15.137,25.391,50.781,59.570,-88.867,0
1512856767.705,-2.441,28.320,66.895,86.426,-93.750,0
1512856767.709,18.066,25.879,52.246,89.355,-104.980,0
1512856767.713,21.484,25.391,20.020,64.941,-121.094,0
1512856767.717,6.348,22.949,1.953,58.594,-94.238,0
1512856767.721,1.953,26.855,29.297,56.641,-9.766,0
1512856767.725,14.648,35.156,67.871,72.754,18.066,0
1512856767.729,18.555,32.227,50.293,78.613,-21.484,0
1512856767.733,20.508,35.156,28.809,79.102,-25.879,0
1512856767.736,17.090,24.414,4.883,74.219,-21.973,0
1512856767.740,16.113,12.695,-17.090,51.758,-17.578,0
1512856767.744,10.254,28.809,36.621,51.758,4.883,0
1512856767.748,-10.254,26.855,46.875,53.223,-54.688,0
1512856767.752,1.465,26.855,5.859,65.430,-61.523,0
1512856767.756,13.184,24.902,4.883,87.891,-32.715,0
1512856767.760,8.301,30.762,59.082,89.844,-19.043,0
1512856767.764,20.996,41.992,81.543,82.520,-16.113,0
1512856767.768,23.438,28.809,52.734,84.473,-24.414,0
1512856767.772,10.742,13.184,22.949,88.867,-58.594,0
1512856767.776,20.996,22.461,18.555,93.750,-70.801,0
1512856767.779,22.461,36.621,20.508,92.285,14.648,0
1512856767.783,16.113,30.762,40.039,81.055,44.434,0
1512856767.787,16.113,25.391,51.270,79.102,-3.418,0
1512856767.791,28.809,38.574,10.742,82.031,-4.395,0
1512856767.795,51.758,49.316,17.578,96.680,59.082,0
1512856767.799,21.484,19.043,63.477,71.289,59.082,0
1512856767.803,-9.277,3.906,70.312,51.270,10.254,0
1512856767.807,-21.973,10.742,38.574,60.547,39.551,0
1512856767.811,-13.672,8.301,34.180,75.195,40.039,0
1512856767.815,18.555,22.949,45.410,105.957,56.641,0
1512856767.819,11.230,38.574,22.949,101.562,53.223,0
1512856767.822,4.883,47.363,37.598,83.496,-25.879,0
1512856767.826,31.738,46.387,61.035,95.215,-30.762,0
1512856767.830,47.852,36.133,45.410,104.492,47.852,0
1512856767.834,40.039,15.137,12.207,83.984,42.480,0
1512856767.838,13.672,4.883,-23.926,63.965,-10.254,0
1512856767.842,-0.977,21.973,-5.859,67.871,16.113,0
1512856767.846,19.043,36.621,34.180,85.938,20.020,0
1512856767.850,11.719,44.434,44.434,75.684,2.441,0
1512856767.854,0.488,41.992,62.012,68.359,-4.395,0
1512856767.858,24.902,26.367,93.262,82.520,-11.230,0
1512856767.861,46.387,29.297,75.684,92.773,-17.578,0
1512856767.865,21.484,15.625,34.668,86.426,24.414,0
1512856767.869,-3.906,1.953,10.742,79.102,64.941,0
1512856767.873,25.391,36.621,24.902,92.773,67.871,0
1512856767.877,17.090,50.293,35.156,98.633,28.320,0
1512856767.881,-2.930,20.508,20.508,75.195,5.371,0
1512856767.885,20.508,11.719,57.129,76.660,27.344,0
1512856767.889,23.438,33.691,94.727,92.773,21.484,0
1512856767.893,21.484,39.062,58.594,102.051,35.156,0
1512856767.897,28.320,19.043,48.340,95.215,16.602,0
1512856767.901,13.672,8.789,14.160,74.707,-9.766,0
1512856767.904,18.555,17.578,-11.230,81.543,-9.766,0
1512856767.908,37.109,40.039,49.316,91.309,26.855,0
1512856767.912,34.668,53.711,78.613,90.820,-8.789,0
1512856767.916,20.020,40.039,65.430,74.219,-45.898,0
1512856767.920,11.230,21.973,32.715,62.012,6.836,0
1512856767.924,18.555,22.949,17.090,67.871,-7.812,0
1512856767.928,1.465,35.156,47.363,65.430,-49.805,0
1512856767.932,-1.953,21.484,39.062,53.711,-57.617,0
1512856767.936,23.438,11.719,4.395,61.035,-7.324,0
1512856767.940,38.574,48.340,40.039,79.590,11.230,0
1512856767.944,19.043,52.246,71.777,72.266,-16.602,0
1512856767.947,-0.488,27.832,66.895,70.801,-29.297,0
1512856767.951,24.902,27.344,29.785,81.055,-32.227,0
1512856767.955,41.504,27.344,16.113,73.730,-37.109,0
1512856767.959,23.926,26.855,-19.531,68.848,-51.758,0
1512856767.963,4.883,19.531,-25.391,80.078,-74.707,0
1512856767.967,1.953,23.926,79.590,89.844,-21.484,0
1512856767.971,30.762,58.105,114.746,100.098,41.016,0
1512856767.975,20.020,40.039,73.242,88.867,-6.348,0
1512856767.979,1.465,11.230,71.289,84.473,16.113,0
1512856767.983,4.395,28.809,73.730,92.773,66.406,0
1512856767.986,11.719,28.809,49.805,97.168,-11.230,0
1512856767.990,12.207,24.902,20.508,81.543,-56.641,0
1512856767.994,19.531,41.016,42.480,84.473,-47.363,0
1512856767.998,15.137,26.367,38.086,91.309,-14.648,0
1512856768.002,-1.953,16.602,-33.691,79.590,-5.859,0
1512856768.006,4.395,34.668,12.207,76.172,-15.137,0
1512856768.010,18.066,36.133,75.195,72.266,-19.043,0
1512856768.014,8.789,37.109,63.477,63.477,-56.152,0
1512856768.018,19.043,39.062,81.543,88.867,-74.707,0
1512856768.022,19.043,28.320,69.336,90.820,-63.477,0
1512856768.026,-6.836,27.832,38.086,67.383,-43.945,0
1512856768.029,3.418,24.902,8.789,79.102,3.906,0
1512856768.033,25.879,37.109,29.785,91.309,41.016,0
1512856768.037,38.574,61.035,57.617,96.680,41.992,0
1512856768.041,18.555,48.340,14.648,83.496,36.133,0
1512856768.045,20.508,30.762,37.598,71.289,4.883,0
1512856768.049,16.113,8.789,63.477,57.617,-18.066,0
1512856768.053,6.836,21.973,44.434,71.289,17.578,0
1512856768.057,15.625,30.273,20.020,83.496,5.371,0
1512856768.061,16.602,20.996,32.227,81.543,-9.766,0
1512856768.065,28.320,56.152,57.617,85.449,57.129,0
1512856768.069,35.156,59.082,70.312,85.449,68.848,0
1512856768.072,28.809,40.527,71.289,83.008,24.414,0
1512856768.076,24.414,41.992,63.477,83.496,32.715,0
1512856768.080,16.113,17.578,36.621,75.195,-2.930,0
1512856768.084,-0.977,-0.488,31.250,67.871,-11.719,0
1512856768.088,-3.906,10.254,59.082,70.312,-7.324,0
1512856768.092,9.766,21.484,67.871,75.195,-28.320,0
1512856768.096,12.207,30.762,14.160,88.379,11.719,0
1512856768.100,3.906,36.621,-21.484,72.266,9.766,0
1512856768.104,17.578,52.734,44.434,75.684,34.180,0
1512856768.108,35.156,57.129,54.688,92.285,50.293,0
1512856768.111,43.457,41.016,35.156,85.938,17.090,0
1512856768.115,28.320,9.277,64.453,84.961,59.570,0
1512856768.119,21.484,-0.977,51.758,95.215,115.723,0
1512856768.123,13.672,2.930,20.996,101.074,93.750,0
1512856768.127,9.277,13.672,59.082,92.285,82.031,0
1512856768.131,16.602,32.715,84.961,86.426,141.113,0
1512856768.135,10.742,44.434,71.777,78.613,111.328,0
1512856768.139,28.320,44.922,37.598,88.379,70.312,0
1512856768.143,36.133,36.133,36.133,86.426,79.590,0
1512856768.147,26.367,20.508,64.941,74.219,105.469,0
1512856768.151,34.668,24.902,78.613,93.750,94.727,0
1512856768.154,31.250,32.227,75.195,112.793,81.055,0
1512856768.158,18.555,15.137,52.734,100.586,104.980,0
1512856768.162,23.438,11.230,22.949,91.309,125.977,0
1512856768.166,27.832,15.625,36.621,92.773,99.609,0
1512856768.170,15.137,17.578,46.875,100.586,145.996,0
1512856768.174,20.508,19.531,45.410,102.051,187.988,0
1512856768.178,44.922,51.270,66.406,94.238,78.125,0
1512856768.182,48.828,69.824,80.566,105.957,69.824,0
1512856768.186,26.367,42.480,62.012,123.047,164.062,0
1512856768.190,16.602,24.902,15.625,121.582,127.930,0
1512856768.194,34.668,19.531,9.766,118.164,126.465,0
1512856768.197,49.805,30.273,30.273,104.980,133.789,0
1512856768.201,34.668,20.996,46.875,78.125,154.785,0
1512856768.205,17.578,9.277,83.008,72.754,164.062,0
1512856768.209,16.602,15.625,62.012,85.449,153.809,0
1512856768.213,25.879,42.969,21.973,97.656,176.758,0
1512856768.217,32.715,64.453,30.762,113.281,184.570,0
1512856768.221,32.715,41.016,42.969,113.770,165.039,0
1512856768.225,30.273,9.766,49.316,81.055,133.789,0
1512856768.229,16.113,9.277,57.129,67.383,120.605,0
1512856768.233,16.113,25.391,35.156,77.637,94.727,0
1512856768.236,33.691,33.691,46.875,82.031,102.539,0
1512856768.240,23.438,17.090,82.031,83.984,125.977,0
1512856768.244,6.348,19.043,69.336,88.867,125.488,0
1512856768.248,12.207,34.668,47.363,83.496,131.836,0
1512856768.252,35.645,46.387,35.645,88.379,114.746,0
1512856768.256,40.527,48.828,40.039,94.727,50.293,0
1512856768.260,42.480,52.734,36.133,84.961,68.848,0
1512856768.264,23.438,39.551,38.574,65.918,76.660,0
1512856768.268,11.719,17.090,61.523,51.758,99.121,0
1512856768.272,18.555,19.043,62.012,65.918,127.930,0
1512856768.276,4.395,14.648,10.742,74.219,75.195,0
1512856768.279,11.230,21.973,16.602,73.730,97.656,0
1512856768.283,14.648,23.438,36.133,70.801,106.445,0
1512856768.287,16.602,23.438,-8.789,69.824,92.285,0
1512856768.291,31.738,36.621,-3.418,74.219,96.680,0
1512856768.295,33.203,50.293,53.711,91.797,27.832,0
1512856768.299,28.809,52.734,73.242,96.680,0.977,0
1512856768.303,2.930,23.926,63.965,65.430,21.973,0
1512856768.307,-12.695,12.207,48.340,54.199,1.465,0
1512856768.311,0.488,21.484,44.434,62.012,38.574,0
1512856768.315,2.930,20.996,26.855,62.500,66.895,0
1512856768.319,14.648,33.203,-20.508,60.547,-22.461,0
1512856768.322,24.902,30.273,1.953,35.156,-9.766,0
1512856768.326,28.809,25.391,64.453,38.574,13.184,0
1512856768.330,29.297,43.945,66.895,56.641,-36.621,0
1512856768.334,18.066,47.363,52.734,45.410,-49.805,0
1512856768.338,7.324,43.945,51.270,41.016,-59.082,0
1512856768.342,22.461,37.598,30.762,49.316,-47.363,0
1512856768.346,37.598,21.484,27.344,56.641,-10.742,0
1512856768.350,19.531,23.926,56.641,53.223,-7.324,0
1512856768.354,20.020,46.387,27.344,53.711,-33.691,0
1512856768.358,19.531,51.270,-6.348,57.617,-30.762,0
1512856768.361,17.578,36.133,1.465,62.012,-22.949,0
1512856768.365,24.902,26.855,35.645,65.430,-4.883,0
1512856768.369,18.066,22.949,91.797,62.988,39.551,0
1512856768.373,0.977,17.090,65.918,39.062,-7.324,0
1512856768.377,4.883,15.137,58.594,29.785,-45.898,0
1512856768.381,8.789,44.922,63.477,50.781,-41.992,0
1512856768.385,8.301,49.316,0.977,66.406,14.648,0
1512856768.389,17.090,20.508,8.301,66.895,68.359,0
1512856768.393,33.203,36.133,79.102,63.965,61.523,0
1512856768.397,36.133,47.363,69.336,76.172,57.129,0
1512856768.401,20.020,25.879,16.602,86.426,12.207,0
1512856768.404,17.090,17.578,26.855,95.215,15.137,0
1512856768.408,9.277,17.578,65.918,89.355,14.648,0
1512856768.412,15.625,34.668,80.566,79.590,-9.766,0
1512856768.416,29.785,41.992,63.477,70.312,61.035,0
1512856768.420,11.719,17.578,17.090,59.082,124.512,0
1512856768.424,12.207,24.902,10.254,63.965,98.633,0
1512856768.428,36.621,36.133,53.223,77.148,51.270,0
1512856768.432,28.809,30.762,68.359,89.844,75.684,0
1512856768.436,20.508,29.297,59.570,96.191,77.148,0
1512856768.440,37.109,34.180,38.574,98.145,67.383,0
1512856768.444,30.273,43.945,32.715,103.027,97.168,0
1512856768.447,29.297,42.480,57.129,92.773,107.422,0
1512856768.451,37.109,21.973,27.344,79.590,76.660,0
1512856768.455,18.555,10.254,-9.277,74.219,91.309,0
1512856768.459,16.602,25.391,46.875,84.961,86.914,0
1512856768.463,26.367,31.738,70.312,84.473,89.355,0
1512856768.467,35.156,23.438,83.984,80.078,126.465,0
1512856768.471,44.922,44.922,81.055,92.285,110.352,0
1512856768.475,30.273,47.852,33.691,99.121,72.266,0
1512856768.479,22.461,31.250,47.852,104.492,51.758,0
1512856768.483,46.387,43.457,66.895,105.469,99.609,0
1512856768.486,53.711,35.645,42.480,92.773,109.375,0
1512856768.490,21.973,31.738,27.344,75.195,61.035,0
1512856768.494,21.973,48.828,60.059,95.215,47.363,0
1512856768.498,36.621,32.715,53.711,93.750,81.543,0
1512856768.502,43.945,25.391,30.273,68.359,104.004,0
1512856768.506,45.410,39.551,48.340,61.523,73.242,0
1512856768.510,41.992,33.203,62.500,69.824,67.383,0
1512856768.514,40.527,28.320,30.762,80.078,121.094,0
1512856768.518,20.508,39.551,12.207,68.848,109.863,0
1512856768.522,20.508,45.898,58.105,68.359,55.664,0
1512856768.526,24.414,38.574,75.684,63.965,101.074,0
1512856768.529,28.320,43.945,77.637,71.777,154.785,0
1512856768.533,31.738,50.293,69.824,84.961,101.074,0
1512856768.537,35.156,42.969,27.832,81.055,76.172,0
1512856768.541,48.340,28.809,17.090,85.449,81.055,0
1512856768.545,40.039,23.438,11.719,83.496,51.758,0
1512856768.549,43.945,48.828,8.789,85.938,109.863,0
1512856768.553,35.645,42.480,70.801,77.148,69.336,0
1512856768.557,20.508,45.410,97.656,72.754,6.836,0
1512856768.561,13.672,37.598,69.336,75.684,24.902,0
1512856768.565,7.324,9.766,48.340,74.219,41.992,0
1512856768.569,20.020,36.133,62.988,76.172,77.637,0
1512856768.572,35.156,54.688,43.945,83.984,63.965,0
1512856768.576,49.316,47.363,18.066,88.867,90.332,0
1512856768.580,39.551,31.738,18.066,77.637,94.727,0
1512856768.584,29.297,23.926,27.344,73.730,62.988,0
1512856768.588,35.645,33.691,61.523,73.730,56.152,0
1512856768.592,24.414,34.180,77.637,72.754,98.633,0
1512856768.596,23.926,42.480,85.449,88.379,89.844,0
1512856768.600,22.949,49.805,49.316,83.984,74.707,0
1512856768.604,19.531,41.992,7.324,73.242,111.328,0
1512856768.608,42.480,38.574,19.043,103.516,133.301,0
1512856768.611,53.223,29.297,63.965,107.422,148.926,0
1512856768.615,48.828,35.645,90.820,93.750,101.074,0
1512856768.619,44.434,50.293,75.195,100.098,92.285,0
1512856768.623,37.598,50.293,54.688,106.934,121.094,0
1512856768.627,31.250,41.504,57.129,91.309,143.066,0
1512856768.631,39.062,35.156,43.457,84.961,111.328,0
1512856768.635,43.945,41.992,43.945,90.332,93.750,0
1512856768.639,33.691,60.547,48.340,94.727,132.812,0
1512856768.643,44.922,67.871,35.156,90.820,121.582,0
1512856768.647,61.523,51.758,63.965,74.219,115.234,0
1512856768.651,30.762,20.996,65.430,71.777,120.117,0
1512856768.654,17.090,26.855,53.711,89.844,84.961,0
1512856768.658,48.828,62.012,73.730,99.121,80.566,0
1512856768.662,40.039,46.387,59.570,70.801,117.188,0
1512856768.666,36.133,32.715,5.371,73.242,86.426,0
1512856768.670,39.551,41.992,3.418,82.520,56.152,0
1512856768.674,58.594,47.363,76.660,82.520,54.688,0
1512856768.678,50.781,42.969,86.914,75.684,76.172,0
1512856768.682,6.836,38.086,41.504,55.176,92.285,0
1512856768.686,27.832,38.574,21.973,57.617,88.867,0
1512856768.690,37.109,33.203,20.996,62.012,57.129,0
1512856768.694,22.949,38.086,24.414,70.801,27.344,0
1512856768.697,32.715,38.574,14.160,82.031,7.324,0
1512856768.701,27.344,43.945,46.387,72.266,12.207,0
1512856768.705,36.621,52.246,111.816,82.520,49.805,0
1512856768.709,29.297,28.809,84.473,78.125,97.656,0
1512856768.713,5.371,25.391,53.223,65.918,63.965,0
1512856768.717,23.438,43.945,28.809,77.637,76.172,0
1512856768.721,45.410,46.387,-15.625,81.055,58.594,0
1512856768.725,36.133,42.480,15.625,66.895,21.484,0
1512856768.729,22.461,51.758,61.035,54.199,53.711,0
1512856768.733,5.859,41.016,64.453,47.852,18.555,0
1512856768.736,14.160,30.273,64.453,73.730,-16.113,0
1512856768.740,19.043,33.203,73.730,83.496,58.594,0
1512856768.744,26.367,29.785,86.426,68.848,86.914,0
1512856768.748,46.387,32.227,36.133,74.707,8.789,0
1512856768.752,40.527,28.320,-10.254,72.266,9.766,0
1512856768.756,30.273,36.621,15.137,57.617,14.160,0
1512856768.760,42.969,55.176,61.035,56.641,55.664,0
1512856768.764,52.246,68.359,65.430,74.707,68.848,0
1512856768.768,33.203,64.941,67.871,69.824,57.617,0
1512856768.772,27.832,52.246,83.984,62.988,25.391,0
1512856768.776,30.762,39.062,22.461,67.383,-8.301,0
1512856768.779,22.461,24.414,20.508,76.660,-16.113,0
1512856768.783,26.855,22.461,58.105,77.148,16.113,0
1512856768.787,34.668,36.133,46.875,72.754,35.645,0
1512856768.791,27.832,29.297,47.852,63.477,-7.324,0
1512856768.795,13.672,31.738,52.246,51.758,19.043,0
1512856768.799,22.461,40.527,60.059,65.918,67.383,0
1512856768.803,34.180,43.457,66.895,81.543,98.633,0
1512856768.807,28.809,55.176,39.062,85.449,23.926,0
1512856768.811,30.273,49.316,-41.504,70.801,26.367,0
1512856768.815,25.391,40.527,1.953,67.871,30.762,0
1512856768.819,28.320,31.250,72.266,76.172,31.250,0
1512856768.822,40.527,32.715,84.961,72.754,97.168,0
1512856768.826,25.391,34.668,79.590,71.777,95.703,0
1512856768.830,20.996,35.645,66.406,76.660,84.473,0
1512856768.834,27.832,35.156,49.805,69.336,68.848,0
1512856768.838,30.762,41.504,4.395,70.312,41.504,0
1512856768.842,45.410,60.059,29.297,91.797,86.426,0
1512856768.846,38.574,56.641,35.645,90.820,68.359,0
1512856768.850,7.812,32.715,17.090,69.824,1.953,0
1512856768.854,11.719,21.973,63.965,66.895,12.695,0
1512856768.858,44.922,39.551,65.430,80.078,54.688,0
1512856768.861,37.109,44.922,59.082,76.660,63.477,0
1512856768.865,20.996,34.668,50.293,75.195,49.316,0
1512856768.869,39.062,35.156,28.320,88.379,48.828,0
1512856768.873,52.246,48.340,38.086,86.426,64.453,0
1512856768.877,22.461,37.598,46.875,72.266,42.480,0
1512856768.881,16.602,24.902,62.012,71.777,64.453,0
1512856768.885,33.691,33.691,79.590,81.543,116.211,0
1512856768.889,21.484,28.320,47.852,80.566,113.770,0
1512856768.893,22.949,37.109,36.133,75.684,21.484,0
1512856768.897,43.457,62.012,75.195,78.125,27.832,0
1512856768.901,32.715,34.668,13.184,59.082,42.480,0
1512856768.904,26.367,22.949,-34.668,54.199,14.160,0
1512856768.908,38.574,36.133,18.066,58.105,0.000,0
1512856768.912,39.062,41.016,64.941,57.129,22.949,0
1512856768.916,20.508,37.109,68.359,49.805,29.785,0
1512856768.920,0.977,18.555,47.363,45.410,-7.812,0
1512856768.924,13.672,23.926,47.363,54.199,43.457,0
1512856768.928,3.906,45.898,40.039,52.246,66.406,0
1512856768.932,11.719,46.875,0.000,55.664,56.152,0
1512856768.936,34.668,34.668,20.996,63.477,19.043,0
1512856768.940,15.137,17.090,64.453,51.758,-8.789,0
1512856768.944,6.348,9.766,53.223,41.504,27.832,0
1512856768.947,4.395,17.090,25.391,40.527,5.859,0
1512856768.951,13.672,24.902,34.668,37.598,0.000,0
1512856768.955,24.902,30.762,37.109,43.945,8.789,0
1512856768.959,24.902,39.062,-9.277,56.641,-5.371,0
1512856768.963,40.039,55.176,-14.648,54.199,18.066,0
1512856768.967,29.297,41.504,44.922,43.945,53.223,0
1512856768.971,-4.883,21.484,74.219,61.523,5.371,0
1512856768.975,1.465,29.785,38.086,70.312,-6.348,0
1512856768.979,12.695,47.363,39.551,60.059,8.789,0
1512856768.983,14.160,28.320,53.223,53.223,40.527,0
1512856768.986,20.508,-4.883,32.227,32.715,84.961,0
1512856768.990,10.742,0.488,38.086,22.461,36.133,0
1512856768.994,22.949,43.457,35.645,52.246,27.832,0
1512856768.998,36.133,55.176,20.508,69.824,-24.414,0
1512856769.002,29.785,25.391,23.438,57.129,41.504,0
1512856769.006,22.949,19.531,23.438,51.758,40.527,0
1512856769.010,40.527,39.062,41.016,54.199,-29.785,0
1512856769.014,37.598,36.621,57.129,56.152,26.367,0
1512856769.018,17.090,28.809,60.547,69.824,58.105,0
1512856769.022,18.066,35.645,27.344,67.871,42.480,0
1512856769.026,3.418,30.273,-12.695,47.852,44.922,0
1512856769.029,15.625,28.809,29.785,47.852,60.059,0
1512856769.033,20.020,20.508,63.965,60.547,55.176,0
1512856769.037,17.578,38.086,52.246,78.125,39.551,0
1512856769.041,39.551,54.199,66.895,75.684,-24.414,0
1512856769.045,49.316,33.691,56.641,59.082,-13.184,0
1512856769.049,42.480,21.484,20.508,49.316,39.062,0
1512856769.053,28.320,24.902,0.000,60.547,37.109,0
1512856769.057,23.926,20.020,21.973,70.801,29.297,0
1512856769.061,13.672,21.973,50.293,66.406,50.293,0
1512856769.065,-7.324,23.438,20.996,60.547,26.367,0
1512856769.069,-9.766,18.066,21.973,49.316,15.625,0
1512856769.072,13.672,30.762,53.223,56.152,37.109,0
1512856769.076,20.508,41.016,72.754,64.453,-3.418,0
1512856769.080,27.832,34.668,51.270,69.336,60.547,0
1512856769.084,40.039,39.062,41.992,74.707,86.914,0
1512856769.088,21.973,44.434,9.277,62.012,16.113,0
1512856769.092,16.113,40.527,2.930,65.430,39.062,0
1512856769.096,27.832,26.367,15.625,72.266,36.621,0
1512856769.100,22.461,20.020,12.695,57.129,60.059,0
1512856769.104,9.277,31.738,56.152,60.547,48.340,0
1512856769.108,10.254,21.973,61.523,61.035,7.812,0
1512856769.111,37.109,25.879,49.316,62.500,80.078,0
1512856769.115,41.016,33.203,53.711,71.289,60.059,0
1512856769.119,25.879,34.180,31.738,82.520,22.949,0
1512856769.123,31.738,41.016,5.859,85.938,19.531,0
1512856769.127,20.996,40.039,51.270,67.871,-8.789,0
1512856769.131,-5.371,37.598,66.895,42.480,-7.812,0
1512856769.135,-3.418,25.391,12.207,32.227,1.465,0
1512856769.139,10.742,25.391,31.250,39.551,-21.484,0
1512856769.143,13.184,31.738,65.918,52.734,-19.531,0
1512856769.147,23.438,27.344,-12.207,59.570,14.648,0
1512856769.151,36.621,39.551,-19.531,64.941,46.387,0
1512856769.154,20.996,48.828,61.523,66.406,85.938,0
1512856769.158,13.184,31.250,104.980,71.777,78.613,0
1512856769.162,15.137,23.926,78.125,54.688,13.672,0
1512856769.166,13.672,25.391,57.129,47.852,32.715,0
1512856769.170,20.020,28.320,47.852,54.688,25.879,0
1512856769.174,31.738,34.668,17.090,48.828,-22.949,0
1512856769.178,34.180,23.438,12.207,60.059,26.367,0
1512856769.182,13.184,15.137,0.977,71.777,11.719,0
1512856769.186,4.395,28.320,32.715,66.895,3.418,0
1512856769.190,19.531,43.457,28.320,62.988,-0.488,0
1512856769.194,14.648,32.715,15.625,55.664,-19.043,0
1512856769.197,4.395,26.855,46.387,51.758,62.012,0
1512856769.201,11.230,47.852,31.250,66.406,39.551,0
1512856769.205,12.207,41.992,12.695,68.359,-18.555,0
1512856769.209,15.137,33.203,26.367,70.312,24.902,0
1512856769.213,25.391,28.809,60.059,73.242,36.621,0
1512856769.217,28.320,17.090,63.477,62.500,33.203,0
1512856769.221,20.508,29.785,65.918,66.406,2.441,0
1512856769.225,0.000,19.043,58.105,50.781,-21.973,0
1512856769.229,3.906,15.625,45.410,48.828,33.203,0
1512856769.233,23.438,29.297,20.020,68.359,23.926,0
1512856769.236,36.621,34.180,-8.301,65.918,-19.043,0
1512856769.240,49.805,54.199,6.348,81.543,-45.898,0
1512856769.244,43.457,41.504,-0.488,87.402,11.719,0
1512856769.248,32.227,44.922,2.441,74.707,3.906,0
1512856769.252,35.645,66.895,64.453,78.613,-53.711,0
1512856769.256,34.180,28.809,67.383,61.035,12.207,0
1512856769.260,13.184,7.324,25.879,53.711,26.367,0
1512856769.264,-3.906,10.742,9.277,52.246,10.254,0
1512856769.268,8.301,16.113,28.320,35.645,44.922,0
1512856769.272,34.180,25.391,62.500,48.340,51.270,0
1512856769.276,23.926,34.180,53.223,61.035,46.875,0
1512856769.279,19.043,36.133,29.297,61.523,56.152,0
1512856769.283,31.250,40.039,34.180,60.059,21.484,0
1512856769.287,39.062,47.363,63.965,84.473,18.066,0
1512856769.291,32.715,51.270,55.664,98.633,-11.719,0
1512856769.295,34.668,46.387,6.348,76.660,8.789,0
1512856769.299,22.949,23.926,-26.855,44.922,52.734,0
1512856769.303,13.672,15.625,-16.113,49.805,18.066,0
1512856769.307,18.555,26.367,59.082,63.965,5.859,0
1512856769.311,-1.465,18.066,90.820,61.035,32.715,0
1512856769.315,11.719,17.578,92.285,73.730,49.316,0
1512856769.319,13.184,30.762,70.312,73.730,75.195,0
1512856769.322,11.719,20.996,33.203,65.430,71.777,0
1512856769.326,17.090,38.086,12.207,70.312,36.621,0
1512856769.330,12.695,62.012,-3.418,73.730,16.113,0
1512856769.334,41.016,53.711,24.414,75.684,28.320,0
1512856769.338,47.852,40.039,41.992,67.871,27.344,0
1512856769.342,40.527,25.879,24.414,60.547,49.316,0
1512856769.346,41.016,16.602,50.781,63.477,44.922,0
1512856769.350,42.480,6.836,47.363,61.523,20.996,0
1512856769.354,59.570,22.461,67.383,72.266,27.832,0
1512856769.358,27.344,28.320,39.062,76.172,-12.695,0
1512856769.361,0.488,31.250,11.230,60.059,-5.371,0
1512856769.365,34.180,65.918,74.707,67.871,32.227,0
1512856769.369,22.461,62.988,64.453,66.895,48.340,0
1512856769.373,-4.883,33.691,36.133,60.059,48.828,0
1512856769.377,6.836,23.438,36.133,74.707,4.395,0
1512856769.381,5.371,12.207,18.066,58.105,-16.113,0
1512856769.385,-2.930,4.395,30.273,45.410,49.316,0
1512856769.389,6.836,17.090,26.855,68.359,83.984,0
1512856769.393,28.809,37.598,-15.625,82.031,76.172,0
1512856769.397,34.180,33.203,24.414,68.359,80.078,0
1512856769.401,37.598,32.227,59.082,59.082,15.137,0
1512856769.404,49.805,48.340,32.715,62.500,-13.672,0
1512856769.408,39.551,47.363,58.594,64.453,9.766,0
1512856769.412,15.625,39.551,55.664,48.340,2.930,0
1512856769.416,23.438,27.832,13.672,41.504,20.020,0
1512856769.420,21.484,15.137,18.066,54.199,35.156,0
1512856769.424,-0.977,14.648,2.930,47.852,-10.254,0
1512856769.428,10.254,13.672,18.555,46.387,32.227,0
1512856769.432,14.160,7.324,35.645,54.199,76.660,0
1512856769.436,7.812,16.113,17.578,64.941,67.871,0
1512856769.440,11.719,24.902,39.062,64.941,39.062,0
1512856769.444,19.531,34.668,84.961,63.477,40.039,0
1512856769.447,17.578,43.945,75.684,60.547,79.590,0
1512856769.451,35.645,48.340,51.270,74.707,34.180,0
1512856769.455,38.574,35.156,23.438,85.938,16.113,0
1512856769.459,37.109,29.297,36.621,79.590,86.426,0
1512856769.463,49.805,43.457,74.219,85.449,77.637,0
1512856769.467,18.555,25.391,26.855,75.684,29.297,0
1512856769.471,1.953,16.113,-0.488,62.500,47.852,0
1512856769.475,33.203,34.180,26.855,58.594,69.336,0
1512856769.479,38.086,18.066,21.973,49.805,59.570,0
1512856769.483,22.949,22.461,36.133,62.988,24.414,0
1512856769.486,27.832,65.918,64.941,81.055,17.090,0
1512856769.490,24.902,53.711,34.668,69.824,48.340,0
1512856769.494,24.902,20.508,11.719,59.570,-6.836,0
1512856769.498,19.531,24.902,60.059,64.941,10.254,0
1512856769.502,30.273,48.828,59.570,78.125,59.570,0
1512856769.506,33.203,46.387,38.574,72.754,73.242,0
1512856769.510,23.438,40.039,17.090,58.105,54.199,0
1512856769.514,19.531,45.410,-7.812,54.199,13.184,0
1512856769.518,24.414,28.809,44.434,65.430,-15.625,0
1512856769.522,31.250,24.414,61.035,69.824,-8.789,0
1512856769.526,24.414,26.367,38.574,58.105,31.738,0
1512856769.529,31.250,29.785,69.824,67.383,71.289,0
1512856769.533,20.020,29.785,47.852,71.289,95.703,0
1512856769.537,3.906,15.137,-11.719,53.711,65.918,0
1512856769.541,20.996,33.691,7.812,62.012,68.848,0
1512856769.545,29.297,48.340,57.129,83.496,62.012,0
1512856769.549,26.855,37.598,40.527,73.730,20.996,0
1512856769.553,24.902,35.645,1.953,69.336,60.547,0
1512856769.557,25.391,40.039,11.719,78.125,37.109,0
1512856769.561,20.508,20.020,40.039,61.523,52.246,0
1512856769.565,11.719,15.137,33.203,52.734,28.320,0
1512856769.569,15.137,34.180,24.414,62.500,25.879,0
1512856769.572,23.926,39.062,61.035,86.426,100.098,0
1512856769.576,22.949,28.320,62.988,82.520,60.059,0
1512856769.580,28.809,41.992,21.973,62.500,61.523,0
1512856769.584,19.531,60.059,-12.695,43.457,10.742,0
1512856769.588,29.297,35.156,16.113,51.758,-29.785,0
1512856769.592,30.273,20.996,40.039,67.383,30.273,0
1512856769.596,13.184,31.250,29.785,57.617,43.945,0
1512856769.600,21.484,32.227,34.668,66.406,50.781,0
1512856769.604,14.160,23.438,39.062,74.219,88.867,0
1512856769.608,10.742,19.531,33.691,80.078,69.824,0
1512856769.611,24.414,30.273,50.781,74.707,20.508,0
1512856769.615,32.227,35.645,59.082,61.523,12.207,0
1512856769.619,33.691,28.809,52.734,64.941,64.941,0
1512856769.623,20.996,13.184,34.180,62.012,122.559,0
1512856769.627,18.555,28.809,18.066,58.105,64.941,0
1512856769.631,15.137,34.668,31.250,60.547,33.691,0
1512856769.635,26.855,38.086,28.809,66.406,58.105,0
1512856769.639,39.551,48.340,42.480,75.684,40.527,0
1512856769.643,25.879,47.363,48.828,67.383,35.156,0
1512856769.647,30.273,42.480,-9.277,51.270,-21.973,0
1512856769.651,34.668,13.184,-16.113,40.039,27.344,0
1512856769.654,25.391,7.812,23.438,52.734,59.570,0
1512856769.658,20.996,18.066,41.992,56.641,30.762,0
1512856769.662,33.203,27.344,39.551,43.945,35.645,0
1512856769.666,27.832,35.645,57.129,54.688,44.922,0
1512856769.670,27.344,48.340,68.848,76.172,56.152,0
1512856769.674,24.414,42.969,40.039,69.824,59.082,0
1512856769.678,35.156,33.691,6.836,60.547,29.785,0
1512856769.682,30.762,34.668,5.371,57.129,19.531,0
1512856769.686,6.836,39.062,24.902,51.270,55.664,0
1512856769.690,13.672,39.551,57.129,47.363,4.883,0
1512856769.694,26.855,22.949,43.945,62.500,-21.973,0
1512856769.697,39.062,27.832,55.176,86.426,34.668,0
1512856769.701,38.086,31.738,55.176,73.242,43.457,0
1512856769.705,35.645,34.668,29.785,66.895,53.223,0
1512856769.709,34.668,41.992,30.273,74.707,12.695,0
1512856769.713,28.320,37.109,28.809,62.988,-17.090,0
1512856769.717,35.645,38.574,56.641,67.383,27.832,0
1512856769.721,38.574,37.109,55.664,72.266,16.113,0
1512856769.725,23.438,30.273,39.551,67.383,-13.672,0
1512856769.729,22.461,29.297,15.137,64.453,78.125,0
1512856769.733,33.691,46.387,42.969,76.172,66.406,0
1512856769.736,30.273,39.551,47.852,73.242,19.043,0
1512856769.740,26.855,20.508,-0.488,61.523,79.102,0
1512856769.744,29.297,30.273,39.551,66.406,102.539,0
1512856769.748,16.602,41.016,59.570,64.941,83.008,0
1512856769.752,13.672,40.039,42.969,61.523,47.363,0
1512856769.756,20.996,42.969,82.520,75.684,46.387,0
1512856769.760,30.273,53.223,85.938,88.867,78.613,0
1512856769.764,36.621,46.387,25.879,85.938,72.754,0
1512856769.768,29.785,37.109,41.504,74.707,18.555,0
1512856769.772,28.320,55.664,87.402,71.777,44.434,0
1512856769.776,31.250,43.945,51.758,67.383,24.414,0
1512856769.779,45.410,26.855,7.324,63.965,-14.160,0
1512856769.783,49.805,37.598,34.668,73.242,14.648,0
1512856769.787,37.109,41.016,35.645,72.266,37.109,0
1512856769.791,23.438,28.809,29.785,69.336,24.414,0
1512856769.795,44.922,35.645,67.871,77.637,54.199,0
1512856769.799,41.992,62.012,64.453,86.914,71.289,0
1512856769.803,14.648,56.152,34.180,77.148,58.105,0
1512856769.807,11.719,33.691,-9.277,55.176,72.754,0
1512856769.811,21.973,26.855,-20.996,51.270,22.461,0
1512856769.815,41.504,43.945,40.039,61.523,27.832,0
1512856769.819,40.527,42.969,62.500,65.918,43.945,0
1512856769.822,28.809,30.273,65.918,64.453,-5.859,0
1512856769.826,16.113,31.250,69.824,59.082,22.461,0
1512856769.830,8.301,26.367,53.711,51.270,79.102,0
1512856769.834,14.648,25.879,30.762,47.852,104.004,0
1512856769.838,32.227,45.410,25.879,64.941,60.547,0
1512856769.842,41.504,49.316,20.508,66.895,9.766,0
1512856769.846,50.781,54.199,30.762,59.570,14.648,0
1512856769.850,52.734,58.105,23.438,63.965,47.363,0
1512856769.854,31.738,45.410,18.555,63.965,7.324,0
1512856769.858,11.719,21.973,43.457,61.035,3.906,0
1512856769.861,2.441,4.883,45.410,44.922,32.227,0
1512856769.865,12.695,12.695,49.805,52.246,16.113,0
1512856769.869,15.625,29.297,41.016,62.988,54.688,0
1512856769.873,12.695,26.367,30.762,49.805,77.637,0
1512856769.877,25.879,22.461,24.902,42.480,62.012,0
1512856769.881,16.602,39.551,22.461,57.129,100.098,0
1512856769.885,1.465,34.180,49.805,63.965,70.801,0
1512856769.889,20.508,41.504,74.219,56.641,6.836,0
1512856769.893,40.527,62.988,70.312,51.758,37.109,0
1512856769.897,16.113,36.133,8.301,45.410,41.504,0
1512856769.901,6.348,29.297,-13.672,52.734,22.461,0
1512856769.904,18.555,40.039,2.930,61.035,37.109,0
1512856769.908,13.672,16.602,3.418,53.223,46.875,0
1512856769.912,14.648,8.301,22.949,60.059,19.531,0
1512856769.916,22.949,23.438,35.156,76.660,29.785,0
1512856769.920,20.508,27.344,58.105,72.266,83.008,0
1512856769.924,26.367,35.645,78.613,62.988,92.773,0
1512856769.928,32.227,40.039,83.496,61.035,74.707,0
1512856769.932,26.367,41.016,47.363,75.684,49.316,0
1512856769.936,2.930,30.273,2.441,66.406,22.461,0
1512856769.940,0.977,10.254,11.230,47.852,79.102,0
1512856769.944,26.855,19.531,0.977,53.711,95.215,0
1512856769.947,19.043,34.180,2.930,59.570,26.855,0
1512856769.951,3.906,31.738,52.734,56.641,47.363,0
1512856769.955,5.371,19.531,70.312,43.457,48.340,0
1512856769.959,26.855,16.602,14.160,43.457,41.504,0
1512856769.963,42.480,20.996,-20.996,52.246,76.660,0
1512856769.967,30.273,27.832,41.504,55.176,76.660,0
1512856769.971,8.301,32.227,74.707,54.688,59.082,0
1512856769.975,10.254,30.273,47.852,46.875,25.391,0
1512856769.979,22.949,26.367,12.695,42.969,63.477,0
1512856769.983,18.066,24.414,4.395,43.457,110.840,0
1512856769.986,15.625,28.320,22.461,39.551,63.965,0
1512856769.990,11.719,39.062,31.250,58.594,33.203,0
1512856769.994,16.602,45.410,41.016,74.707,29.785,0
1512856769.998,28.809,30.762,29.297,59.570,20.020,0
1512856770.002,19.531,13.672,38.086,47.363,36.621,0
1512856770.006,20.508,28.809,66.895,54.199,88.867,0
1512856770.010,18.066,28.320,35.645,55.664,99.121,0
1512856770.014,7.812,13.184,1.953,57.129,42.969,0
1512856770.018,23.438,23.438,0.977,65.918,27.344,0
1512856770.022,25.879,31.738,13.672,61.523,64.453,0
1512856770.026,30.273,38.086,15.137,71.777,76.660,0
1512856770.029,27.344,45.410,42.480,77.148,85.938,0
1512856770.033,40.039,50.293,81.543,76.172,70.312,0
1512856770.037,38.086,41.504,64.453,65.430,69.824,0
1512856770.041,5.859,17.578,41.016,51.270,92.773,0
1512856770.045,10.254,8.789,17.578,64.453,96.680,0
1512856770.049,14.160,20.508,20.020,67.871,18.066,0
1512856770.053,5.371,22.461,43.457,62.500,0.488,0
1512856770.057,17.090,16.602,41.504,65.430,42.480,0
1512856770.061,20.020,9.277,15.625,70.312,29.785,0
1512856770.065,20.996,16.113,44.922,64.453,29.785,0
1512856770.069,22.949,23.438,50.293,56.152,68.848,0
1512856770.072,22.949,31.738,0.000,55.176,66.895,0
1512856770.076,39.551,41.992,28.320,62.988,4.883,0
1512856770.080,36.621,33.203,37.598,63.477,-1.465,0
1512856770.084,15.137,20.020,15.625,52.246,12.207,0
1512856770.088,5.371,33.691,20.996,62.500,-12.207,0
1512856770.092,20.508,42.480,10.254,64.941,15.625,0
1512856770.096,32.227,20.508,37.598,48.828,55.664,0
1512856770.100,1.465,0.977,22.461,33.691,50.293,0
1512856770.104,-3.418,0.977,4.395,36.621,54.199,0
1512856770.108,29.785,27.344,0.977,65.430,16.113,0
1512856770.111,27.832,42.480,-6.348,60.547,-9.766,0
1512856770.115,18.066,39.551,48.828,41.992,62.500,0
1512856770.119,23.926,28.320,57.617,45.410,107.422,0
1512856770.123,21.484,19.531,31.250,44.434,30.762,0
1512856770.127,9.277,5.371,28.809,49.805,-21.973,0
1512856770.131,15.625,14.648,53.711,72.754,74.707,0
1512856770.135,17.578,22.461,26.367,55.664,93.262,0
1512856770.139,12.695,35.156,-20.996,47.852,81.055,0
1512856770.143,28.809,48.340,2.441,70.312,53.223,0
1512856770.147,16.602,19.043,26.367,50.293,16.602,0
1512856770.151,-1.953,-3.418,51.270,25.391,54.688,0
1512856770.154,-0.488,11.719,29.785,30.762,18.066,0
1512856770.158,26.855,32.715,44.922,62.500,-41.504,0
1512856770.162,27.832,34.180,67.383,66.895,13.672,0
1512856770.166,16.113,38.086,41.504,49.316,82.520,0
1512856770.170,35.645,30.273,38.086,53.711,67.383,0
1512856770.174,26.367,18.555,38.574,54.199,37.598,0
1512856770.178,11.230,26.855,39.062,62.988,47.363,0
1512856770.182,14.160,24.902,30.762,55.664,47.852,0
1512856770.186,24.902,18.555,29.785,41.992,36.133,0
1512856770.190,11.719,35.156,-1.465,60.547,11.719,0
1512856770.194,0.488,40.527,-30.762,48.340,59.570,0
1512856770.197,15.625,10.254,40.039,32.227,100.586,0
1512856770.201,16.602,6.836,83.008,65.430,56.152,0
1512856770.205,23.438,19.043,46.387,68.848,49.805,0
1512856770.209,34.180,26.855,35.645,62.988,74.707,0
1512856770.213,18.066,35.645,35.156,61.523,38.574,0
1512856770.217,11.719,44.434,56.641,63.965,11.230,0
1512856770.221,14.648,29.297,56.152,62.988,39.062,0
1512856770.225,16.113,6.348,-12.695,52.734,24.414,0
1512856770.229,30.273,25.391,-15.625,61.035,33.691,0
1512856770.233,42.969,33.203,19.043,67.383,73.730,0
1512856770.236,28.320,27.832,64.941,69.824,50.781,0
1512856770.240,11.719,23.438,81.055,65.430,39.551,0
1512856770.244,14.160,21.484,49.805,62.500,51.270,0
1512856770.248,18.066,30.273,35.156,70.801,72.266,0
1512856770.252,10.254,28.320,-4.395,74.219,78.125,0
1512856770.256,26.855,34.668,-42.969,62.988,61.035,0
1512856770.260,41.504,37.109,24.414,47.363,85.449,0
1512856770.264,14.160,19.531,72.266,37.109,110.352,0
1512856770.268,5.859,9.766,36.133,39.062,58.105,0
1512856770.272,24.902,21.484,52.734,39.062,17.578,0
1512856770.276,34.180,35.645,55.664,54.688,83.008,0
1512856770.279,32.715,35.156,11.719,70.801,145.996,0
1512856770.283,28.809,33.691,-21.973,69.336,123.047,0
1512856770.287,9.766,22.461,12.207,64.941,118.652,0
1512856770.291,9.277,31.250,67.871,67.871,124.512,0
1512856770.295,25.391,29.297,60.059,60.059,101.074,0
1512856770.299,21.484,22.461,31.250,42.969,104.004,0
1512856770.303,6.836,21.973,48.340,38.574,108.887,0
1512856770.307,12.695,15.137,33.691,47.852,106.934,0
1512856770.311,13.184,9.277,-36.133,48.828,137.207,0
1512856770.315,2.930,12.695,-20.996,43.457,137.695,0
1512856770.319,24.414,28.809,43.457,55.176,125.977,0
1512856770.322,22.949,22.949,65.430,50.293,190.430,0
1512856770.326,-3.906,6.348,50.293,38.574,200.195,0
1512856770.330,13.672,23.926,49.316,64.453,150.879,0
1512856770.334,39.062,51.758,49.316,76.172,163.086,0
1512856770.338,24.902,41.016,34.668,74.707,170.410,0
1512856770.342,7.812,17.578,24.902,73.242,141.602,0
1512856770.346,18.555,24.902,18.555,68.848,159.180,0
1512856770.350,37.109,18.555,35.156,64.941,165.039,0
1512856770.354,41.016,19.531,37.598,62.500,169.922,0
1512856770.358,33.203,34.180,57.129,64.453,203.613,0
1512856770.361,41.504,28.809,54.199,65.918,187.500,0
1512856770.365,34.180,25.391,32.715,60.547,189.941,0
1512856770.369,20.508,30.762,35.645,51.758,203.125,0
1512856770.373,22.949,37.109,41.992,64.941,182.617,0
1512856770.377,14.160,30.762,4.395,63.965,159.668,0
1512856770.381,21.973,28.320,-5.859,56.152,181.152,0
1512856770.385,24.902,20.020,30.762,55.664,164.062,0
1512856770.389,13.184,22.949,36.133,53.711,129.395,0
1512856770.393,21.484,26.855,51.270,61.523,146.484,0
1512856770.397,10.742,15.625,44.434,66.406,154.297,0
1512856770.401,4.395,20.508,57.129,53.223,162.109,0
1512856770.404,25.391,40.527,41.992,59.082,155.273,0
1512856770.408,34.180,53.711,-1.465,64.941,128.418,0
1512856770.412,20.020,31.250,0.488,57.129,159.180,0
1512856770.416,-2.441,4.883,32.227,49.805,164.062,0
1512856770.420,19.531,18.066,61.523,48.828,143.555,0
1512856770.424,24.902,20.996,48.340,44.922,160.645,0
1512856770.428,3.418,19.531,69.824,46.875,195.312,0
1512856770.432,20.508,51.758,74.219,78.125,171.387,0
1512856770.436,27.344,53.223,21.484,87.402,155.762,0
1512856770.440,6.836,23.926,-25.391,56.641,185.059,0
1512856770.444,9.766,26.855,4.883,48.828,172.852,0
1512856770.447,42.480,34.180,67.383,68.359,143.555,0
1512856770.451,33.691,25.391,67.383,73.242,132.324,0
1512856770.455,7.324,12.207,20.508,58.105,148.438,0
1512856770.459,8.789,17.578,14.648,44.922,160.645,0
1512856770.463,19.531,18.066,19.531,48.340,150.879,0
1512856770.467,21.973,13.672,23.438,57.617,158.203,0
1512856770.471,36.621,24.902,55.176,55.176,193.848,0
1512856770.475,24.414,34.180,48.828,52.246,187.012,0
1512856770.479,10.742,42.969,57.617,82.520,171.875,0
1512856770.483,11.719,33.203,58.105,90.820,170.410,0
1512856770.486,-0.488,6.348,32.715,64.941,185.547,0
1512856770.490,13.184,1.465,13.184,50.293,187.500,0
1512856770.494,16.602,27.832,-11.719,52.734,170.410,0
1512856770.498,21.484,42.969,7.812,54.688,183.105,0
1512856770.502,49.805,52.734,47.363,61.523,202.637,0
1512856770.506,32.715,39.551,54.688,53.711,207.031,0
1512856770.510,-5.371,22.949,46.875,48.340,146.973,0
1512856770.514,-13.184,18.066,28.809,54.688,168.457,0
1512856770.518,12.207,22.949,27.344,61.035,211.914,0
1512856770.522,35.645,43.945,30.273,71.777,194.336,0
1512856770.526,30.273,32.227,40.039,48.828,174.316,0
1512856770.529,4.395,11.719,43.457,36.621,168.457,0
1512856770.533,4.883,21.973,63.965,58.594,186.035,0
1512856770.537,34.180,22.461,55.176,58.594,185.059,0
1512856770.541,32.715,15.137,13.672,42.480,144.531,0
1512856770.545,8.789,25.391,-15.137,56.152,147.949,0
1512856770.549,-10.254,26.855,-14.160,62.500,172.363,0
1512856770.553,-1.465,21.484,20.996,48.828,138.184,0
1512856770.557,11.719,28.320,37.598,38.086,122.070,0
1512856770.561,20.020,43.457,64.453,34.180,166.504,0
1512856770.565,38.574,43.457,74.707,41.992,182.617,0
1512856770.569,34.180,18.555,56.641,49.316,155.273,0
1512856770.572,30.762,13.672,48.828,52.246,146.973,0
1512856770.576,30.273,25.879,54.199,46.875,165.039,0
1512856770.580,-0.488,28.809,13.184,50.781,161.621,0
1512856770.584,-0.977,41.992,-28.809,50.293,142.090,0
1512856770.588,15.137,54.688,5.371,43.945,130.371,0
1512856770.592,14.648,34.668,64.941,44.434,148.438,0
1512856770.596,23.438,9.277,53.223,41.504,129.395,0
1512856770.600,29.297,5.371,33.691,57.617,88.867,0
1512856770.604,26.855,4.883,50.781,62.500,107.422,0
1512856770.608,31.250,24.902,45.898,58.105,144.531,0
1512856770.611,14.648,49.316,3.906,55.664,127.441,0
1512856770.615,2.930,35.645,-5.371,44.922,114.258,0
1512856770.619,24.414,31.738,37.598,49.316,120.117,0
1512856770.623,31.738,26.367,71.289,56.641,117.676,0
1512856770.627,17.090,26.367,10.254,64.941,134.766,0
1512856770.631,12.207,34.180,-27.344,56.152,128.906,0
1512856770.635,19.043,39.062,45.410,46.387,123.047,0
1512856770.639,25.391,29.785,43.945,54.199,103.027,0
1512856770.643,17.578,16.113,8.301,51.270,91.797,0
1512856770.647,17.090,16.602,10.254,38.086,76.172,0
1512856770.651,20.020,26.367,43.945,51.270,103.027,0
1512856770.654,19.531,43.945,73.242,68.359,129.395,0
1512856770.658,24.902,35.156,44.922,66.406,105.469,0
1512856770.662,20.508,24.414,20.996,43.945,110.352,0
1512856770.666,12.207,39.062,43.945,36.133,127.441,0
1512856770.670,10.742,34.668,39.062,46.875,143.066,0
1512856770.674,26.855,32.227,-16.113,44.434,142.090,0
1512856770.678,17.578,22.949,-11.719,40.527,132.324,0
1512856770.682,15.137,19.531,41.016,55.664,115.234,0
1512856770.686,10.254,26.367,45.410,68.848,102.051,0
1512856770.690,12.207,19.531,33.691,64.453,73.730,0
1512856770.694,32.227,29.297,46.387,57.617,101.562,0
1512856770.697,32.715,30.273,61.523,66.895,146.484,0
1512856770.701,29.297,21.973,43.457,60.059,126.465,0
1512856770.705,28.320,39.551,0.488,41.504,127.930,0
1512856770.709,14.648,33.203,6.348,36.133,133.789,0
1512856770.713,4.395,24.414,23.926,36.133,116.699,0
1512856770.717,11.719,24.414,33.691,41.992,104.004,0
1512856770.721,-4.883,20.020,55.664,36.621,105.469,0
1512856770.725,-2.930,29.297,32.715,40.039,116.699,0
1512856770.729,8.789,38.574,-9.766,38.086,128.418,0
1512856770.733,15.625,33.203,0.977,51.270,99.609,0
1512856770.736,34.668,17.578,37.598,62.012,96.680,0
1512856770.740,26.367,28.320,63.477,54.199,156.738,0
1512856770.744,13.672,40.527,58.594,51.758,129.395,0
1512856770.748,8.301,20.996,39.551,46.875,105.469,0
1512856770.752,14.648,22.949,41.504,52.246,133.301,0
1512856770.756,40.039,56.152,35.645,62.012,158.203,0
1512856770.760,38.574,44.922,37.109,65.430,166.992,0
1512856770.764,22.461,19.043,-10.254,45.410,128.418,0
1512856770.768,12.207,8.301,-43.945,31.250,143.555,0
1512856770.772,16.113,8.301,14.648,27.832,146.973,0
1512856770.776,31.738,25.879,34.668,29.297,130.371,0
1512856770.779,24.414,35.156,29.297,32.715,99.609,0
1512856770.783,8.789,37.598,69.336,49.316,109.375,0
1512856770.787,12.207,32.715,83.496,58.105,142.578,0
1512856770.791,20.508,26.855,39.551,62.500,100.586,0
1512856770.795,14.648,35.156,36.133,70.312,94.238,0
1512856770.799,6.348,36.621,20.508,59.082,130.371,0
1512856770.803,6.836,22.461,14.648,54.688,127.441,0
1512856770.807,-5.371,-0.977,15.625,26.367,91.309,0
1512856770.811,1.953,16.602,33.691,34.668,108.398,0
1512856770.815,21.973,38.574,64.453,61.523,138.672,0
1512856770.819,35.156,21.973,31.738,52.734,129.395,0
1512856770.822,23.926,20.508,22.949,47.852,88.379,0
1512856770.826,3.906,28.320,44.922,41.016,62.988,0
1512856770.830,0.977,50.293,35.156,47.363,82.520,0
1512856770.834,10.742,53.711,-10.742,66.406,121.582,0
1512856770.838,32.715,21.973,-8.789,67.383,113.281,0
1512856770.842,27.344,16.602,33.203,58.105,63.965,0
1512856770.846,5.859,21.484,46.875,44.434,59.082,0
1512856770.850,14.648,23.438,30.273,48.340,82.520,0
1512856770.854,24.414,26.367,18.555,56.152,86.426,0
1512856770.858,14.648,25.391,14.648,55.176,88.867,0
1512856770.861,4.395,20.996,36.133,42.969,105.469,0
1512856770.865,2.930,24.902,62.988,48.828,94.238,0
1512856770.869,5.859,28.809,11.719,49.316,83.984,0
1512856770.873,6.348,22.461,12.695,48.828,82.520,0
1512856770.877,3.418,30.273,54.199,60.547,80.566,0
1512856770.881,10.742,39.551,63.965,70.312,89.844,0
1512856770.885,11.719,27.344,54.688,70.312,57.617,0
1512856770.889,15.137,26.855,42.969,59.570,56.641,0
1512856770.893,30.273,30.762,36.133,51.758,119.141,0
1512856770.897,38.574,17.578,-9.277,47.852,71.289,0
1512856770.901,28.809,18.066,-8.301,53.223,27.344,0
1512856770.904,16.602,20.996,2.930,57.129,90.332,0
1512856770.908,20.508,23.926,32.227,56.641,105.957,0
1512856770.912,17.090,39.551,56.152,56.641,84.473,0
1512856770.916,24.902,55.176,49.316,61.523,77.637,0
1512856770.920,40.527,40.527,53.223,55.176,78.125,0
1512856770.924,25.391,18.555,48.828,48.340,111.328,0
1512856770.928,19.043,36.621,21.484,49.316,125.000,0
1512856770.932,41.016,69.336,26.367,65.918,94.238,0
1512856770.936,56.152,50.781,52.734,93.262,98.145,0
1512856770.940,40.039,29.297,44.922,71.777,61.523,0
1512856770.944,11.230,26.367,12.207,59.082,51.758,0
1512856770.947,18.066,29.785,32.227,73.730,88.379,0
1512856770.951,31.738,41.016,58.594,72.266,110.840,0
1512856770.955,46.387,44.922,44.434,81.055,87.402,0
1512856770.959,43.945,35.645,2.441,62.012,72.266,0
1512856770.963,29.297,34.668,-0.977,41.016,96.680,0
1512856770.967,18.555,24.414,29.785,42.969,84.961,0
1512856770.971,4.395,20.020,40.527,36.133,95.703,0
1512856770.975,3.418,33.691,55.176,46.875,64.941,0
1512856770.979,8.789,36.133,39.551,47.852,72.266,0
1512856770.983,27.832,38.574,15.625,41.504,124.023,0
1512856770.986,26.367,41.992,12.207,41.992,100.098,0
1512856770.990,16.602,48.828,23.926,41.992,105.469,0
1512856770.994,34.180,50.293,52.734,58.105,122.070,0
1512856770.998,44.922,33.203,62.988,66.895,105.957,0
1512856771.002,39.062,36.133,49.805,67.383,79.102,0
1512856771.006,23.926,38.574,50.781,62.500,76.172,0
1512856771.010,-2.441,26.855,59.082,47.852,130.371,0
1512856771.014,2.441,31.250,32.715,57.617,145.508,0
1512856771.018,13.184,32.715,22.461,71.777,89.844,0
1512856771.022,21.484,17.578,8.789,62.500,68.848,0
1512856771.026,25.879,30.762,-32.715,49.316,109.375,0
1512856771.029,17.090,48.828,19.043,46.875,118.164,0
1512856771.033,26.367,49.805,62.500,45.898,124.023,0
1512856771.037,40.527,51.270,65.918,60.547,126.465,0
1512856771.041,17.578,20.996,74.707,59.082,116.211,0
1512856771.045,13.672,17.090,67.383,43.945,113.281,0
1512856771.049,34.668,39.551,42.480,47.363,126.953,0
1512856771.053,40.039,42.969,6.348,63.477,113.281,0
1512856771.057,32.227,41.504,2.930,63.965,82.031,0
1512856771.061,17.090,41.016,32.227,57.129,82.031,0
1512856771.065,13.672,42.480,45.898,54.688,100.586,0
1512856771.069,20.508,33.691,60.059,52.734,115.234,0
1512856771.072,31.250,36.133,62.500,61.035,124.023,0
1512856771.076,27.344,34.668,40.527,65.918,109.375,0
1512856771.080,8.789,31.738,29.297,60.547,78.613,0
1512856771.084,0.488,34.668,13.672,61.035,114.746,0
1512856771.088,12.695,22.949,16.602,63.477,143.555,0
1512856771.092,29.785,34.180,47.363,56.152,124.023,0
1512856771.096,35.645,40.039,59.082,48.340,112.305,0
1512856771.100,25.879,42.969,49.805,53.223,110.352,0
1512856771.104,16.602,42.969,34.668,52.734,134.277,0
1512856771.108,21.484,19.531,48.828,52.246,148.438,0
1512856771.111,33.691,29.297,67.871,51.270,150.391,0
1512856771.115,40.039,56.641,39.551,74.219,164.062,0
1512856771.119,17.090,35.156,6.836,77.637,182.617,0
1512856771.123,11.230,24.414,29.785,61.523,163.086,0
1512856771.127,24.414,32.227,58.594,78.125,160.645,0
1512856771.131,25.391,27.832,59.082,71.777,181.641,0
1512856771.135,23.438,43.945,25.879,63.477,130.859,0
1512856771.139,16.113,47.852,23.438,54.688,136.719,0
1512856771.143,14.160,21.973,59.082,48.828,181.152,0
1512856771.147,28.809,28.809,60.059,68.848,172.363,0
1512856771.151,41.504,51.270,29.297,70.312,181.152,0
1512856771.154,34.668,47.363,5.371,76.172,158.203,0
1512856771.158,18.066,30.273,31.738,78.125,134.766,0
1512856771.162,-2.441,20.020,45.898,62.988,176.758,0
1512856771.166,12.207,20.508,61.035,56.641,172.852,0
1512856771.170,37.109,39.551,66.406,58.105,133.301,0
1512856771.174,34.180,44.434,63.965,70.312,161.621,0
1512856771.178,34.180,35.645,59.082,73.730,200.684,0
1512856771.182,27.832,22.461,22.461,56.641,143.555,0
1512856771.186,2.930,28.809,-7.812,52.246,111.816,0
1512856771.190,10.742,44.434,35.645,55.176,159.668,0
1512856771.194,36.621,29.785,60.059,53.711,183.105,0
1512856771.197,20.508,25.879,37.109,53.711,168.457,0
1512856771.201,-0.488,25.391,50.293,47.852,149.414,0
1512856771.205,1.953,26.367,56.641,58.105,166.504,0
1512856771.209,14.648,42.969,56.152,75.195,161.133,0
1512856771.213,33.203,56.641,30.273,79.102,126.953,0
1512856771.217,24.902,41.504,7.324,55.664,125.977,0
1512856771.221,16.113,19.043,18.066,30.762,147.461,0
1512856771.225,41.016,26.855,25.879,43.457,140.625,0
1512856771.229,34.180,42.969,40.039,58.105,138.184,0
1512856771.233,18.555,35.645,47.363,57.129,129.395,0
1512856771.236,23.438,22.949,33.203,53.711,145.996,0
1512856771.240,26.367,34.180,56.152,59.082,141.602,0
1512856771.244,19.531,42.969,21.484,64.941,88.379,0
1512856771.248,18.555,44.922,-3.906,61.035,78.613,0
1512856771.252,25.391,45.410,52.734,61.035,95.215,0
1512856771.256,20.020,34.180,33.691,43.945,104.980,0
1512856771.260,26.367,20.996,33.203,41.504,83.984,0
1512856771.264,22.949,24.902,63.965,52.246,76.172,0
1512856771.268,7.324,34.668,31.738,45.898,111.816,0
1512856771.272,19.531,31.250,54.199,52.734,91.309,0
1512856771.276,20.020,27.344,67.871,50.293,65.918,0
1512856771.279,9.766,31.250,1.465,40.039,91.797,0
1512856771.283,26.855,49.316,6.348,47.363,90.820,0
1512856771.287,50.293,61.035,68.848,70.801,72.754,0
1512856771.291,45.898,50.781,42.969,74.219,80.078,0
1512856771.295,21.484,30.273,17.090,49.316,87.402,0
1512856771.299,-2.930,9.277,31.738,38.574,75.195,0
1512856771.303,9.277,23.438,33.203,56.152,54.688,0
1512856771.307,19.043,36.133,22.461,69.336,42.969,0
1512856771.311,4.883,30.273,-2.441,65.430,50.293,0
1512856771.315,11.719,27.832,38.086,56.152,60.059,0
1512856771.319,23.926,24.902,90.820,56.152,48.828,0
1512856771.322,27.344,39.062,70.801,58.105,44.434,0
1512856771.326,40.039,53.711,21.484,50.781,81.543,0
1512856771.330,38.574,44.434,46.387,59.570,62.500,0
1512856771.334,30.273,48.340,47.852,71.289,48.828,0
1512856771.338,31.738,54.199,15.137,59.082,38.086,0
1512856771.342,21.973,37.598,33.691,56.641,43.457,0
1512856771.346,26.855,17.090,31.738,51.758,63.965,0
1512856771.350,34.668,21.973,11.719,47.852,11.230,0
1512856771.354,18.066,21.484,27.832,42.969,27.344,0
1512856771.358,26.855,21.973,26.367,43.457,72.266,0
1512856771.361,20.020,33.691,39.551,40.039,41.016,0
1512856771.365,4.395,24.414,61.035,39.062,11.230,0
1512856771.369,11.230,28.320,37.109,56.152,24.414,0
1512856771.373,10.742,44.922,-2.441,50.781,25.879,0
1512856771.377,15.137,31.250,-1.953,53.711,40.527,0
1512856771.381,38.574,33.203,57.129,72.754,43.457,0
1512856771.385,38.086,37.109,94.727,62.500,27.832,0
1512856771.389,18.066,32.715,77.637,49.805,30.273,0
1512856771.393,23.438,35.156,57.617,51.270,-8.789,0
1512856771.397,27.832,31.738,27.344,57.617,-37.109,0
1512856771.401,18.066,21.973,2.441,50.293,24.902,0
1512856771.404,5.859,15.137,-6.836,43.945,31.250,0
1512856771.408,12.695,20.508,-10.254,48.828,-20.996,0
1512856771.412,6.348,17.578,36.621,45.410,-44.434,0
1512856771.416,4.395,24.902,66.895,45.898,-27.832,0
1512856771.420,19.043,37.109,54.199,59.082,12.695,0
1512856771.424,31.250,46.875,55.664,61.035,-11.230,0
1512856771.428,33.691,38.574,62.988,46.875,-54.199,0
1512856771.432,16.113,20.996,32.715,42.480,-31.250,0
1512856771.436,-2.930,23.926,23.438,36.621,-24.902,0
1512856771.440,5.371,27.344,20.996,42.480,-59.082,0
1512856771.444,23.438,29.785,23.926,56.641,-46.387,0
1512856771.447,25.391,41.504,43.945,59.570,0.488,0
1512856771.451,38.574,50.293,53.223,57.129,-21.484,0
1512856771.455,38.086,33.203,56.641,48.828,-44.434,0
1512856771.459,14.648,36.621,51.758,60.547,-19.531,0
1512856771.463,22.949,60.547,42.969,75.195,-20.020,0
1512856771.467,34.180,51.758,9.766,73.730,-24.902,0
1512856771.471,36.621,29.297,26.855,68.359,-6.836,0
1512856771.475,28.320,19.043,59.082,53.711,-9.766,0
1512856771.479,25.391,23.926,7.324,46.387,-22.461,0
1512856771.483,20.020,29.785,6.348,60.547,-36.133,0
1512856771.486,19.043,39.062,47.852,59.082,-29.297,0
1512856771.490,39.062,50.293,41.016,57.129,-3.906,0
1512856771.494,35.156,36.621,41.992,53.223,18.066,0
1512856771.498,25.879,27.344,6.348,54.688,8.301,0
1512856771.502,13.184,42.480,-2.441,63.477,5.859,0
1512856771.506,20.020,40.039,58.105,50.293,19.531,0
1512856771.510,33.203,46.387,96.191,45.898,14.648,0
1512856771.514,53.223,71.289,73.242,53.223,20.020,0
1512856771.518,48.828,51.270,48.828,49.316,13.184,0
1512856771.522,15.625,27.344,19.043,53.223,5.859,0
1512856771.526,17.578,22.461,-13.672,59.082,-17.090,0
1512856771.529,21.484,16.602,33.203,44.434,-47.363,0
1512856771.533,8.301,23.438,38.574,53.711,-30.762,0
1512856771.537,9.766,40.039,14.160,68.848,8.301,0
1512856771.541,6.348,40.039,52.734,64.453,-21.973,0
1512856771.545,15.625,29.785,79.102,74.219,-50.781,0
1512856771.549,7.324,22.949,60.059,66.895,-19.531,0
1512856771.553,6.348,31.250,40.527,61.523,-7.812,0
1512856771.557,26.367,54.688,46.387,73.242,-24.414,0
1512856771.561,40.527,59.570,28.320,69.336,-12.207,0
1512856771.565,54.199,35.156,28.809,69.336,10.254,0
1512856771.569,43.945,33.203,43.457,71.289,-7.324,0
1512856771.572,41.504,39.551,15.625,54.199,-57.617,0
1512856771.576,40.039,25.391,-9.277,46.387,-59.570,0
1512856771.580,25.879,27.832,44.434,60.547,-28.320,0
1512856771.584,22.949,30.273,65.918,74.219,-23.926,0
1512856771.588,32.715,28.809,32.715,68.848,-30.762,0
1512856771.592,26.367,32.227,22.949,64.453,-47.852,0
1512856771.596,13.184,39.062,58.594,78.613,-13.672,0
1512856771.600,14.648,43.945,77.637,80.078,-13.672,0
1512856771.604,25.391,49.805,59.082,83.496,-41.016,0
1512856771.608,32.227,51.270,37.109,74.707,-23.926,0
1512856771.611,25.879,38.574,21.973,60.059,-9.277,0
1512856771.615,40.039,29.297,8.789,71.289,-23.438,0
1512856771.619,42.969,33.691,-29.785,74.707,-47.363,0
1512856771.623,22.461,29.297,-37.109,64.453,-41.016,0
1512856771.627,23.926,37.109,49.805,70.801,-32.227,0
1512856771.631,19.043,47.363,101.074,66.895,-49.805,0
1512856771.635,27.344,36.621,58.594,51.758,-80.078,0
1512856771.639,50.293,40.039,52.734,52.734,-72.754,0
1512856771.643,36.133,49.805,23.438,62.500,-49.805,0
1512856771.647,18.555,39.551,-28.320,73.730,-79.590,0
1512856771.651,33.203,45.410,20.020,57.129,-82.031,0
1512856771.654,40.527,53.711,77.637,61.035,-86.914,0
1512856771.658,35.156,39.062,78.125,87.891,-103.516,0
1512856771.662,15.625,18.066,36.621,54.688,-67.871,0
1512856771.666,7.324,9.277,4.395,32.227,-73.730,0
1512856771.670,16.113,15.137,2.930,66.406,-92.285,0
1512856771.674,7.324,34.180,44.922,87.891,-59.570,0
1512856771.678,2.930,35.156,30.273,68.359,-57.617,0
1512856771.682,36.133,33.203,0.000,68.359,-60.547,0
1512856771.686,37.109,27.344,54.688,54.688,-47.363,0
1512856771.690,18.066,28.320,68.359,50.293,-50.293,0
1512856771.694,40.527,40.039,41.016,66.895,-43.457,0
1512856771.697,41.504,40.527,63.477,51.270,-12.695,0
1512856771.701,13.184,46.875,52.246,50.781,-17.578,0
1512856771.705,20.508,40.527,18.555,63.477,-45.898,0
1512856771.709,33.691,42.969,4.883,68.848,-43.457,0
1512856771.713,19.531,35.645,0.977,62.012,-43.457,0
1512856771.717,19.531,22.461,28.809,54.199,-45.898,0
1512856771.721,28.320,40.527,49.805,67.871,-52.734,0
1512856771.725,25.879,43.457,42.969,75.684,-69.824,0
1512856771.729,19.043,39.551,33.691,62.500,-74.219,0
1512856771.733,23.438,36.621,33.203,52.246,-54.688,0
1512856771.736,32.715,31.738,15.625,54.199,-34.180,0
1512856771.740,36.621,31.738,-10.254,53.711,-27.832,0
1512856771.744,23.926,23.438,48.828,49.316,-13.672,0
1512856771.748,24.902,32.227,92.773,62.012,-23.926,0
