timestamps,TP9,AF7,AF8,TP10,Right AUX,Marker0
1483444854.505,-25.391,36.133,42.480,39.062,249.512,0
1483444854.509,-24.414,36.621,-11.230,44.434,225.098,0
1483444854.513,-36.621,24.414,-2.930,30.762,233.887,0
1483444854.517,-42.480,21.973,35.156,25.391,219.238,0
1483444854.521,-33.203,31.250,42.969,23.438,188.965,0
1483444854.525,-21.973,33.691,5.859,33.691,208.984,0
1483444854.529,-23.438,36.621,26.367,55.664,236.328,0
1483444854.533,-32.715,33.691,93.262,50.293,227.539,0
1483444854.536,-31.738,30.762,72.754,37.109,162.109,0
1483444854.540,-31.250,30.273,-2.930,36.621,186.523,0
1483444854.544,-34.180,24.414,0.000,26.367,245.605,0
1483444854.548,-30.762,26.367,23.926,24.414,221.680,0
1483444854.552,-24.902,35.645,-26.367,43.945,208.984,0
1483444854.556,-38.086,28.809,-6.348,33.203,224.121,0
1483444854.560,-45.898,20.508,25.391,21.484,232.422,0
1483444854.564,-30.762,29.785,2.930,34.180,242.676,0
1483444854.568,-30.762,25.879,65.918,20.508,242.676,0
1483444854.572,-40.039,23.438,91.797,7.812,229.004,0
1483444854.576,-24.902,41.504,44.922,36.133,221.191,0
1483444854.579,-24.414,43.457,44.434,50.781,216.309,0
1483444854.583,-32.715,34.180,29.785,48.340,228.027,0
1483444854.587,-33.203,34.180,-34.180,44.922,264.160,0
1483444854.591,-28.809,40.039,-58.594,43.457,280.273,0
1483444854.595,-20.996,42.480,10.742,47.852,248.535,0
1483444854.599,-37.598,27.344,112.305,34.668,241.699,0
1483444854.603,-52.246,15.625,97.168,13.672,220.215,0
1483444854.607,-42.480,18.066,65.430,21.484,184.082,0
1483444854.611,-33.691,30.273,34.668,43.457,187.988,0
1483444854.615,-30.762,38.086,-29.297,47.363,190.918,0
1483444854.619,-30.273,34.668,-49.805,48.340,180.664,0
1483444854.622,-41.504,24.414,35.645,28.320,155.273,0
1483444854.626,-45.898,21.484,62.500,17.578,128.906,0
1483444854.630,-37.598,20.508,-42.969,22.461,148.926,0
1483444854.634,-25.391,20.508,-41.992,41.504,187.012,0
1483444854.638,-27.344,27.344,51.270,50.781,156.250,0
1483444854.642,-36.133,21.484,85.938,33.691,99.609,0
1483444854.646,-50.293,9.766,61.523,17.090,125.000,0
1483444854.650,-43.945,20.020,74.707,12.695,153.320,0
1483444854.654,-20.996,37.598,9.277,42.480,143.555,0
1483444854.658,-20.508,41.504,-72.754,60.547,164.062,0
1483444854.661,-35.156,32.227,36.133,36.621,153.320,0
1483444854.665,-40.039,22.461,60.547,21.484,159.668,0
1483444854.669,-34.180,29.297,76.172,30.273,145.020,0
1483444854.673,-28.320,26.855,91.797,22.461,87.402,0
1483444854.677,-29.785,19.531,21.973,17.578,94.727,0
1483444854.681,-32.715,26.367,27.344,29.785,118.652,0
1483444854.685,-38.086,30.273,17.090,24.414,130.859,0
1483444854.689,-37.598,29.785,-2.441,24.414,127.441,1
1483444854.693,-37.598,20.508,23.438,31.250,105.957,0
1483444854.697,-29.785,19.531,16.113,40.039,94.727,0
1483444854.701,-21.973,35.156,20.508,55.664,87.891,0
1483444854.704,-20.020,45.898,37.109,46.875,102.051,0
1483444854.708,-16.602,41.504,41.504,39.551,114.746,0
1483444854.712,-25.391,32.715,67.383,37.109,84.473,0
1483444854.716,-29.785,32.715,60.059,34.180,50.781,0
1483444854.720,-31.738,34.180,17.578,30.762,86.426,0
1483444854.724,-40.039,34.668,28.809,22.461,110.840,0
1483444854.728,-32.227,40.039,31.738,33.691,89.355,0
1483444854.732,-37.598,34.180,38.574,27.832,89.844,0
1483444854.736,-46.875,27.344,28.809,18.066,85.938,0
1483444854.740,-41.992,32.715,31.738,14.648,75.195,0
1483444854.744,-32.227,40.039,13.184,33.691,84.473,0
1483444854.747,-41.992,33.203,-5.371,37.598,113.770,0
1483444854.751,-51.758,29.297,29.297,29.297,115.234,0
1483444854.755,-30.762,40.527,0.977,42.969,70.801,0
1483444854.759,-18.066,38.574,-26.855,47.852,33.203,0
1483444854.763,-25.391,28.809,-21.484,46.387,30.273,0
1483444854.767,-42.480,31.250,78.125,22.949,55.664,0
1483444854.771,-53.711,28.809,116.699,7.812,59.570,0
1483444854.775,-45.410,27.832,79.590,12.695,19.531,0
1483444854.779,-45.898,27.832,49.316,6.836,45.410,0
1483444854.783,-57.617,23.438,27.344,10.742,64.453,0
1483444854.786,-45.898,31.250,-3.906,28.320,24.414,0
1483444854.790,-31.738,40.527,-24.414,35.156,17.578,0
1483444854.794,-27.832,37.109,9.277,37.109,10.742,0
1483444854.798,-29.297,30.273,-47.363,39.062,35.156,0
1483444854.802,-27.832,31.738,-36.621,40.527,43.457,0
1483444854.806,-30.762,31.250,45.898,36.133,-12.695,0
1483444854.810,-51.270,11.719,70.801,15.625,-29.785,0
1483444854.814,-67.871,1.465,98.145,-1.465,-0.977,0
1483444854.818,-41.992,9.766,5.859,17.090,-5.371,0
1483444854.822,-10.254,27.344,-94.238,44.434,-45.410,0
1483444854.826,-17.578,50.781,-18.066,45.898,-42.969,0
1483444854.829,-37.109,41.992,72.266,36.133,3.906,0
1483444854.833,-50.781,8.301,104.492,22.949,2.930,0
1483444854.837,-43.457,8.301,104.492,23.438,-9.277,0
1483444854.841,-34.668,29.297,55.664,34.180,13.672,0
1483444854.845,-41.992,24.902,36.133,33.691,25.391,0
1483444854.849,-40.039,26.367,-38.574,40.039,25.879,0
1483444854.853,-29.297,42.969,-94.727,52.734,24.902,0
1483444854.857,-38.086,28.320,-0.488,32.227,30.762,0
1483444854.861,-47.852,12.695,91.309,16.602,15.137,0
1483444854.865,-44.922,23.438,27.832,25.391,20.508,0
1483444854.869,-43.945,25.391,31.738,24.414,32.715,0
1483444854.872,-47.363,20.996,81.543,21.973,52.734,0
1483444854.876,-36.133,23.438,-109.863,34.180,69.336,0
1483444854.880,-46.875,11.719,-69.336,22.949,65.918,0
1483444854.884,-62.988,8.789,139.160,2.930,63.477,0
1483444854.888,-48.340,14.160,112.305,13.184,75.195,0
1483444854.892,-48.340,13.672,26.855,26.367,65.918,0
1483444854.896,-36.621,34.180,-99.121,38.086,64.453,0
1483444854.900,-36.133,35.645,-29.297,26.855,75.684,0
1483444854.904,-70.312,5.371,118.164,-6.836,76.660,0
1483444854.908,-49.316,12.695,22.949,13.672,86.914,0
1483444854.911,-33.691,22.949,19.531,39.551,77.637,0
1483444854.915,-67.383,4.395,109.863,6.348,104.980,0
1483444854.919,-72.266,7.812,62.012,-9.766,125.000,0
1483444854.923,-51.758,20.996,26.367,16.113,90.820,0
1483444854.927,-35.645,28.320,-9.766,40.039,102.539,0
1483444854.931,-25.879,37.109,-96.680,47.852,120.117,0
1483444854.935,-40.527,23.438,-64.453,33.691,113.770,0
1483444854.939,-59.082,0.488,66.406,13.184,102.539,0
1483444854.943,-53.711,3.906,121.582,6.836,71.777,0
1483444854.947,-51.758,19.531,118.652,11.719,89.844,0
1483444854.951,-47.363,22.949,70.312,17.578,102.539,0
1483444854.954,-15.625,44.434,23.926,46.875,64.453,0
1483444854.958,-6.836,54.199,-41.016,56.641,53.223,0
1483444854.962,-38.086,25.879,-28.809,30.762,104.980,0
1483444854.966,-46.875,7.324,112.305,18.555,107.422,0
1483444854.970,-43.457,10.254,55.176,13.672,71.289,0
1483444854.974,-39.062,23.438,-81.055,25.879,85.449,0
1483444854.978,-38.086,23.438,22.949,29.785,90.332,0
1483444854.982,-33.691,22.461,132.324,25.879,87.402,0
1483444854.986,-26.855,27.344,83.008,30.762,103.516,0
1483444854.990,-18.555,36.621,-28.809,46.387,83.008,0
1483444854.994,-10.742,40.527,-43.945,48.828,45.410,0
1483444854.997,-14.648,30.762,68.848,44.922,49.805,0
1483444855.001,-26.855,19.043,95.215,31.738,65.918,0
1483444855.005,-32.227,19.043,-9.766,27.832,44.922,0
1483444855.009,-27.832,19.531,-92.285,38.574,35.645,0
1483444855.013,-18.066,30.762,-44.434,53.711,43.945,0
1483444855.017,-15.137,36.133,93.262,58.105,15.137,0
1483444855.021,-40.527,9.766,134.766,16.602,-16.602,0
1483444855.025,-49.316,1.953,99.121,6.836,15.137,0
1483444855.029,-20.996,25.391,19.531,48.340,21.973,0
1483444855.033,-12.695,35.156,-73.242,53.223,0.977,0
1483444855.036,-41.504,4.395,64.941,14.648,14.648,0
1483444855.040,-29.785,14.160,62.500,32.227,30.273,0
1483444855.044,-6.348,37.109,25.391,50.781,5.371,0
1483444855.048,-22.461,28.809,99.121,34.180,-24.414,0
1483444855.052,-26.855,24.902,18.066,25.879,-4.883,0
1483444855.056,-15.137,32.227,-49.805,33.691,17.090,0
1483444855.060,-4.395,45.410,-12.207,55.664,19.043,0
1483444855.064,-16.113,36.621,71.289,53.223,34.668,0
1483444855.068,-37.598,23.438,89.355,28.809,78.125,0
1483444855.072,-36.621,20.508,83.008,25.391,70.801,0
1483444855.076,-29.297,20.020,54.199,24.902,44.434,0
1483444855.079,-21.484,30.273,32.715,38.086,42.969,0
1483444855.083,-1.465,55.176,-107.910,69.824,49.805,0
1483444855.087,8.301,65.430,-200.195,79.590,48.828,0
1483444855.091,-26.855,32.715,102.539,36.133,31.250,0
1483444855.095,-56.152,2.441,240.723,-8.301,32.715,0
1483444855.099,-52.734,-1.465,149.414,-10.254,83.496,0
1483444855.103,-26.367,19.043,29.785,18.066,85.449,0
1483444855.107,-12.695,30.273,-60.547,36.621,68.848,0
1483444855.111,-20.020,26.367,-47.852,33.691,82.031,0
1483444855.115,-36.133,15.137,67.871,12.695,104.004,0
1483444855.119,-42.969,11.719,124.023,3.906,82.031,0
1483444855.122,-26.855,21.973,27.344,22.461,69.824,0
1483444855.126,-12.695,32.227,1.953,30.273,91.309,0
1483444855.130,-10.254,42.969,42.969,24.414,74.707,0
1483444855.134,-23.438,37.598,30.762,17.090,85.449,0
1483444855.138,-28.320,29.785,34.668,21.484,68.848,0
1483444855.142,-18.555,35.156,-0.977,27.344,77.637,0
1483444855.146,-11.230,43.457,-56.641,36.133,102.051,0
1483444855.150,-13.184,33.691,-0.488,30.273,60.059,0
1483444855.154,-12.207,31.250,79.102,23.438,50.781,0
1483444855.158,-34.668,26.855,120.117,3.418,73.730,0
1483444855.161,-55.664,7.324,130.859,-10.742,61.523,0
1483444855.165,-40.039,14.648,-0.488,9.766,36.133,0
1483444855.169,-21.973,28.320,-61.523,18.066,21.973,0
1483444855.173,-29.785,22.461,78.125,9.277,47.852,0
1483444855.177,-33.203,17.578,106.934,9.277,35.156,0
1483444855.181,-36.133,14.160,70.312,16.113,12.207,0
1483444855.185,-20.020,33.203,-45.410,38.574,4.883,0
1483444855.189,7.812,62.012,-178.223,72.266,-11.719,0
1483444855.193,-20.996,28.320,-14.160,39.062,-7.812,0
1483444855.197,-55.176,-8.789,170.898,-4.883,-32.715,0
1483444855.201,-50.293,-4.395,145.508,3.906,-17.090,0
1483444855.204,-35.156,5.371,51.758,13.184,20.996,0
1483444855.208,3.418,32.715,-81.543,42.969,-24.414,0
1483444855.212,4.883,39.551,2.930,57.617,-40.527,0
1483444855.216,-28.320,15.137,94.727,29.297,-24.414,0
1483444855.220,-25.391,16.113,41.016,30.273,-28.320,0
1483444855.224,-29.297,16.113,69.336,30.273,-70.312,0
1483444855.228,-28.809,17.090,47.363,31.738,-101.562,0
1483444855.232,-26.367,20.996,28.809,29.785,-93.262,0
1483444855.236,-15.625,32.715,-56.641,44.922,-99.121,0
1483444855.240,-14.648,38.086,-59.570,51.270,-133.789,0
1483444855.244,-45.410,12.695,58.594,9.277,-136.230,0
1483444855.247,-47.852,2.930,119.141,-9.766,-91.797,0
1483444855.251,-41.504,1.465,130.371,-5.371,-114.258,0
1483444855.255,-16.602,29.297,-16.113,30.762,-193.848,0
1483444855.259,5.371,45.898,-86.914,57.617,-205.566,0
1483444855.263,-26.855,15.625,83.496,16.602,-175.293,0
1483444855.267,-25.391,24.414,3.906,16.113,-186.523,0
1483444855.271,-6.836,32.227,-81.055,33.203,-188.477,0
1483444855.275,-26.855,16.602,107.422,7.324,-177.734,0
1483444855.279,-42.480,11.230,130.371,-3.906,-167.969,0
1483444855.283,-36.621,14.160,39.551,4.395,-154.297,0
1483444855.286,-14.160,28.809,-42.480,32.715,-176.270,0
1483444855.290,-13.184,30.762,-21.484,35.645,-197.754,0
1483444855.294,-24.902,27.344,41.504,15.625,-161.133,0
1483444855.298,-16.602,34.180,11.719,28.320,-168.457,0
1483444855.302,-24.902,23.438,56.641,17.090,-188.965,0
1483444855.306,-35.645,17.090,101.074,1.953,-190.430,0
1483444855.310,-13.672,35.156,-17.090,34.180,-211.914,0
1483444855.314,5.371,48.340,-76.172,43.945,-201.660,0
1483444855.318,-13.672,31.738,88.867,22.949,-180.176,0
1483444855.322,-26.367,19.043,133.789,20.020,-180.664,0
1483444855.326,-6.836,36.621,-10.742,47.363,-150.391,0
1483444855.329,-9.766,34.180,4.395,39.062,-166.504,0
1483444855.333,-38.086,8.301,83.008,-1.953,-177.734,0
1483444855.337,-34.668,5.859,52.246,0.000,-125.000,0
1483444855.341,-10.254,30.273,-39.551,29.785,-95.215,0
1483444855.345,-13.184,36.133,-26.855,25.879,-114.746,0
1483444855.349,-37.109,18.555,94.727,0.977,-139.648,0
1483444855.353,-37.109,21.484,68.848,2.930,-107.422,0
1483444855.357,-13.672,40.039,-8.789,33.203,-103.027,0
1483444855.361,0.000,44.434,-47.363,53.223,-103.516,0
1483444855.365,-19.043,20.020,32.227,23.438,-104.492,0
1483444855.369,-41.016,5.371,85.449,-3.418,-85.938,0
1483444855.372,-30.762,20.508,59.570,24.414,-89.355,0
1483444855.376,-7.812,34.180,53.223,55.664,-121.582,0
1483444855.380,-19.043,18.555,61.523,31.250,-106.934,0
1483444855.384,-33.203,14.648,77.148,3.906,-85.938,0
1483444855.388,-37.109,20.020,86.426,6.836,-124.023,0
1483444855.392,-3.906,44.434,-124.023,54.199,-159.668,0
1483444855.396,14.648,60.547,-138.184,71.289,-133.789,0
1483444855.400,-43.457,17.578,153.320,9.766,-124.512,0
1483444855.404,-53.711,5.859,150.879,-12.695,-170.898,0
1483444855.408,-22.461,29.785,-17.090,23.926,-209.961,0
1483444855.411,-17.090,40.039,9.766,32.715,-194.824,0
1483444855.415,-32.715,31.250,122.070,16.602,-187.012,0
1483444855.419,-10.742,49.805,-53.223,52.246,-185.059,0
1483444855.423,-13.184,48.828,-94.238,56.152,-191.406,0
1483444855.427,-56.641,13.184,67.871,6.348,-161.621,0
1483444855.431,-42.969,23.438,25.879,15.625,-140.137,0
1483444855.435,-38.086,27.344,47.363,19.043,-139.648,0
1483444855.439,-47.363,21.973,88.867,1.953,-165.039,0
1483444855.443,-48.340,26.367,57.129,4.883,-185.059,0
1483444855.447,-43.457,21.973,54.199,5.859,-165.527,0
1483444855.451,-37.598,20.508,41.504,8.789,-136.230,0
1483444855.454,-33.203,32.227,9.766,27.832,-115.723,0
1483444855.458,-11.230,52.246,-83.496,51.758,-133.789,0
1483444855.462,-40.039,26.855,36.133,23.438,-132.812,0
1483444855.466,-70.312,-0.488,148.926,-8.789,-152.832,0
1483444855.470,-61.523,5.859,70.312,-3.418,-181.641,0
1483444855.474,-51.270,13.184,23.926,4.395,-141.602,0
1483444855.478,-29.297,25.391,18.555,20.020,-154.785,0
1483444855.482,-19.043,36.621,-6.836,42.969,-190.918,0
1483444855.486,-27.344,39.062,-28.809,38.574,-143.555,0
1483444855.490,-21.973,44.922,-34.668,41.016,-106.445,0
1483444855.494,-18.555,41.016,3.418,42.480,-133.301,0
1483444855.497,-49.316,18.066,100.098,14.648,-145.508,0
1483444855.501,-52.246,17.578,108.398,11.719,-134.277,0
1483444855.505,-39.551,24.902,34.668,25.879,-88.379,0
1483444855.509,-37.109,23.926,-8.301,34.180,-93.262,0
1483444855.513,-36.133,13.184,17.090,32.227,-129.883,0
1483444855.517,-30.273,18.066,-67.383,33.691,-106.934,0
1483444855.521,-44.922,20.508,15.137,10.254,-124.512,0
1483444855.525,-71.289,-0.977,169.434,-15.137,-183.594,0
1483444855.529,-62.988,-2.930,97.168,-15.137,-194.824,0
1483444855.533,-48.340,9.766,11.230,-1.465,-168.945,0
1483444855.536,-24.902,35.645,-102.051,39.551,-171.875,0
1483444855.540,-6.348,51.758,-70.312,53.223,-194.336,0
1483444855.544,-43.457,19.043,151.855,13.184,-198.242,0
1483444855.548,-69.824,-7.324,142.090,-10.742,-179.688,0
1483444855.552,-50.293,13.184,-19.043,5.371,-167.480,0
1483444855.556,-42.969,25.879,14.160,22.461,-200.195,0
1483444855.560,-44.922,22.949,44.922,16.602,-251.953,0
1483444855.564,-43.457,20.996,9.766,5.371,-271.484,0
1483444855.568,-45.898,18.555,-12.207,7.812,-256.348,0
1483444855.572,-60.059,11.719,25.879,-2.930,-272.461,0
1483444855.576,-54.199,17.090,49.316,0.488,-250.000,0
1483444855.579,-26.367,36.621,-57.129,27.832,-208.008,0
1483444855.583,-34.180,26.367,22.949,20.508,-225.098,0
1483444855.587,-49.805,12.695,133.301,11.230,-240.723,0
1483444855.591,-40.039,23.438,-19.043,19.043,-220.215,0
1483444855.595,-45.410,12.207,-32.227,9.766,-209.961,0
1483444855.599,-48.340,7.324,39.062,10.742,-244.141,0
1483444855.603,-38.574,28.320,19.531,24.414,-270.996,0
1483444855.607,-34.180,30.273,85.938,24.414,-244.629,0
1483444855.611,-45.898,19.043,119.141,15.137,-229.004,0
1483444855.615,-55.176,16.602,63.965,21.973,-250.488,0
1483444855.619,-42.480,24.902,-7.812,28.809,-255.859,0
1483444855.622,-32.227,29.785,-70.801,28.809,-255.371,0
1483444855.626,-22.949,39.062,-83.984,32.227,-239.258,0
1483444855.630,-18.555,41.016,55.664,36.133,-270.996,0
1483444855.634,-40.527,22.461,134.277,22.461,-301.758,0
1483444855.638,-47.363,18.066,54.688,13.184,-278.809,0
1483444855.642,-51.758,16.113,82.031,4.883,-269.043,0
1483444855.646,-49.805,21.484,15.625,13.184,-253.418,0
1483444855.650,-43.457,24.902,-85.449,35.156,-252.441,0
1483444855.654,-41.992,26.367,94.238,31.738,-241.699,0
1483444855.658,-41.992,25.391,150.391,18.555,-242.676,0
1483444855.661,-44.434,25.391,49.316,23.438,-282.715,0
1483444855.665,-36.133,32.715,-31.738,38.574,-267.578,0
1483444855.669,-48.340,17.090,-40.039,22.949,-214.844,0
1483444855.673,-57.617,5.371,60.059,2.441,-229.004,0
1483444855.677,-39.062,30.762,24.902,23.438,-219.238,0
1483444855.681,-38.086,37.109,13.672,34.668,-193.359,0
1483444855.685,-42.480,26.367,-43.945,29.297,-206.055,0
1483444855.689,-26.855,32.227,-37.109,39.551,-181.641,0
1483444855.693,-46.387,13.672,173.340,19.531,-208.008,0
1483444855.697,-66.406,3.418,145.996,-1.465,-218.750,0
1483444855.701,-58.594,22.461,67.383,5.859,-162.598,0
1483444855.704,-43.945,35.645,15.625,20.508,-189.941,0
1483444855.708,-28.809,47.363,-75.684,36.621,-206.055,0
1483444855.712,-27.344,46.875,-74.219,46.875,-131.836,0
1483444855.716,-46.875,30.273,-32.715,26.367,-103.516,0
1483444855.720,-64.453,16.113,135.742,6.348,-137.207,0
1483444855.724,-48.340,25.391,114.746,17.090,-148.926,0
1483444855.728,-26.367,42.480,-111.816,35.645,-112.305,0
1483444855.732,-46.387,27.344,-17.090,20.020,-103.027,0
1483444855.736,-74.707,5.859,146.973,-17.090,-125.977,0
1483444855.740,-64.941,19.531,126.465,-7.324,-114.258,0
1483444855.744,-27.832,47.363,9.766,34.668,-111.328,0
1483444855.747,-26.367,46.875,-83.008,44.434,-113.281,0
1483444855.751,-39.551,38.086,3.418,32.227,-122.070,0
1483444855.755,-51.758,21.973,98.633,3.906,-117.676,0
1483444855.759,-37.109,31.738,-31.250,10.742,-70.801,0
1483444855.763,-31.738,43.945,-57.617,27.344,-96.191,0
1483444855.767,-63.477,17.090,123.535,0.977,-115.234,0
1483444855.771,-59.082,14.648,72.754,7.812,-68.359,0
1483444855.775,-33.203,37.598,-154.297,40.039,-34.180,0
1483444855.779,-48.340,25.879,-81.543,8.301,-43.457,0
1483444855.783,-59.570,9.277,141.602,-12.695,-45.898,0
1483444855.786,-49.316,16.113,92.285,12.207,-15.625,0
1483444855.790,-34.180,25.879,-28.320,26.855,-36.621,0
1483444855.794,-36.621,28.320,-10.742,20.996,-68.359,0
1483444855.798,-41.016,31.738,30.273,16.602,-43.945,0
1483444855.802,-36.133,28.320,-23.438,17.090,-17.578,0
1483444855.806,-57.617,10.742,78.613,0.977,-11.719,0
1483444855.810,-57.617,16.113,86.426,5.859,-4.395,0
1483444855.814,-47.363,24.902,36.133,15.137,16.113,0
1483444855.818,-55.664,19.531,53.223,11.230,29.297,0
1483444855.822,-54.199,21.484,50.293,12.695,0.488,0
1483444855.826,-31.738,34.668,-77.148,32.227,-19.531,0
1483444855.829,-17.578,45.410,-141.602,42.969,0.000,0
1483444855.833,-45.410,25.879,95.215,17.578,11.719,0
1483444855.837,-57.617,13.672,127.441,7.812,-15.137,0
1483444855.841,-39.551,29.297,-64.453,29.785,-27.344,0
1483444855.845,-38.574,33.203,-2.930,27.832,-9.766,0
1483444855.849,-55.176,21.484,150.879,4.883,0.000,0
1483444855.853,-36.621,31.250,-0.977,27.344,5.859,0
1483444855.857,-22.949,39.551,-49.316,38.086,-33.203,0
1483444855.861,-34.668,32.715,54.199,33.203,-59.082,0
1483444855.865,-41.016,25.879,56.641,33.203,-13.672,0
1483444855.869,-43.945,23.438,33.203,24.414,15.137,0
1483444855.872,-47.852,20.996,51.270,19.043,7.324,0
1483444855.876,-23.926,44.922,-57.129,46.387,-11.719,0
1483444855.880,-10.742,47.852,16.113,51.270,-57.129,0
1483444855.884,-41.016,16.113,166.016,20.508,-78.613,0
1483444855.888,-59.570,8.789,83.984,0.977,-84.961,0
1483444855.892,-50.293,23.438,45.898,11.230,-110.352,0
1483444855.896,-28.809,42.969,28.809,41.016,-72.754,0
1483444855.900,-33.203,37.109,-30.762,44.922,-69.824,0
1483444855.904,-57.129,19.531,37.598,14.648,-103.516,0
1483444855.908,-59.570,15.137,54.688,4.395,-86.914,0
1483444855.911,-32.227,32.227,-1.953,48.828,-108.398,0
1483444855.915,-28.320,41.016,44.922,56.641,-116.211,0
1483444855.919,-36.621,32.715,11.230,42.969,-78.613,0
1483444855.923,-49.316,19.043,0.977,36.621,-66.406,0
1483444855.927,-62.012,5.371,38.086,21.484,-97.656,0
1483444855.931,-45.410,20.508,50.293,29.297,-127.441,0
1483444855.935,-43.945,29.297,125.488,20.020,-130.859,0
1483444855.939,-41.504,32.227,59.570,27.832,-131.836,0
1483444855.943,-12.695,54.199,-71.777,70.801,-138.184,2
1483444855.947,-27.344,41.992,-38.086,56.641,-179.199,0
1483444855.951,-67.871,14.648,91.309,2.930,-160.645,0
1483444855.954,-65.918,8.301,113.281,-4.883,-136.719,0
1483444855.958,-55.664,14.160,68.359,13.184,-125.977,0
1483444855.962,-41.504,30.762,34.668,39.062,-125.000,0
1483444855.966,-33.203,31.738,6.836,41.992,-145.508,0
1483444855.970,-44.434,20.996,-3.418,30.273,-132.812,0
1483444855.974,-60.059,8.789,41.992,12.695,-121.582,0
1483444855.978,-51.758,15.137,52.246,17.090,-154.297,0
1483444855.982,-50.293,17.090,26.855,26.855,-129.395,0
1483444855.986,-67.871,4.395,98.633,9.766,-101.074,0
1483444855.990,-31.250,38.086,-22.949,48.340,-129.395,0
1483444855.994,0.488,70.801,-125.977,79.590,-123.047,0
1483444855.997,-39.551,25.391,24.902,34.180,-138.672,0
1483444856.001,-63.477,0.488,135.254,2.930,-143.066,0
1483444856.005,-61.035,14.160,143.066,7.812,-64.453,0
1483444856.009,-61.035,16.113,115.723,6.836,-38.574,0
1483444856.013,-54.199,16.113,43.945,17.090,-82.520,0
1483444856.017,-18.555,41.504,-189.453,61.035,-68.359,0
1483444856.021,-20.020,41.016,-71.777,52.246,-43.457,0
1483444856.025,-40.039,24.902,129.395,31.738,-55.664,0
1483444856.029,-49.805,22.461,63.965,31.738,-71.777,0
1483444856.033,-59.082,18.555,137.695,29.785,-49.316,0
1483444856.036,-43.945,28.809,61.523,30.273,5.859,0
1483444856.040,-43.945,26.367,-39.551,17.090,-43.457,0
1483444856.044,-50.781,21.973,24.902,22.461,-106.445,0
1483444856.048,-46.387,19.531,117.676,28.809,-100.098,0
1483444856.052,-39.062,23.926,55.664,19.531,-57.617,0
1483444856.056,-41.504,24.414,-11.230,10.254,-42.480,0
1483444856.060,-45.898,14.648,48.340,17.090,-41.504,0
1483444856.064,-40.039,18.066,63.965,21.973,-30.762,0
1483444856.068,-36.621,20.508,-15.625,23.438,-58.105,0
1483444856.072,-25.391,39.062,-103.516,37.598,-103.516,0
1483444856.076,-19.043,50.781,83.008,33.203,-31.250,0
1483444856.079,-32.715,34.180,165.527,18.555,-9.766,0
1483444856.083,-37.109,30.762,-15.625,24.414,-47.363,0
1483444856.087,-35.156,35.645,-102.539,31.250,-15.137,0
1483444856.091,-42.969,28.320,72.266,9.277,-19.043,0
1483444856.095,-51.270,16.602,186.523,-11.719,-53.711,0
1483444856.099,-48.828,19.043,127.441,8.301,20.996,0
1483444856.103,-35.156,38.086,-7.324,13.672,26.367,0
1483444856.107,-29.297,41.016,8.789,3.906,-9.766,0
1483444856.111,-17.090,44.922,49.316,23.438,-1.465,0
1483444856.115,-24.902,37.109,28.809,23.438,-6.836,0
1483444856.119,-40.527,32.227,79.590,16.113,-44.434,0
1483444856.122,-13.672,57.129,-91.309,48.340,20.508,0
1483444856.126,-10.254,57.617,-56.152,49.805,6.348,0
1483444856.130,-41.504,26.855,173.340,5.371,-45.410,0
1483444856.134,-48.828,17.090,150.879,-4.395,26.367,0
1483444856.138,-32.715,35.156,10.742,20.508,10.742,0
1483444856.142,-15.625,53.711,-33.691,43.945,11.719,0
1483444856.146,-41.504,33.203,51.270,18.555,15.137,0
1483444856.150,-61.035,14.648,75.684,-4.395,38.086,0
1483444856.154,-42.969,29.785,73.730,14.648,26.855,0
1483444856.158,-28.320,43.945,32.227,21.484,-35.645,0
1483444856.161,-25.391,44.922,-17.090,20.508,-27.832,0
1483444856.165,-39.062,33.203,58.105,10.742,-4.883,0
1483444856.169,-37.598,35.645,58.594,7.812,14.648,0
1483444856.173,-23.438,54.199,-14.160,27.344,15.137,0
1483444856.177,-29.297,48.340,-26.367,31.250,7.324,0
1483444856.181,-41.504,35.156,2.930,13.672,-8.301,0
1483444856.185,-51.758,27.832,143.066,-1.465,-3.906,0
1483444856.189,-40.039,38.086,100.098,21.973,37.598,0
1483444856.193,-20.996,53.711,19.531,35.645,-42.480,0
1483444856.197,-35.645,43.457,68.359,12.695,-45.898,0
1483444856.201,-53.223,28.809,38.574,4.883,12.207,0
1483444856.204,-39.551,43.457,8.789,20.996,21.484,0
1483444856.208,-29.297,52.246,-5.859,24.414,48.340,0
1483444856.212,-38.086,41.992,53.711,18.555,48.828,0
1483444856.216,-37.109,42.480,121.582,13.184,32.715,0
1483444856.220,-18.555,54.688,7.812,31.738,43.945,0
1483444856.224,-19.531,57.129,-48.340,39.551,37.598,0
1483444856.228,-32.227,43.457,32.227,26.367,5.371,0
1483444856.232,-28.320,42.480,26.855,23.926,-26.367,0
1483444856.236,-11.230,62.012,4.395,39.062,-3.906,0
1483444856.240,-7.812,60.547,28.809,45.410,-6.348,0
1483444856.244,-36.133,36.621,102.051,17.090,-14.648,0
1483444856.247,-20.996,57.617,33.203,32.715,48.828,0
1483444856.251,-9.766,69.824,-66.895,38.086,39.551,0
1483444856.255,-34.180,46.875,88.379,3.906,17.090,0
1483444856.259,-41.016,43.457,142.090,2.930,46.387,0
1483444856.263,-28.809,45.898,18.066,28.809,80.566,0
1483444856.267,-20.508,53.223,-17.578,29.297,39.551,0
1483444856.271,-29.297,50.293,72.754,16.602,0.977,0
1483444856.275,-44.434,31.250,110.840,2.930,-14.160,0
1483444856.279,-37.598,33.691,71.289,20.020,-7.812,0
1483444856.283,-10.254,61.523,-25.879,45.410,-2.441,0
1483444856.286,-7.324,64.453,-39.062,45.410,-16.113,0
1483444856.290,-23.438,45.410,68.848,36.621,9.277,0
1483444856.294,-28.809,41.992,88.379,20.996,16.113,0
1483444856.298,-41.504,28.809,63.477,3.906,13.184,0
1483444856.302,-41.992,27.832,-3.418,11.719,37.598,0
1483444856.306,-30.273,42.480,-42.480,20.508,62.988,0
1483444856.310,-36.133,43.457,35.156,10.742,38.574,0
1483444856.314,-49.316,33.691,87.402,3.418,4.883,0
1483444856.318,-40.527,40.039,40.527,18.066,29.297,0
1483444856.322,-34.180,48.340,42.480,28.320,23.438,0
1483444856.326,-50.781,26.367,71.777,7.812,-25.391,0
1483444856.329,-35.156,33.691,32.227,14.160,13.672,0
1483444856.333,-26.367,47.852,36.621,20.996,43.945,0
1483444856.337,-41.504,36.621,22.461,11.230,31.250,0
1483444856.341,-47.852,27.344,-28.809,9.766,20.996,0
1483444856.345,-48.828,25.879,-8.301,8.789,57.617,0
1483444856.349,-49.316,23.438,58.105,2.930,81.543,0
1483444856.353,-40.039,31.738,74.707,18.555,27.344,0
1483444856.357,-31.250,42.480,96.680,31.250,-28.809,0
1483444856.361,-36.133,38.574,44.922,25.879,38.086,0
1483444856.365,-46.875,29.297,32.227,11.230,102.539,0
1483444856.369,-54.688,20.508,93.262,3.418,33.691,0
1483444856.372,-56.641,22.949,57.617,10.254,5.859,0
1483444856.376,-33.691,42.480,-85.938,13.672,34.668,0
1483444856.380,-26.855,38.574,-98.145,13.184,15.137,0
1483444856.384,-49.316,16.113,82.520,12.207,-24.414,0
1483444856.388,-65.430,1.953,157.227,3.418,-4.883,0
1483444856.392,-56.152,4.883,62.012,19.043,35.645,0
1483444856.396,-36.621,15.625,-21.484,35.645,53.223,0
1483444856.400,-18.555,32.227,-42.969,39.551,67.383,0
1483444856.404,-21.484,39.062,29.297,47.852,31.738,0
1483444856.408,-50.781,19.531,151.855,22.949,16.113,0
1483444856.411,-52.246,7.812,79.102,13.184,35.645,0
1483444856.415,-34.668,19.043,-66.895,29.785,20.020,0
1483444856.419,-32.715,26.367,35.156,32.715,59.570,0
1483444856.423,-47.852,17.090,131.836,25.391,85.938,0
1483444856.427,-43.945,21.973,23.438,29.785,78.613,0
1483444856.431,-41.016,25.391,-18.555,24.902,86.914,0
1483444856.435,-49.805,27.344,57.129,16.602,30.762,0
1483444856.439,-55.664,26.855,108.887,0.488,37.109,0
1483444856.443,-43.457,32.715,25.879,8.789,53.711,0
1483444856.447,-30.273,39.062,-76.660,31.738,22.461,3
1483444856.451,-42.480,30.273,4.883,16.602,19.531,0
1483444856.454,-29.297,40.039,35.156,31.738,30.273,0
1483444856.458,-27.832,42.480,56.152,42.969,20.508,0
1483444856.462,-41.992,33.691,108.887,20.508,-5.859,0
1483444856.466,-26.367,45.898,59.082,28.320,3.906,0
1483444856.470,-38.086,34.180,17.578,20.996,11.230,0
1483444856.474,-54.199,15.137,56.152,7.324,31.250,0
1483444856.478,-48.340,20.020,58.105,15.625,54.199,0
1483444856.482,-41.992,31.738,24.414,25.391,-14.160,0
1483444856.486,-36.133,33.691,27.344,27.832,-17.578,0
1483444856.490,-30.762,32.227,-23.438,27.832,52.734,0
1483444856.494,-1.465,56.641,-139.648,60.059,67.383,0
1483444856.497,-3.906,59.570,-67.383,65.918,66.895,0
1483444856.501,-49.316,22.461,144.531,13.184,55.176,0
1483444856.505,-62.500,10.254,167.969,-8.789,48.340,0
1483444856.509,-44.922,26.855,128.906,18.555,30.762,0
1483444856.513,-17.578,48.828,20.996,62.500,-2.930,0
1483444856.517,-21.484,41.992,-60.059,52.246,41.504,0
1483444856.521,-45.898,22.949,43.457,16.602,59.082,0
1483444856.525,-47.363,19.043,69.824,21.484,-5.371,0
1483444856.529,-44.434,16.602,75.684,22.461,26.367,0
1483444856.533,-45.410,22.949,38.574,23.438,-7.324,0
1483444856.536,-31.250,38.574,-42.480,36.621,-4.395,0
1483444856.540,-23.926,41.992,22.461,39.062,7.324,0
1483444856.544,-36.621,34.668,82.520,28.320,17.090,0
1483444856.548,-34.180,36.621,4.883,31.738,4.395,0
1483444856.552,-33.203,39.551,-34.668,38.086,15.137,0
1483444856.556,-37.109,41.016,83.008,18.555,63.477,0
1483444856.560,-29.785,46.387,50.293,21.973,23.926,0
1483444856.564,-36.133,35.156,-13.184,18.066,13.184,0
1483444856.568,-49.805,19.531,63.477,0.977,-3.418,0
1483444856.572,-50.781,25.879,83.984,0.977,24.414,0
1483444856.576,-35.645,39.062,55.176,16.113,46.875,0
1483444856.579,-29.297,38.574,61.523,20.020,30.762,0
1483444856.583,-34.668,37.109,-8.789,19.043,65.430,0
1483444856.587,-27.344,45.898,-44.922,35.645,52.734,0
1483444856.591,-22.461,44.434,67.383,35.156,-7.812,0
1483444856.595,-34.668,33.691,107.910,25.879,16.113,0
1483444856.599,-36.621,40.039,50.781,21.484,74.707,0
1483444856.603,-27.344,54.199,-5.371,31.250,87.891,0
1483444856.607,-46.387,43.945,51.270,22.461,51.270,0
1483444856.611,-48.828,41.016,20.020,10.254,4.883,0
1483444856.615,-38.574,48.340,-37.598,21.484,34.180,0
1483444856.619,-64.941,27.832,79.590,-8.789,41.504,0
1483444856.622,-65.430,24.414,63.477,-13.184,89.355,0
1483444856.626,-30.273,53.223,-89.355,26.855,25.879,0
1483444856.630,-28.320,55.664,-31.250,26.855,-30.273,0
1483444856.634,-46.875,34.180,156.250,6.348,17.578,0
1483444856.638,-34.668,40.527,133.789,31.738,33.691,0
1483444856.642,-32.715,42.969,47.363,33.203,52.246,0
1483444856.646,-43.945,32.715,24.414,15.137,54.688,0
1483444856.650,-42.480,31.738,39.551,27.344,-19.531,0
1483444856.654,-42.480,32.715,12.207,21.484,-10.254,0
1483444856.658,-41.016,38.086,37.109,18.066,10.254,0
1483444856.661,-38.574,39.062,40.527,23.438,35.156,0
1483444856.665,-29.785,44.922,-21.484,34.180,43.945,0
1483444856.669,-19.531,55.176,-45.898,51.270,20.996,0
1483444856.673,-29.297,43.457,17.090,43.457,68.359,0
1483444856.677,-38.574,28.320,98.633,27.344,56.641,0
1483444856.681,-22.949,42.480,15.625,37.598,39.551,0
1483444856.685,-23.438,44.434,34.180,29.785,27.832,0
1483444856.689,-47.852,22.461,113.281,4.883,35.156,0
1483444856.693,-45.410,28.809,61.035,17.578,37.598,0
1483444856.697,-22.949,47.852,7.812,34.668,17.578,0
1483444856.701,-21.484,51.270,28.809,27.832,41.016,0
1483444856.704,-31.738,43.457,6.836,20.996,-9.766,0
1483444856.708,-25.391,47.363,-10.742,38.086,2.930,0
1483444856.712,-32.227,42.480,43.945,29.785,62.500,0
1483444856.716,-41.504,32.227,53.711,17.090,81.543,0
1483444856.720,-29.297,38.574,62.500,31.250,41.016,0
1483444856.724,-23.926,44.922,77.148,38.086,19.531,0
1483444856.728,1.465,61.035,-31.738,62.012,27.832,0
1483444856.732,-9.277,52.246,-55.664,50.781,-20.508,0
1483444856.736,-48.828,22.949,98.145,12.695,29.297,0
1483444856.740,-42.480,25.879,98.145,19.531,110.352,0
1483444856.744,-37.598,30.273,10.254,23.438,60.059,0
1483444856.747,-48.828,24.414,26.367,14.648,-6.836,0
1483444856.751,-42.969,29.785,-1.953,30.273,9.766,0
1483444856.755,-34.668,35.156,-12.207,28.809,41.992,0
1483444856.759,-38.086,36.133,75.684,21.973,76.172,0
1483444856.763,-45.410,27.344,41.992,25.391,81.543,0
1483444856.767,-42.969,30.762,45.410,28.320,45.898,0
1483444856.771,-41.504,38.574,89.844,22.949,30.273,0
1483444856.775,-45.898,27.344,46.387,12.695,59.570,0
1483444856.779,-30.273,38.574,5.859,31.250,54.199,0
1483444856.783,-32.715,37.109,29.785,25.879,30.273,0
1483444856.786,-45.410,23.926,46.387,11.719,42.480,0
1483444856.790,-36.621,31.738,20.508,22.461,32.715,0
1483444856.794,-29.785,37.598,16.113,21.484,25.391,0
1483444856.798,-21.973,42.480,45.898,28.320,56.641,0
1483444856.802,-23.438,43.945,58.105,33.691,65.918,0
1483444856.806,-37.109,37.109,28.809,23.926,51.270,0
1483444856.810,-30.273,42.969,-25.391,36.621,43.945,0
1483444856.814,-21.973,50.781,0.977,38.574,68.848,0
1483444856.818,-18.066,47.852,5.371,44.434,1.465,0
1483444856.822,-19.531,48.828,22.461,43.945,-43.945,0
1483444856.826,-32.715,44.922,82.520,23.438,14.648,0
1483444856.829,-42.969,32.715,106.445,19.531,6.348,0
1483444856.833,-45.410,29.297,56.641,13.184,6.348,0
1483444856.837,-29.785,39.062,-57.617,23.438,41.016,0
1483444856.841,-12.695,50.781,-70.801,43.457,31.738,0
1483444856.845,-27.832,40.039,44.922,27.832,31.738,0
1483444856.849,-52.734,20.508,140.137,2.441,18.555,0
1483444856.853,-52.246,22.461,97.656,8.789,8.301,0
1483444856.857,-29.785,40.527,28.809,28.809,33.203,0
1483444856.861,-26.367,48.340,-14.648,29.785,60.547,0
1483444856.865,-40.039,38.086,50.293,10.742,-28.320,0
1483444856.869,-41.504,29.785,65.918,8.789,16.602,0
1483444856.872,-28.809,39.551,-3.906,26.367,41.504,0
1483444856.876,-27.344,44.434,-3.418,40.039,-33.691,0
1483444856.880,-29.785,41.016,-34.668,36.133,45.410,0
1483444856.884,-24.902,38.574,-82.031,27.344,70.312,0
1483444856.888,-27.344,34.668,39.551,22.949,85.938,0
1483444856.892,-32.715,35.156,140.625,17.578,45.410,0
1483444856.896,-41.504,29.297,72.266,5.371,19.531,0
1483444856.900,-43.457,24.414,60.059,-0.977,80.078,0
1483444856.904,-39.551,28.320,67.383,9.766,47.363,0
1483444856.908,-22.461,39.062,-2.930,32.715,57.129,0
1483444856.911,-27.832,31.250,-21.484,28.809,82.520,0
1483444856.915,-34.180,26.855,8.789,24.902,69.336,0
1483444856.919,-9.277,49.316,-26.855,49.805,18.066,0
1483444856.923,-4.883,48.828,-41.016,49.316,40.527,0
1483444856.927,-42.969,17.090,62.012,10.742,70.801,0
1483444856.931,-59.570,6.348,121.094,-4.883,53.223,0
1483444856.935,-45.410,22.949,59.082,11.230,74.707,0
1483444856.939,-34.668,34.668,4.883,22.461,100.098,0
1483444856.943,-32.715,34.180,60.547,27.832,94.238,0
1483444856.947,-30.273,32.715,43.945,29.785,96.680,4
1483444856.951,-28.320,33.691,-33.203,22.461,47.852,0
1483444856.954,-28.320,36.621,17.090,20.996,-10.254,0
1483444856.958,-23.926,39.551,33.203,36.133,29.297,0
1483444856.962,-14.648,38.574,-22.461,42.969,59.570,0
1483444856.966,-13.672,33.203,5.371,42.969,19.531,0
1483444856.970,-22.949,27.832,23.438,39.062,34.668,0
1483444856.974,-26.855,28.809,-6.836,40.527,49.316,0
1483444856.978,-38.574,19.043,62.988,28.809,44.922,0
1483444856.982,-43.457,17.090,60.547,22.949,78.125,0
1483444856.986,-33.691,24.414,-23.926,42.480,58.594,0
1483444856.990,-26.367,24.902,12.695,34.180,42.969,0
1483444856.994,-33.691,20.020,99.121,20.020,43.457,0
1483444856.997,-24.902,27.344,43.945,41.504,75.195,0
1483444857.001,-18.066,30.762,-21.484,41.992,62.500,0
1483444857.005,-27.344,24.414,-22.461,27.832,4.395,0
1483444857.009,-19.043,29.297,2.930,40.527,23.438,0
1483444857.013,-13.672,32.227,35.156,49.805,37.598,0
1483444857.017,-19.043,26.855,26.367,43.945,30.762,0
1483444857.021,-11.719,35.156,-22.949,51.758,20.020,0
1483444857.025,-4.883,41.016,-62.500,56.641,52.734,0
1483444857.029,-8.789,35.645,13.184,47.852,81.055,0
1483444857.033,-22.461,23.926,121.094,24.414,62.988,0
1483444857.036,-38.086,12.207,133.789,14.160,45.410,0
1483444857.040,-36.133,16.113,77.637,27.832,23.438,0
1483444857.044,-20.508,26.855,54.199,38.574,-0.977,0
1483444857.048,-19.043,33.691,36.133,39.062,17.090,0
1483444857.052,-22.461,34.180,-34.668,40.039,64.941,0
1483444857.056,-22.461,29.297,-5.371,39.062,67.383,0
1483444857.060,-18.555,35.156,-37.109,39.551,83.496,0
1483444857.064,-11.230,47.363,-88.867,41.016,10.742,0
1483444857.068,-14.160,45.410,-22.461,37.109,32.715,0
1483444857.072,-29.297,28.320,95.215,27.344,79.102,0
1483444857.076,-52.246,9.766,157.227,0.488,35.645,0
1483444857.079,-46.875,14.648,73.730,12.695,51.758,0
1483444857.083,-29.297,24.902,1.465,41.016,84.961,0
1483444857.087,-24.414,33.203,35.156,41.992,82.520,0
1483444857.091,-33.691,29.785,77.637,20.020,32.227,0
1483444857.095,-32.227,25.879,30.273,22.949,37.598,0
1483444857.099,-6.836,40.039,-39.551,54.199,86.426,0
1483444857.103,-19.043,31.738,-56.641,38.574,31.738,0
1483444857.107,-36.133,17.090,-27.344,15.625,8.301,0
1483444857.111,-44.922,14.648,89.355,14.648,32.715,0
1483444857.115,-41.016,22.461,31.250,21.973,41.016,0
1483444857.119,-26.367,28.809,-54.199,29.297,62.500,0
1483444857.122,-22.949,35.645,0.977,35.156,57.617,0
1483444857.126,-27.832,35.645,40.527,31.250,18.066,0
1483444857.130,-41.504,19.043,131.836,15.625,21.973,0
1483444857.134,-42.480,16.602,108.887,12.695,65.430,0
1483444857.138,-40.527,20.996,23.438,14.160,0.000,0
1483444857.142,-20.508,40.039,15.137,34.668,20.020,0
1483444857.146,-21.973,38.086,8.789,33.691,90.820,0
1483444857.150,-34.180,31.738,16.602,20.508,9.766,0
1483444857.154,-35.156,34.668,41.016,22.461,16.602,0
1483444857.158,-44.434,22.949,30.273,15.625,81.543,0
1483444857.161,-44.922,20.508,-41.016,13.672,21.484,0
1483444857.165,-54.688,13.672,1.953,8.301,-6.348,0
1483444857.169,-44.922,22.461,47.363,17.090,62.012,0
1483444857.173,-27.344,34.668,-5.371,32.715,62.500,0
1483444857.177,-31.250,29.785,27.344,30.762,84.961,0
1483444857.181,-36.621,27.344,84.473,18.066,84.473,0
1483444857.185,-42.969,25.879,82.520,3.906,61.523,0
1483444857.189,-41.992,27.344,64.941,10.742,50.781,0
1483444857.193,-32.715,33.691,37.109,36.621,35.156,0
1483444857.197,-24.414,41.992,-65.430,45.410,-5.371,0
1483444857.201,-16.113,47.363,-62.012,40.527,39.551,0
1483444857.204,-13.672,48.340,46.875,38.086,61.523,0
1483444857.208,-30.273,33.203,84.961,14.648,11.230,0
1483444857.212,-42.480,19.531,51.758,3.906,26.367,0
1483444857.216,-43.945,20.508,35.156,8.301,51.758,0
1483444857.220,-41.016,26.367,31.250,19.043,84.473,0
1483444857.224,-25.879,39.551,3.906,45.898,70.801,0
1483444857.228,-13.672,52.734,-19.531,55.664,64.453,0
1483444857.232,-14.648,49.805,-5.371,50.293,92.285,0
1483444857.236,-15.137,43.457,-2.441,47.852,119.141,0
1483444857.240,-26.855,34.180,14.160,35.156,69.336,0
1483444857.244,-40.527,24.414,67.871,22.949,32.715,0
1483444857.247,-45.898,20.020,107.910,12.207,31.250,0
1483444857.251,-22.949,40.527,63.965,34.668,6.836,0
1483444857.255,-7.812,52.246,30.762,57.617,-0.977,0
1483444857.259,-29.297,34.668,-34.668,43.945,72.266,0
1483444857.263,-29.785,36.621,-37.598,35.645,88.379,0
1483444857.267,-28.320,41.504,34.180,28.809,65.918,0
1483444857.271,-43.457,26.855,65.430,19.043,42.969,0
1483444857.275,-47.363,24.414,95.215,17.578,-0.488,0
1483444857.279,-40.039,32.715,76.660,23.926,3.906,0
1483444857.283,-35.156,28.320,52.246,23.438,26.855,0
1483444857.286,-38.574,27.344,40.527,22.949,8.789,0
1483444857.290,-32.227,35.645,-1.953,35.645,49.805,0
1483444857.294,-15.137,47.852,-29.785,55.176,84.961,0
1483444857.298,-27.344,41.992,18.066,48.340,28.320,0
1483444857.302,-39.551,32.715,54.688,34.668,16.113,0
1483444857.306,-44.434,27.344,60.059,22.461,46.387,0
1483444857.310,-39.551,29.297,33.203,21.973,21.973,0
1483444857.314,-15.137,50.781,-90.820,55.176,27.344,0
1483444857.318,-22.461,53.711,-92.773,52.734,82.520,0
1483444857.322,-40.527,37.109,52.734,36.133,47.363,0
1483444857.326,-52.734,21.973,117.188,24.902,0.488,0
1483444857.329,-64.453,7.812,104.980,7.324,43.457,0
1483444857.333,-57.129,9.766,53.223,4.395,59.082,0
1483444857.337,-33.691,28.320,32.715,23.926,20.020,0
1483444857.341,-22.949,40.039,47.363,43.945,27.832,0
1483444857.345,-26.367,44.434,-58.105,46.387,69.336,0
1483444857.349,-22.949,44.922,-92.773,41.504,61.523,0
1483444857.353,-37.109,31.738,95.215,28.320,1.465,0
1483444857.357,-28.320,37.598,28.320,36.133,58.594,0
1483444857.361,-19.531,43.945,-38.086,45.410,50.293,0
1483444857.365,-36.621,28.320,107.910,30.762,3.418,0
1483444857.369,-24.414,29.297,130.371,30.273,41.992,0
1483444857.372,-14.648,34.668,64.453,38.086,52.246,0
1483444857.376,-34.180,26.367,18.066,27.832,37.598,0
1483444857.380,-41.016,24.902,-0.977,27.832,33.203,0
1483444857.384,-33.203,34.668,-10.254,41.992,62.012,0
1483444857.388,-30.762,39.062,38.086,48.828,59.570,0
1483444857.392,-31.250,39.062,40.527,47.363,46.875,0
1483444857.396,-37.598,36.133,53.711,24.414,60.547,0
1483444857.400,-39.062,33.203,49.805,22.949,57.129,0
1483444857.404,-36.621,32.715,-10.742,29.297,88.867,0
1483444857.408,-31.250,34.180,-37.109,33.203,80.078,0
1483444857.411,-34.180,33.691,26.367,37.598,56.641,0
1483444857.415,-45.898,22.949,62.500,22.461,46.875,0
1483444857.419,-37.598,23.926,35.645,27.344,26.855,0
1483444857.423,-29.785,30.762,28.809,40.527,-24.414,0
1483444857.427,-26.367,29.297,7.324,38.574,10.254,0
1483444857.431,-20.020,37.598,-26.855,49.316,104.492,0
1483444857.435,-12.695,49.316,-3.418,56.152,95.215,0
1483444857.439,-18.555,46.387,28.320,43.945,52.246,0
1483444857.443,-36.621,36.621,39.062,32.227,34.668,0
1483444857.447,-47.852,24.902,49.316,13.672,77.637,5
1483444857.451,-53.223,22.461,60.059,6.348,62.500,0
1483444857.454,-43.945,35.645,21.973,23.926,39.551,0
1483444857.458,-34.180,41.016,-16.602,39.551,52.734,0
1483444857.462,-38.574,40.039,16.113,35.156,14.160,0
1483444857.466,-40.039,43.945,32.715,28.320,-11.230,0
1483444857.470,-37.598,41.016,23.926,29.785,42.480,0
1483444857.474,-40.039,38.086,11.230,31.738,36.133,0
1483444857.478,-37.598,40.527,-10.742,41.016,46.387,0
1483444857.482,-42.969,31.738,57.617,26.367,106.445,0
1483444857.486,-63.965,16.602,104.004,2.930,95.703,0
1483444857.490,-56.641,27.344,41.016,14.160,68.848,0
1483444857.494,-45.410,39.551,41.016,26.855,55.664,0
1483444857.497,-54.688,34.180,41.504,18.555,83.496,0
1483444857.501,-49.805,39.062,-26.367,16.602,99.609,0
1483444857.505,-35.645,50.781,-0.488,30.762,45.410,0
1483444857.509,-38.086,40.527,84.961,21.973,31.250,0
1483444857.513,-38.574,37.109,52.734,22.461,58.105,0
1483444857.517,-27.344,49.316,29.297,43.457,40.039,0
1483444857.521,-31.738,42.480,20.508,32.715,29.785,0
1483444857.525,-25.391,46.875,-14.648,41.504,62.012,0
1483444857.529,-33.203,36.621,20.020,38.574,50.293,0
1483444857.533,-57.129,16.602,32.227,6.348,45.410,0
1483444857.536,-60.059,20.508,75.684,7.324,15.625,0
1483444857.540,-57.129,21.973,27.832,21.973,22.949,0
1483444857.544,-49.805,21.484,-59.082,24.902,87.402,0
1483444857.548,-32.227,32.227,-19.531,34.668,41.016,0
1483444857.552,-30.273,35.156,41.992,37.598,27.344,0
1483444857.556,-44.434,23.926,64.453,17.578,27.344,0
1483444857.560,-42.480,26.855,66.895,20.996,1.953,0
1483444857.564,-38.574,31.250,57.617,28.320,45.898,0
1483444857.568,-41.016,28.320,36.133,30.273,62.988,0
1483444857.572,-32.715,29.297,18.066,39.551,17.578,0
1483444857.576,-25.879,38.086,-28.320,48.828,35.645,0
1483444857.579,-32.227,37.598,4.395,51.758,19.043,0
1483444857.583,-20.020,41.504,-60.547,56.641,33.203,0
1483444857.587,-14.648,46.875,-51.270,52.734,42.969,0
1483444857.591,-40.039,26.855,132.324,31.738,41.992,0
1483444857.595,-55.176,11.719,116.699,14.160,88.379,0
1483444857.599,-41.504,19.531,21.484,25.879,110.352,0
1483444857.603,-37.598,25.879,6.348,30.273,66.895,0
1483444857.607,-31.250,34.668,56.641,33.203,41.504,0
1483444857.611,-19.043,40.527,64.453,49.805,37.598,0
1483444857.615,-27.344,37.109,37.598,40.039,20.508,0
1483444857.619,-37.109,32.227,41.992,35.645,49.316,0
1483444857.622,-22.949,38.574,-4.395,63.965,36.621,0
1483444857.626,-18.555,42.480,12.207,60.547,7.324,0
1483444857.630,-40.527,27.344,75.195,24.414,56.641,0
1483444857.634,-49.805,21.484,59.082,19.531,65.430,0
1483444857.638,-36.133,33.691,48.828,39.551,35.645,0
1483444857.642,-29.785,36.133,26.367,43.945,31.738,0
1483444857.646,-37.598,30.762,14.648,32.227,71.777,0
1483444857.650,-22.461,42.969,11.719,47.852,77.637,0
1483444857.654,-21.484,41.504,53.711,53.223,74.707,0
1483444857.658,-33.691,30.762,40.527,37.109,116.211,0
1483444857.661,-27.344,36.621,-34.180,41.992,84.961,0
1483444857.665,-35.645,32.227,21.973,37.598,72.266,0
1483444857.669,-46.875,22.461,95.703,26.855,43.945,0
1483444857.673,-49.805,18.555,93.262,14.160,-0.488,0
1483444857.677,-48.828,19.043,47.363,6.348,30.762,0
1483444857.681,-46.387,20.996,50.781,16.602,39.062,0
1483444857.685,-33.203,30.273,1.465,31.738,57.617,0
1483444857.689,-15.625,43.457,-60.059,49.316,81.055,0
1483444857.693,-20.996,39.551,-8.301,52.246,49.316,0
1483444857.697,-36.133,26.855,43.457,30.762,45.410,0
1483444857.701,-54.688,16.113,91.309,8.789,70.312,0
1483444857.704,-53.711,22.949,38.574,17.090,62.012,0
1483444857.708,-42.969,31.250,18.555,34.180,62.500,0
1483444857.712,-38.574,31.738,55.664,29.785,28.320,0
1483444857.716,-43.457,26.855,45.410,25.391,24.902,0
1483444857.720,-51.758,20.996,51.270,20.508,64.941,0
1483444857.724,-44.434,25.879,41.504,23.926,79.590,0
1483444857.728,-47.363,23.926,13.184,24.902,82.520,0
1483444857.732,-42.480,27.832,-28.809,27.344,64.453,0
1483444857.736,-41.016,31.738,-9.766,20.996,72.754,0
1483444857.740,-57.129,17.578,51.270,10.254,77.148,0
1483444857.744,-61.523,12.207,73.730,11.230,39.062,0
1483444857.747,-53.711,20.020,59.082,13.672,45.898,0
1483444857.751,-54.199,21.484,36.133,20.508,102.539,0
1483444857.755,-56.641,20.508,28.320,15.137,109.375,0
1483444857.759,-46.387,32.227,1.953,30.273,89.844,0
1483444857.763,-31.738,44.434,-2.441,48.340,88.379,0
1483444857.767,-34.668,37.109,11.719,36.133,99.609,0
1483444857.771,-46.875,24.414,71.289,27.344,102.539,0
1483444857.775,-42.480,28.320,65.918,34.180,70.312,0
1483444857.779,-44.434,24.414,28.320,33.691,68.848,0
1483444857.783,-40.527,19.531,7.812,31.738,101.562,0
1483444857.786,-33.203,24.902,32.715,42.480,82.031,0
1483444857.790,-44.922,17.090,74.219,34.668,52.734,0
1483444857.794,-47.852,20.508,20.996,22.461,78.125,0
1483444857.798,-32.715,34.180,-33.203,47.852,79.590,0
1483444857.802,-27.344,34.668,10.254,52.734,75.684,0
1483444857.806,-40.527,25.391,82.031,28.320,95.703,0
1483444857.810,-40.527,20.996,91.309,25.879,65.918,0
1483444857.814,-36.133,32.715,48.828,37.109,74.219,0
1483444857.818,-43.945,30.762,35.645,41.016,81.543,0
1483444857.822,-42.969,29.785,34.668,48.828,52.734,0
1483444857.826,-48.828,30.762,29.785,37.109,87.402,0
1483444857.829,-64.941,22.461,25.391,20.508,95.703,0
1483444857.833,-46.387,36.621,9.766,33.203,84.473,0
1483444857.837,-35.645,42.969,14.160,43.457,83.496,0
1483444857.841,-42.969,37.109,-60.547,40.527,92.285,0
1483444857.845,-35.645,40.039,-46.387,40.039,110.840,0
1483444857.849,-49.805,30.762,91.309,29.297,92.773,0
1483444857.853,-55.176,30.273,141.113,31.250,95.215,0
1483444857.857,-53.223,28.320,127.930,33.203,113.770,0
1483444857.861,-38.086,33.691,58.594,39.062,101.562,0
1483444857.865,-18.066,55.176,-24.414,53.711,89.355,0
1483444857.869,-51.270,33.691,8.789,35.156,83.984,0
1483444857.872,-63.965,12.207,34.668,18.555,100.098,0
1483444857.876,-40.527,30.273,0.488,41.504,117.676,0
1483444857.880,-40.039,35.156,-68.359,44.922,96.191,0
1483444857.884,-54.688,22.461,-20.508,27.832,119.141,0
1483444857.888,-59.570,11.719,115.723,22.461,139.648,0
1483444857.892,-53.711,15.625,96.191,32.715,110.352,0
1483444857.896,-39.551,34.668,25.391,43.945,109.375,0
1483444857.900,-35.156,38.086,-29.785,42.480,93.750,0
1483444857.904,-52.734,25.391,19.043,24.902,103.516,0
1483444857.908,-56.641,15.625,129.883,15.625,109.863,0
1483444857.911,-53.223,12.207,117.676,24.902,71.777,0
1483444857.915,-51.758,21.484,59.570,30.273,84.961,0
1483444857.919,-42.480,30.762,-28.320,39.062,104.004,0
1483444857.923,-31.250,39.062,-35.156,51.270,88.379,0
1483444857.927,-39.062,33.203,19.531,44.922,83.008,0
1483444857.931,-55.664,19.043,35.645,25.879,85.938,0
1483444857.935,-51.270,31.250,33.691,38.086,98.633,0
1483444857.939,-50.293,32.227,16.602,43.945,98.145,0
1483444857.943,-57.129,19.531,32.715,29.297,99.121,0
1483444857.947,-55.176,19.531,65.430,26.367,112.793,0
1483444857.951,-48.828,24.414,78.125,25.879,92.773,0
1483444857.954,-50.293,23.438,38.574,30.273,107.422,0
1483444857.958,-58.105,20.508,-19.043,29.297,129.883,0
1483444857.962,-54.199,20.996,-0.488,28.320,116.699,0
1483444857.966,-51.270,23.926,11.719,43.457,113.281,0
1483444857.970,-49.805,24.414,9.277,35.156,91.797,0
1483444857.974,-51.758,17.578,59.570,25.391,83.496,0
1483444857.978,-70.801,0.488,83.984,24.902,104.492,0
1483444857.982,-74.219,0.977,50.293,15.137,107.422,0
1483444857.986,-68.848,11.719,21.973,25.391,72.754,0
1483444857.990,-59.570,15.625,-29.785,51.758,50.293,0
1483444857.994,-57.617,16.602,-10.742,52.734,83.496,0
1483444857.997,-65.430,13.672,15.137,41.016,99.121,0
1483444858.001,-69.824,11.230,53.711,27.832,98.145,0
1483444858.005,-72.266,8.789,62.012,26.367,111.816,0
1483444858.009,-70.801,15.137,60.059,33.691,142.090,0
1483444858.013,-66.895,21.973,55.176,27.344,142.090,0
1483444858.017,-75.195,18.555,60.547,20.020,122.070,0
1483444858.021,-63.477,23.926,84.473,21.484,106.445,0
1483444858.025,-40.039,37.109,-46.875,45.898,125.977,0
1483444858.029,-40.527,31.738,-42.969,46.875,132.324,0
1483444858.033,-37.109,32.715,38.086,36.621,107.422,0
1483444858.036,-40.527,25.879,41.992,40.527,98.145,0
1483444858.040,-48.828,8.789,91.309,27.832,98.145,0
1483444858.044,-48.340,3.906,106.445,15.625,55.176,0
1483444858.048,-47.852,7.324,70.801,25.879,48.828,0
1483444858.052,-42.969,20.996,-0.488,31.738,123.535,0
1483444858.056,-31.250,33.691,-55.664,51.270,108.398,0
1483444858.060,-28.320,35.645,-16.602,54.199,65.430,0
1483444858.064,-34.180,30.273,68.848,33.691,62.012,0
1483444858.068,-47.852,17.090,126.953,16.602,67.871,0
1483444858.072,-43.457,14.160,31.250,27.344,101.074,0
1483444858.076,-12.695,32.715,-74.219,53.223,69.336,0
1483444858.079,-28.809,18.555,59.570,30.762,58.594,0
1483444858.083,-51.758,-4.395,118.164,4.883,72.754,0
1483444858.087,-47.363,-3.418,95.215,8.301,44.922,0
1483444858.091,-40.039,10.254,58.594,32.227,8.789,0
1483444858.095,-16.113,24.902,-16.602,41.016,10.742,0
1483444858.099,-20.020,27.344,1.953,34.180,35.645,0
1483444858.103,-27.832,29.297,-17.090,54.199,31.250,0
1483444858.107,-20.508,26.855,-35.645,41.504,14.648,0
1483444858.111,-38.574,20.996,15.625,10.742,23.438,0
1483444858.115,-32.715,26.367,0.977,26.855,36.621,0
1483444858.119,-31.738,18.066,21.484,26.855,55.176,0
1483444858.122,-36.133,14.160,-9.277,29.297,52.734,0
1483444858.126,-16.113,33.203,-41.992,53.711,37.109,0
1483444858.130,-23.926,28.320,36.133,40.039,57.617,0
1483444858.134,-36.133,25.879,97.656,28.809,21.484,0
1483444858.138,-34.668,24.414,86.426,19.043,-21.973,0
1483444858.142,-37.109,16.602,61.035,16.113,0.977,0
1483444858.146,-20.508,36.133,-66.895,41.016,29.297,0
1483444858.150,-7.812,48.340,-166.504,51.758,37.598,0
1483444858.154,-15.137,43.457,-41.992,42.969,26.367,0
1483444858.158,-38.574,24.414,116.699,20.020,66.406,0
1483444858.161,-49.805,11.719,115.723,1.953,62.012,0
1483444858.165,-36.133,24.414,43.945,21.484,13.672,0
1483444858.169,-19.043,38.086,-4.883,38.086,22.949,0
1483444858.173,-6.348,42.480,-13.184,48.340,46.387,0
1483444858.177,-15.625,40.527,46.387,41.992,36.621,0
1483444858.181,-3.906,55.176,5.371,54.688,26.367,0
1483444858.185,-20.996,43.945,-12.695,49.805,11.719,0
1483444858.189,-44.922,16.602,73.730,18.066,19.043,0
1483444858.193,-40.527,13.672,120.117,25.879,40.039,0
1483444858.197,-41.016,21.973,141.602,31.738,13.672,0
1483444858.201,-26.367,32.227,69.824,36.133,35.645,0
1483444858.204,-22.461,33.203,-82.031,42.480,59.570,0
1483444858.208,-39.551,23.438,-21.973,27.344,19.043,0
1483444858.212,-47.852,20.508,133.789,14.648,12.695,0
1483444858.216,-38.086,26.855,130.859,28.809,71.289,0
1483444858.220,-42.480,26.855,91.797,31.250,72.754,0
1483444858.224,-45.410,26.855,38.086,23.438,77.148,0
1483444858.228,-45.898,21.973,47.363,10.254,89.355,0
1483444858.232,-44.922,13.184,81.055,6.348,65.918,0
1483444858.236,-37.109,17.578,50.293,21.484,81.055,0
1483444858.240,-19.531,30.273,32.227,33.203,55.176,0
1483444858.244,-20.996,27.832,66.406,37.109,22.949,0
1483444858.247,-36.621,20.020,56.641,21.973,96.191,0
1483444858.251,-27.344,24.902,-48.828,22.461,117.188,0
1483444858.255,-26.855,24.902,-18.555,32.715,62.988,0
1483444858.259,-36.621,17.578,87.402,24.414,65.918,0
1483444858.263,-44.434,11.230,97.656,18.066,97.656,0
1483444858.267,-55.664,8.789,63.965,18.066,95.703,0
1483444858.271,-34.180,25.391,47.852,26.367,100.098,0
1483444858.275,-17.578,38.574,23.926,41.016,82.031,0
1483444858.279,-38.086,18.555,5.859,26.367,83.496,0
1483444858.283,-44.922,3.418,40.039,5.371,103.516,0
1483444858.286,-30.762,13.672,45.898,15.625,64.453,0
1483444858.290,-27.344,22.461,-1.953,30.273,83.984,0
1483444858.294,-15.625,36.621,-89.355,54.688,123.535,0
1483444858.298,-24.414,25.879,5.371,35.156,104.492,0
1483444858.302,-64.453,-1.465,168.945,-6.836,108.887,0
1483444858.306,-65.918,-1.465,141.113,-6.348,112.793,0
1483444858.310,-31.738,19.531,69.336,11.230,110.352,0
1483444858.314,-2.930,42.969,15.137,38.574,91.309,0
1483444858.318,-28.320,32.715,-8.301,32.715,99.121,0
1483444858.322,-52.734,13.672,31.738,5.859,89.355,0
1483444858.326,-35.156,20.508,-3.418,2.441,80.078,0
1483444858.329,-30.273,28.809,-17.578,22.461,96.680,0
1483444858.333,-35.156,26.367,88.867,30.273,83.008,0
1483444858.337,-41.504,19.531,119.141,11.719,99.609,0
1483444858.341,-29.785,24.414,69.824,13.184,72.754,0
1483444858.345,-36.621,28.320,31.250,22.949,65.918,0
1483444858.349,-37.598,30.273,0.488,19.531,114.258,0
1483444858.353,-21.973,39.551,-11.230,26.855,103.027,0
1483444858.357,-12.207,48.828,-19.043,52.246,77.637,0
1483444858.361,-14.648,38.574,11.230,44.434,98.633,0
1483444858.365,-45.410,14.160,126.465,12.207,94.238,0
1483444858.369,-48.828,16.113,113.281,14.648,67.871,0
1483444858.372,-37.109,24.414,45.410,29.785,85.449,0
1483444858.376,-36.133,24.902,7.812,28.809,40.039,0
1483444858.380,-24.902,30.273,14.648,33.203,-1.953,0
1483444858.384,-24.902,25.879,62.500,33.691,43.457,0
1483444858.388,-29.785,19.531,-5.859,31.250,55.664,0
1483444858.392,-19.531,28.320,-76.660,41.504,51.758,0
1483444858.396,-15.137,25.391,3.418,40.527,62.500,0
1483444858.400,-41.016,8.789,123.047,11.230,86.914,0
1483444858.404,-40.527,13.672,117.188,22.949,52.246,0
1483444858.408,-31.738,19.043,8.301,33.691,9.766,0
1483444858.411,-42.480,11.719,0.488,15.137,20.996,0
1483444858.415,-23.438,34.668,49.805,35.156,18.066,0
1483444858.419,-24.414,35.645,52.734,44.922,0.000,0
1483444858.423,-53.223,13.672,72.754,21.973,-39.062,0
1483444858.427,-39.062,23.438,40.039,21.484,10.742,0
1483444858.431,-6.836,36.133,21.973,36.133,37.109,0
1483444858.435,-7.812,30.273,38.086,39.062,-1.953,0
1483444858.439,-21.973,22.461,-15.137,30.762,5.371,0
1483444858.443,-26.367,13.184,-13.184,28.809,45.898,0
1483444858.447,-29.297,9.277,91.309,29.297,52.734,0
1483444858.451,-17.578,23.926,24.902,41.016,26.367,0
1483444858.454,-25.391,21.484,26.367,22.461,27.832,0
1483444858.458,-24.902,23.438,58.105,24.902,52.734,0
1483444858.462,1.953,44.434,-37.109,69.824,45.410,0
1483444858.466,-9.277,39.551,12.207,50.781,49.805,0
1483444858.470,-26.855,27.344,112.793,25.391,62.012,0
1483444858.474,-19.043,37.598,74.219,48.828,85.938,0
1483444858.478,-11.230,40.039,-4.883,55.176,73.242,0
1483444858.482,-27.832,24.414,42.480,25.879,88.867,0
1483444858.486,-34.668,26.367,65.918,20.996,114.258,0
1483444858.490,-23.438,38.574,-1.953,41.992,90.332,0
1483444858.494,-34.668,25.391,44.922,35.156,60.059,0
1483444858.497,-42.969,8.789,112.793,20.020,68.359,0
1483444858.501,-34.180,14.648,56.641,19.043,101.074,0
1483444858.505,-30.762,25.391,12.695,14.648,96.191,0
1483444858.509,-13.184,41.992,-63.477,49.316,88.379,0
1483444858.513,-13.184,41.992,-35.156,63.965,112.793,0
1483444858.517,-24.414,30.273,47.852,39.551,133.301,0
1483444858.521,-16.602,31.250,49.316,38.086,119.141,0
1483444858.525,-20.508,31.250,91.309,37.109,101.074,0
1483444858.529,-10.742,42.480,10.254,50.293,102.539,0
1483444858.533,-28.320,31.250,0.977,38.574,134.277,0
1483444858.536,-47.852,20.508,128.906,11.230,126.465,0
1483444858.540,-47.852,17.578,106.934,4.883,70.312,0
1483444858.544,-43.457,14.648,-20.508,8.789,80.078,0
1483444858.548,-38.574,21.973,-45.410,21.484,119.629,0
1483444858.552,-29.785,29.297,4.883,22.461,110.840,0
1483444858.556,-11.230,40.039,-18.066,38.086,119.629,0
1483444858.560,-24.902,26.367,47.363,36.133,87.402,0
1483444858.564,-39.551,8.789,116.211,22.461,87.891,0
1483444858.568,-24.902,21.973,37.598,33.691,105.469,0
1483444858.572,-23.926,34.668,13.184,47.363,61.523,0
1483444858.576,-43.457,16.602,85.449,29.297,71.289,0
1483444858.579,-49.316,4.883,101.074,19.531,105.469,0
1483444858.583,-36.621,14.648,85.938,21.973,111.328,0
1483444858.587,-21.484,32.227,19.531,37.109,99.609,0
1483444858.591,-13.184,41.016,-98.145,51.270,80.566,0
1483444858.595,-31.250,23.438,-50.293,35.645,92.285,0
1483444858.599,-47.363,11.230,55.664,25.391,88.379,0
1483444858.603,-46.387,11.719,109.375,15.625,62.012,0
1483444858.607,-30.762,28.320,70.312,34.668,81.055,0
1483444858.611,-26.855,36.621,20.996,40.527,129.395,0
1483444858.615,-33.203,27.344,90.332,27.832,83.496,0
1483444858.619,-27.832,31.738,70.312,30.273,55.176,0
1483444858.622,-21.973,37.109,-31.250,40.039,98.633,0
1483444858.626,-37.598,25.879,6.348,32.715,88.379,0
1483444858.630,-55.664,14.160,102.539,12.695,71.289,0
1483444858.634,-50.781,20.996,93.750,23.926,102.539,0
1483444858.638,-38.574,32.227,50.293,39.551,126.953,0
1483444858.642,-27.832,39.551,19.531,38.574,117.676,0
1483444858.646,-19.043,50.293,-48.828,53.223,100.586,0
1483444858.650,-16.113,53.711,-13.184,62.988,83.984,0
1483444858.654,-33.691,42.480,65.430,31.250,69.336,0
1483444858.658,-43.457,30.762,62.988,26.855,66.406,0
1483444858.661,-23.926,38.086,56.152,49.805,38.574,0
1483444858.665,-12.207,43.945,43.457,48.340,65.430,0
1483444858.669,-38.574,27.832,34.180,25.391,91.797,0
1483444858.673,-42.480,31.250,55.176,34.668,52.734,0
1483444858.677,-8.789,55.664,-74.707,68.359,32.227,0
1483444858.681,-7.812,51.758,-53.711,56.152,61.035,0
1483444858.685,-41.016,20.996,171.875,30.762,95.215,0
1483444858.689,-53.711,7.324,155.273,23.926,75.195,0
1483444858.693,-41.992,16.113,50.293,27.832,62.988,0
1483444858.697,-31.738,24.902,34.668,34.180,65.918,0
1483444858.701,-34.668,28.809,39.062,32.715,46.875,0
1483444858.704,-17.578,48.828,-60.059,54.199,27.832,0
1483444858.708,-5.859,63.477,-3.906,75.195,27.344,0
1483444858.712,-28.809,43.457,48.340,49.805,77.637,0
1483444858.716,-33.203,35.156,-17.578,36.133,78.125,0
1483444858.720,-41.016,27.832,69.824,34.180,32.715,0
1483444858.724,-51.758,19.531,98.633,22.949,23.438,0
1483444858.728,-52.246,20.996,48.340,26.367,41.504,0
1483444858.732,-42.969,27.832,36.133,38.086,64.453,0
1483444858.736,-35.645,36.621,43.457,41.992,48.828,0
1483444858.740,-49.316,28.320,55.176,30.273,44.922,0
1483444858.744,-49.316,26.855,11.230,16.113,62.012,0
1483444858.747,-33.691,36.621,5.859,30.273,48.340,0
1483444858.751,-29.785,41.504,6.836,44.434,31.250,0
1483444858.755,-49.316,31.738,23.926,23.926,27.344,0
1483444858.759,-64.941,19.531,26.367,4.883,25.391,0
1483444858.763,-33.691,44.922,-30.762,41.016,38.574,0
1483444858.767,-26.855,50.781,34.180,43.945,31.250,0
1483444858.771,-53.223,29.785,82.031,6.836,55.664,0
1483444858.775,-58.594,25.391,49.316,3.418,78.125,0
1483444858.779,-58.594,20.508,71.777,5.859,23.926,0
1483444858.783,-48.340,25.879,39.062,7.812,37.598,0
1483444858.786,-37.109,34.668,13.672,10.254,52.246,0
1483444858.790,-41.992,35.156,35.645,23.438,37.598,0
1483444858.794,-44.434,31.738,38.086,26.367,34.668,0
1483444858.798,-37.109,31.738,55.664,34.180,-23.438,0
1483444858.802,-41.992,29.297,46.387,37.109,18.555,0
1483444858.806,-33.691,36.133,27.344,42.969,58.105,0
1483444858.810,-35.645,31.250,13.184,28.809,60.547,0
1483444858.814,-55.664,14.160,50.293,2.441,52.246,0
1483444858.818,-38.086,25.391,1.953,28.809,57.129,0
1483444858.822,-28.809,34.668,-24.902,45.410,73.730,0
1483444858.826,-51.758,23.438,64.453,24.902,66.406,0
1483444858.829,-57.617,17.578,94.238,1.465,72.266,0
1483444858.833,-48.340,21.484,104.980,5.371,83.984,0
1483444858.837,-24.902,46.387,37.598,43.457,67.871,0
1483444858.841,-8.301,58.105,-70.312,63.965,10.254,0
1483444858.845,-29.785,32.715,11.230,34.668,24.414,0
1483444858.849,-49.805,19.043,78.613,15.137,64.941,0
1483444858.853,-48.828,19.043,46.387,22.949,55.176,0
1483444858.857,-44.434,17.578,46.387,22.949,35.156,0
1483444858.861,-43.457,20.508,15.137,24.414,46.875,0
1483444858.865,-25.879,35.645,-116.699,49.805,43.945,0
1483444858.869,-16.602,44.922,-95.703,59.082,7.324,0
1483444858.872,-40.527,31.250,110.352,39.551,30.762,0
1483444858.876,-36.133,31.250,83.008,45.410,53.711,0
1483444858.880,-34.668,32.227,24.902,38.574,46.387,0
1483444858.884,-41.992,24.902,75.195,31.250,34.668,0
1483444858.888,-48.828,18.066,57.617,32.227,32.227,0
1483444858.892,-57.129,14.648,28.320,23.438,30.762,0
1483444858.896,-48.828,19.043,7.812,23.926,33.691,0
1483444858.900,-43.457,26.855,14.648,16.113,-3.418,0
1483444858.904,-28.809,42.969,-37.598,41.504,-3.418,0
1483444858.908,-28.809,42.969,-75.195,58.594,21.973,0
1483444858.911,-36.133,33.203,-12.207,45.898,8.301,0
1483444858.915,-30.273,34.668,53.711,34.180,-10.254,0
1483444858.919,-40.039,32.227,101.562,29.297,-14.648,0
1483444858.923,-52.734,22.949,72.754,19.531,-4.395,0
1483444858.927,-40.527,23.926,-2.930,22.461,1.953,0
1483444858.931,-32.715,31.250,-54.199,39.062,2.930,0
1483444858.935,-26.855,39.062,-5.859,38.574,-18.555,0
1483444858.939,-19.531,45.410,0.977,48.340,-15.137,0
1483444858.943,-31.250,34.180,-28.320,41.504,-11.719,0
1483444858.947,-30.273,32.715,8.789,34.180,-41.016,0
1483444858.951,-31.738,32.227,19.043,33.691,-46.387,0
1483444858.954,-38.574,25.879,0.000,30.273,-28.320,0
1483444858.958,-36.621,27.344,33.203,31.250,-22.949,0
1483444858.962,-23.438,37.109,20.020,43.457,-29.297,0
1483444858.966,-22.949,40.039,-39.062,49.805,-5.859,0
1483444858.970,-39.551,24.902,10.742,34.668,8.301,0
1483444858.974,-47.363,15.625,66.895,21.973,0.488,0
1483444858.978,-45.898,19.043,67.383,24.902,1.465,0
1483444858.982,-36.621,27.832,50.293,34.668,11.719,0
1483444858.986,-32.227,30.762,4.883,37.109,40.039,0
1483444858.990,-28.320,36.133,-5.371,46.387,11.230,0
1483444858.994,-32.227,38.574,51.758,38.086,8.789,0
1483444858.997,-45.410,23.438,109.863,16.113,47.852,0
1483444859.001,-38.086,25.879,87.891,19.531,26.855,0
1483444859.005,-29.297,40.527,26.855,26.367,26.367,0
1483444859.009,-30.273,40.039,21.484,38.574,35.156,0
1483444859.013,-47.363,19.043,130.371,18.066,22.949,0
1483444859.017,-49.805,15.625,151.855,6.348,41.992,0
1483444859.021,-36.133,25.879,84.473,27.344,37.598,0
1483444859.025,-39.551,25.391,50.293,36.621,18.066,0
1483444859.029,-38.574,28.320,33.691,38.574,7.324,0
1483444859.033,-29.297,35.645,41.016,42.480,16.113,0
1483444859.036,-28.320,34.668,73.730,41.504,-6.836,0
1483444859.040,-25.391,34.180,72.266,37.109,-14.648,0
1483444859.044,-7.324,47.852,-29.297,65.918,59.570,0
1483444859.048,-16.113,38.086,-29.785,60.059,66.895,0
1483444859.052,-54.688,2.930,100.586,10.742,53.711,0
1483444859.056,-69.336,-6.836,106.445,-4.395,72.754,0
1483444859.060,-62.988,2.441,75.684,6.348,104.980,0
1483444859.064,-51.758,14.648,23.926,20.020,134.766,0
1483444859.068,-40.039,28.320,-24.414,19.531,102.051,0
1483444859.072,-40.039,26.367,51.270,24.902,82.031,0
1483444859.076,-27.344,33.691,72.266,48.340,98.145,0
1483444859.079,-3.906,55.664,-62.500,68.359,108.887,0
1483444859.083,-23.438,41.992,-11.719,48.340,115.723,0
1483444859.087,-53.223,23.926,122.559,9.277,175.293,0
1483444859.091,-42.480,33.691,91.309,22.949,178.711,0
1483444859.095,-29.785,35.156,78.125,37.109,118.164,0
1483444859.099,-20.508,43.945,3.418,50.293,101.074,0
1483444859.103,-5.371,53.711,-107.422,62.012,145.020,0
1483444859.107,-21.973,36.133,12.207,39.551,156.738,0
1483444859.111,-32.227,31.738,164.551,36.133,119.141,0
1483444859.115,-41.016,26.855,130.371,24.902,136.230,0
1483444859.119,-50.293,17.090,67.871,5.371,137.695,0
1483444859.122,-45.410,20.020,86.426,15.137,101.074,0
1483444859.126,-30.273,35.645,33.691,41.016,98.145,0
1483444859.130,-24.414,40.527,-11.230,40.039,108.887,0
1483444859.134,-21.973,39.062,12.695,39.551,74.219,0
1483444859.138,-8.789,45.410,3.418,59.570,42.969,0
1483444859.142,-30.273,27.832,54.688,41.504,27.832,0
1483444859.146,-44.434,18.555,109.863,24.902,34.180,0
1483444859.150,-30.762,29.785,14.160,33.691,45.410,0
1483444859.154,-25.391,34.668,-33.203,45.898,22.949,0
1483444859.158,-32.227,25.879,66.406,39.062,-0.488,0
1483444859.161,-43.945,13.184,75.195,17.578,27.832,0
1483444859.165,-46.387,17.090,50.293,19.043,29.297,0
1483444859.169,-43.945,21.973,62.988,18.555,-16.602,0
1483444859.173,-33.691,29.785,-14.648,37.598,-27.832,0
1483444859.177,-18.555,45.410,-93.262,53.223,-19.531,0
1483444859.181,-26.855,42.969,-14.160,41.016,-26.855,0
1483444859.185,-33.203,35.156,51.758,33.691,-0.488,0
1483444859.189,-35.156,30.273,89.355,35.156,-11.719,0
1483444859.193,-49.316,20.508,83.008,28.809,-40.039,0
1483444859.197,-50.293,18.066,22.949,19.531,-5.859,0
1483444859.201,-49.316,19.531,-9.277,15.137,-24.414,0
1483444859.204,-45.410,23.926,41.504,23.438,-30.762,0
1483444859.208,-43.945,25.879,40.039,40.039,-34.180,0
1483444859.212,-30.762,36.621,-35.645,56.152,-48.340,0
1483444859.216,-32.227,28.320,40.527,44.434,-40.039,0
1483444859.220,-47.852,18.066,66.406,17.090,-31.250,0
1483444859.224,-41.016,31.250,5.371,29.785,19.531,0
1483444859.228,-32.715,36.621,83.008,43.945,28.809,0
1483444859.232,-27.832,37.598,56.152,46.387,22.949,0
1483444859.236,-38.574,24.902,26.367,33.691,54.199,0
1483444859.240,-50.781,16.113,82.031,30.273,80.566,0
1483444859.244,-29.785,31.250,-6.348,52.734,69.824,0
1483444859.247,-25.879,36.621,-70.312,56.152,40.039,0
1483444859.251,-43.945,24.414,54.199,28.320,34.180,0
1483444859.255,-53.711,13.672,84.473,6.348,52.246,0
1483444859.259,-49.316,16.113,52.734,8.789,50.781,0
1483444859.263,-38.574,23.438,71.289,29.785,0.977,0
1483444859.267,-30.273,30.762,-12.207,41.992,38.574,0
1483444859.271,-14.648,47.852,-22.949,53.223,56.152,0
1483444859.275,-13.184,47.363,55.176,63.965,6.348,0
1483444859.279,-24.414,34.180,8.301,48.828,14.160,0
1483444859.283,-32.715,30.762,-30.762,32.227,53.711,0
1483444859.286,-38.574,24.414,57.129,34.668,32.227,0
1483444859.290,-44.922,15.137,117.188,31.738,0.488,0
1483444859.294,-44.434,18.555,70.801,27.344,24.902,0
1483444859.298,-28.809,33.691,10.254,44.434,45.410,0
1483444859.302,-6.836,52.734,-30.762,73.242,48.828,0
1483444859.306,-13.184,49.316,-34.180,61.035,42.969,0
1483444859.310,-38.086,27.832,20.996,32.227,32.227,0
1483444859.314,-39.062,21.973,36.621,33.203,20.508,0
1483444859.318,-42.969,14.648,78.125,33.203,-4.395,0
1483444859.322,-32.227,22.461,85.938,38.574,-18.066,0
1483444859.326,-29.297,27.344,78.613,27.344,-4.395,0
1483444859.329,-44.434,17.578,7.812,16.602,52.246,0
1483444859.333,-24.902,29.785,-77.637,48.828,55.176,0
1483444859.337,-30.762,23.438,33.203,41.016,-1.465,0
1483444859.341,-57.617,8.301,118.652,25.391,2.441,0
1483444859.345,-42.480,19.531,53.223,38.574,14.160,0
1483444859.349,-21.484,38.086,-24.902,47.852,32.227,0
1483444859.353,-22.949,39.551,11.719,49.805,30.762,0
1483444859.357,-33.691,30.273,21.973,41.504,13.672,0
1483444859.361,-42.480,20.020,81.543,31.738,33.691,0
1483444859.365,-44.922,21.973,97.656,19.043,39.062,0
1483444859.369,-25.391,37.598,-22.949,46.875,18.066,0
1483444859.372,-20.020,39.062,-56.641,63.477,66.895,0
1483444859.376,-44.922,24.902,64.941,27.832,112.305,0
1483444859.380,-49.316,16.602,134.277,20.996,64.453,0
1483444859.384,-52.246,16.113,34.180,28.320,59.570,0
1483444859.388,-53.711,20.996,-29.297,34.668,109.863,0
1483444859.392,-44.922,27.344,54.688,37.109,141.602,0
1483444859.396,-40.039,32.715,79.102,26.855,126.465,0
1483444859.400,-38.574,33.691,42.480,27.832,117.188,0
1483444859.404,-43.945,35.645,49.316,28.320,170.898,0
1483444859.408,-53.711,28.809,71.289,19.531,186.523,0
1483444859.411,-39.062,41.992,-34.668,42.969,152.832,0
1483444859.415,-29.297,54.688,-119.629,55.664,206.543,0
1483444859.419,-33.691,45.410,-59.082,47.363,263.672,0
1483444859.423,-35.156,39.062,-25.879,46.387,246.582,0
1483444859.427,-52.246,24.902,92.773,24.414,231.934,0
1483444859.431,-60.547,22.461,172.852,8.789,264.160,0
1483444859.435,-46.387,32.227,135.254,13.184,265.137,0
1483444859.439,-28.320,45.898,48.828,36.621,224.121,0
1483444859.443,-29.297,45.898,0.000,48.828,215.820,0
1483444859.447,-39.062,31.738,25.879,36.133,221.680,0
1483444859.451,-22.461,43.457,-74.219,40.527,218.262,0
1483444859.454,-10.254,55.176,-105.957,55.176,194.824,0
1483444859.458,-37.109,34.668,48.828,35.156,184.082,0
1483444859.462,-45.898,20.508,88.379,8.301,181.641,0
1483444859.466,-40.039,28.809,38.086,11.719,165.527,0
1483444859.470,-34.668,38.086,66.895,31.738,118.164,0
1483444859.474,-39.062,27.832,67.871,25.391,75.195,0
1483444859.478,-44.434,24.414,14.648,17.090,102.539,0
1483444859.482,-32.715,32.715,11.719,28.809,108.398,0
1483444859.486,-20.996,39.062,-50.781,41.992,69.824,0
1483444859.490,-11.719,45.898,-138.184,47.363,50.293,0
1483444859.494,-20.508,42.480,-41.016,34.668,74.707,0
1483444859.497,-39.062,30.273,107.422,18.066,81.543,0
1483444859.501,-37.109,32.715,106.445,22.461,83.984,0
1483444859.505,-26.855,45.898,42.480,32.227,92.773,0
1483444859.509,-29.785,46.875,6.836,27.832,84.473,0
1483444859.513,-30.273,42.969,-23.926,24.414,109.863,0
1483444859.517,-31.250,41.992,0.488,29.785,102.539,0
1483444859.521,-42.969,31.738,0.977,20.996,87.402,0
1483444859.525,-38.086,31.250,-39.062,19.531,103.516,0
1483444859.529,-16.602,44.434,-128.418,39.551,93.262,0
1483444859.533,-20.508,41.504,-50.781,43.945,87.891,0
1483444859.536,-30.762,36.133,85.938,42.969,126.465,0
1483444859.540,-35.156,32.227,69.824,35.645,144.531,0
1483444859.544,-45.898,15.625,76.172,9.766,105.957,0
1483444859.548,-43.457,14.160,33.203,12.695,83.008,0
1483444859.552,-33.691,29.297,-42.969,33.203,93.262,0
1483444859.556,-29.785,39.551,-61.523,38.574,97.656,0
1483444859.560,-27.832,38.086,-66.406,38.574,48.340,0
1483444859.564,-25.879,34.180,-54.688,46.387,45.898,0
1483444859.568,-29.785,38.086,-51.270,42.969,100.586,0
1483444859.572,-33.691,36.621,2.930,32.715,75.684,0
1483444859.576,-50.781,21.973,58.105,11.230,72.266,0
1483444859.579,-42.969,27.832,7.324,8.789,92.773,0
1483444859.583,-33.203,38.574,10.742,30.273,89.355,0
1483444859.587,-33.691,37.109,13.184,32.715,83.984,0
1483444859.591,-25.879,39.551,14.160,44.922,46.875,0
1483444859.595,-37.109,27.344,0.000,38.574,69.824,0
1483444859.599,-42.480,26.367,-10.742,27.832,128.418,0
1483444859.603,-26.367,38.574,66.406,38.086,131.836,0
1483444859.607,-25.391,33.691,103.516,34.180,98.145,0
1483444859.611,-29.297,34.180,79.590,37.598,83.008,0
1483444859.615,-31.738,36.133,73.242,36.133,118.164,0
1483444859.619,-39.551,24.902,87.891,20.508,95.215,0
1483444859.622,-42.969,24.414,97.656,22.949,36.133,0
1483444859.626,-37.109,31.250,71.289,31.738,44.434,0
1483444859.630,-32.227,31.738,52.734,32.715,70.312,0
1483444859.634,-24.414,41.992,15.137,41.504,73.242,0
1483444859.638,-23.926,46.387,-9.277,44.434,44.434,0
1483444859.642,-29.785,42.480,51.758,41.016,61.035,0
1483444859.646,-14.160,49.805,75.684,41.992,62.012,0
1483444859.650,-22.949,41.504,104.004,21.973,21.973,0
1483444859.654,-23.926,38.574,89.844,31.738,-2.930,0
1483444859.658,-25.879,39.062,24.414,41.504,7.812,0
1483444859.661,-43.457,21.973,23.438,18.555,27.832,0
1483444859.665,-38.086,19.043,54.199,14.160,4.395,0
1483444859.669,-35.156,26.367,79.102,9.766,-17.090,0
1483444859.673,-31.250,29.785,57.617,27.344,6.836,0
1483444859.677,-23.438,30.762,9.766,38.086,18.555,0
1483444859.681,-18.555,36.621,8.789,29.785,-34.668,0
1483444859.685,-22.461,29.297,37.109,36.621,-73.242,0
1483444859.689,-21.484,28.809,19.531,49.805,-39.062,0
1483444859.693,-17.578,41.016,26.855,49.805,-34.668,0
1483444859.697,-26.855,32.227,95.703,34.668,-85.449,0
1483444859.701,-40.527,20.996,71.777,24.414,-75.195,0
1483444859.704,-41.016,26.367,14.160,23.438,-35.645,0
1483444859.708,-35.156,32.715,44.922,25.879,-69.824,0
1483444859.712,-28.809,36.133,11.230,36.133,-87.402,0
1483444859.716,-24.902,39.062,12.207,39.551,-80.566,0
1483444859.720,-30.273,30.273,47.363,28.809,-77.637,0
1483444859.724,-35.645,20.020,59.082,26.855,-89.355,0
1483444859.728,-34.668,22.949,54.199,30.273,-94.727,0
1483444859.732,-16.113,39.551,-13.672,50.293,-79.102,0
1483444859.736,-3.906,53.223,-43.457,57.129,-57.617,0
1483444859.740,-28.320,34.668,41.992,31.738,-64.941,0
1483444859.744,-42.480,23.438,108.887,25.879,-100.586,0
1483444859.747,-41.504,24.902,100.586,23.926,-72.754,0
1483444859.751,-47.363,23.438,77.637,13.184,-64.453,0
1483444859.755,-41.016,33.203,40.039,21.484,-68.359,0
1483444859.759,-20.508,48.828,21.973,47.852,-59.082,0
1483444859.763,-32.715,36.133,29.297,38.574,-64.941,0
1483444859.767,-42.480,19.043,2.441,19.531,-71.289,0
1483444859.771,-35.645,23.926,8.789,26.855,-61.035,0
1483444859.775,-27.832,33.203,37.109,41.992,-78.613,0
1483444859.779,-7.812,42.969,-35.156,64.453,-91.797,0
1483444859.783,-17.090,34.180,-25.391,58.105,-63.965,0
1483444859.786,-45.898,14.648,127.930,23.926,-95.215,0
1483444859.790,-50.781,14.648,122.070,11.719,-108.887,0
1483444859.794,-31.250,30.762,52.734,38.574,-60.059,0
1483444859.798,-14.160,42.969,41.992,48.340,-45.410,0
1483444859.802,-27.344,37.109,27.832,28.809,-54.688,0
1483444859.806,-45.410,26.855,39.062,21.484,-30.273,0
1483444859.810,-42.969,30.273,55.176,22.949,-0.488,0
1483444859.814,-24.414,42.480,58.594,39.551,-19.043,0
1483444859.818,-10.742,54.199,-1.953,49.805,-31.250,0
1483444859.822,-17.090,50.293,-25.879,37.598,-20.996,0
1483444859.826,-43.945,31.738,55.176,16.602,-9.766,0
1483444859.829,-45.410,30.762,13.672,15.625,-7.324,0
1483444859.833,-32.227,35.156,8.789,16.113,-9.277,0
1483444859.837,-28.809,37.598,50.781,26.855,12.695,0
1483444859.841,-21.484,37.598,7.812,37.598,9.766,0
1483444859.845,-13.672,41.992,19.043,48.340,-7.324,0
1483444859.849,-25.391,41.016,43.945,40.039,-4.395,0
1483444859.853,-38.574,27.832,54.199,9.766,19.043,0
1483444859.857,-34.668,25.391,60.547,14.160,7.812,0
1483444859.861,-28.809,32.227,-4.883,25.391,7.324,0
1483444859.865,-16.602,42.969,-26.367,29.297,52.246,0
1483444859.869,-11.719,45.898,10.254,37.109,52.246,0
1483444859.872,-25.879,36.621,56.641,33.691,62.500,0
1483444859.876,-33.203,32.227,80.566,12.207,29.297,0
1483444859.880,-16.602,41.016,-37.598,31.250,16.113,0
1483444859.884,-14.160,43.457,-68.359,39.551,78.613,0
1483444859.888,-38.574,30.762,73.730,14.160,61.523,0
1483444859.892,-49.805,22.461,95.703,2.930,42.480,0
1483444859.896,-39.551,28.320,33.691,13.184,60.547,0
1483444859.900,-28.320,36.621,-41.504,28.320,75.195,0
1483444859.904,-24.902,38.574,10.742,23.926,76.660,0
1483444859.908,-29.785,38.574,64.941,17.090,87.891,0
1483444859.911,-44.922,30.273,25.391,6.348,108.398,0
1483444859.915,-48.340,24.902,49.316,6.836,87.402,0
1483444859.919,-32.715,32.227,40.527,20.508,62.012,0
1483444859.923,-16.113,48.340,-45.410,41.016,48.828,0
1483444859.927,-30.762,36.621,-51.270,19.531,67.871,0
1483444859.931,-52.246,20.020,55.176,-6.348,94.727,0
1483444859.935,-53.711,19.531,76.172,1.465,104.004,0
1483444859.939,-44.434,24.414,15.137,17.578,84.961,0
1483444859.943,-29.297,38.574,25.879,22.461,75.684,0
1483444859.947,-35.645,37.598,68.848,19.531,77.637,0
1483444859.951,-40.039,29.785,45.898,23.926,62.500,0
1483444859.954,-27.344,35.645,11.230,29.297,54.688,0
1483444859.958,-31.738,34.668,11.719,23.438,41.504,0
1483444859.962,-24.902,40.527,4.395,43.945,39.062,0
1483444859.966,-22.461,41.016,15.625,48.828,14.648,0
1483444859.970,-49.316,20.020,31.250,12.695,0.000,0
1483444859.974,-50.781,18.555,20.996,4.395,37.109,0
1483444859.978,-40.039,27.344,33.203,10.742,29.785,0
1483444859.982,-36.133,29.785,5.371,26.367,-13.184,0
1483444859.986,-42.969,27.832,0.000,31.738,14.648,0
1483444859.990,-35.156,36.133,14.160,35.156,21.484,0
1483444859.994,-31.250,36.133,30.762,28.320,-0.977,0
1483444859.997,-41.992,23.438,67.383,17.578,41.992,0
1483444860.001,-41.504,20.508,42.480,13.184,34.180,0
1483444860.005,-23.438,31.738,-24.902,27.832,11.230,0
1483444860.009,-16.113,38.086,-14.648,48.340,-6.836,0
1483444860.013,-23.926,36.133,-5.859,41.016,11.719,0
1483444860.017,-27.832,31.250,0.000,32.227,38.086,0
1483444860.021,-30.762,30.273,49.805,33.691,38.086,0
1483444860.025,-21.973,39.062,63.477,41.016,19.043,0
1483444860.029,-20.508,36.621,64.453,43.945,4.395,0
1483444860.033,-27.344,29.785,30.762,41.016,37.109,0
1483444860.036,-30.273,24.414,41.504,33.691,77.637,0
1483444860.040,-31.250,21.484,38.086,28.809,59.570,0
1483444860.044,-30.762,25.879,-10.742,37.109,36.621,0
1483444860.048,-20.996,37.598,20.508,47.363,70.312,0
1483444860.052,-0.977,52.734,-41.504,68.359,63.965,0
1483444860.056,-13.184,39.551,-80.078,65.430,-2.930,0
1483444860.060,-39.551,20.020,55.176,27.832,-1.953,0
1483444860.064,-38.574,20.020,106.934,21.973,29.785,0
1483444860.068,-28.320,26.367,65.430,45.410,9.277,0
1483444860.072,-14.160,36.621,46.387,52.246,22.949,0
1483444860.076,-25.391,29.297,30.273,42.969,20.508,0
1483444860.079,-44.922,14.648,6.348,34.668,22.949,0
1483444860.083,-34.180,24.902,11.719,32.715,24.902,0
1483444860.087,-23.926,37.109,1.465,40.039,-22.461,0
1483444860.091,-23.438,43.457,0.000,48.828,-11.719,0
1483444860.095,-30.273,37.109,11.719,38.086,32.715,0
1483444860.099,-48.340,16.113,46.875,19.043,24.414,0
1483444860.103,-48.828,15.625,11.230,9.766,-2.441,0
1483444860.107,-30.273,37.598,-23.926,23.926,-3.418,0
1483444860.111,-39.062,36.133,13.184,24.902,26.367,0
1483444860.115,-46.387,25.391,38.086,24.414,39.551,0
1483444860.119,-45.898,28.809,9.766,17.578,23.438,0
1483444860.122,-59.082,25.391,-13.672,-3.906,48.828,0
1483444860.126,-54.688,26.367,20.508,5.859,86.426,0
1483444860.130,-39.551,34.668,25.391,20.996,89.355,0
1483444860.134,-33.203,39.062,1.953,22.461,98.145,0
1483444860.138,-42.969,29.297,-43.945,27.832,87.891,0
1483444860.142,-41.992,31.738,-47.363,41.016,104.492,0
1483444860.146,-41.992,30.273,2.441,30.273,111.328,0
1483444860.150,-47.363,25.879,-27.344,22.461,124.512,0
1483444860.154,-43.457,33.691,7.812,20.020,174.805,0
1483444860.158,-49.805,29.297,79.102,13.184,164.551,0
1483444860.161,-36.621,41.504,-25.391,38.086,152.344,0
1483444860.165,-36.133,42.480,-51.758,27.832,201.172,0
1483444860.169,-50.781,29.297,61.523,9.277,226.562,0
1483444860.173,-27.344,47.852,32.227,42.969,225.098,0
1483444860.177,-30.762,42.969,-43.457,37.598,237.305,0
1483444860.181,-66.895,15.137,25.391,4.883,264.648,0
1483444860.185,-59.082,18.555,0.488,8.301,310.547,0
1483444860.189,-37.109,31.250,-60.059,28.320,315.430,0
1483444860.193,-45.898,24.902,12.207,21.484,284.668,0
1483444860.197,-31.738,32.227,-58.594,38.086,285.645,0
1483444860.201,-30.762,30.273,-86.914,38.574,302.734,0
1483444860.204,-41.992,18.066,20.996,28.809,290.039,0
1483444860.208,-28.809,26.855,39.062,33.691,283.203,0
1483444860.212,-29.297,35.156,18.555,36.621,337.891,0
1483444860.216,-34.180,35.645,-53.711,47.363,344.238,0
1483444860.220,-43.945,24.902,-35.645,24.902,299.805,0
1483444860.224,-48.340,22.949,38.086,11.719,310.059,0
1483444860.228,-38.086,37.109,-74.707,29.785,354.980,0
1483444860.232,-24.902,49.316,-145.996,47.852,369.141,0
1483444860.236,-30.273,40.527,-15.137,39.062,391.113,0
1483444860.240,-52.734,17.578,69.824,13.672,404.785,0
1483444860.244,-54.199,16.602,77.148,2.441,385.254,0
1483444860.247,-43.945,24.902,3.418,20.508,380.859,0
1483444860.251,-37.109,31.250,-17.578,26.367,376.953,0
1483444860.255,-43.457,32.715,13.184,13.672,381.836,0
1483444860.259,-55.664,28.809,41.016,27.344,427.246,0
1483444860.263,-42.969,34.180,25.391,34.180,463.379,0
1483444860.267,-28.320,41.504,4.883,31.250,455.566,0
1483444860.271,-40.039,32.715,57.129,22.949,480.469,0
1483444860.275,-50.781,24.414,104.004,18.555,516.602,0
1483444860.279,-49.316,26.855,135.742,22.461,506.836,0
1483444860.283,-40.527,33.203,108.887,31.738,509.277,0
1483444860.286,-31.738,38.574,72.754,41.504,551.270,0
1483444860.290,-37.109,36.621,85.449,31.738,564.941,0
1483444860.294,-34.668,40.039,85.449,31.738,528.320,0
1483444860.298,-22.949,47.363,-24.902,53.711,507.812,0
1483444860.302,-20.996,47.363,-86.914,57.617,550.781,0
1483444860.306,-40.527,33.203,89.355,35.156,584.961,0
1483444860.310,-65.918,15.625,195.312,6.348,578.125,0
1483444860.314,-57.129,20.508,129.883,11.719,567.871,0
1483444860.318,-40.039,35.156,51.758,31.250,585.449,0
1483444860.322,-40.527,41.504,46.875,29.785,595.215,0
1483444860.326,-32.715,45.898,5.859,32.715,589.844,0
1483444860.329,-22.461,45.898,-21.484,40.039,593.750,0
1483444860.333,-33.691,41.504,92.285,30.762,607.910,0
1483444860.337,-28.320,52.246,113.770,40.527,600.586,0
1483444860.341,-18.555,61.035,7.812,51.758,569.824,0
1483444860.345,-40.039,42.969,-17.578,26.367,590.820,0
1483444860.349,-60.059,25.879,96.680,3.906,629.883,0
1483444860.353,-50.781,25.879,128.418,6.348,615.234,0
1483444860.357,-48.340,28.320,62.012,11.719,610.352,0
1483444860.361,-46.875,37.598,-1.953,20.508,612.793,0
1483444860.365,-31.738,51.270,-20.508,42.480,595.215,0
1483444860.369,-18.066,58.594,-22.461,52.246,584.473,0
1483444860.372,-36.133,42.480,52.246,29.297,585.938,0
1483444860.376,-56.152,29.297,121.582,12.207,612.793,0
1483444860.380,-39.551,40.527,67.383,35.645,642.090,0
1483444860.384,-29.297,41.504,20.996,36.621,624.023,0
1483444860.388,-34.668,34.180,57.129,24.902,600.098,0
1483444860.392,-34.668,32.227,20.996,33.691,632.324,0
1483444860.396,-31.250,36.621,-56.152,40.527,648.926,0
1483444860.400,-41.504,29.785,45.410,23.438,646.973,0
1483444860.404,-32.227,30.762,67.871,22.949,691.895,0
1483444860.408,-18.555,35.156,-10.254,35.156,736.816,0
1483444860.411,-22.461,33.203,49.805,31.738,738.770,0
1483444860.415,-7.812,48.828,62.988,46.875,758.789,0
1483444860.419,-12.695,46.387,62.500,44.434,784.180,0
1483444860.423,-42.969,20.508,104.980,10.742,786.133,0
1483444860.427,-39.062,19.531,56.152,-3.418,790.039,0
1483444860.431,-20.508,33.203,11.230,18.555,770.508,0
1483444860.435,-8.789,47.363,35.156,44.922,786.133,0
1483444860.439,-7.812,52.246,56.641,40.527,828.125,0
1483444860.443,-29.297,35.156,66.895,9.766,849.121,0
1483444860.447,-27.344,32.715,64.453,15.625,867.188,0
1483444860.451,-18.555,40.039,5.371,32.715,888.672,0
1483444860.454,-39.551,24.902,34.668,-2.441,962.402,0
1483444860.458,-47.852,18.066,96.191,-11.230,-998.535,0
1483444860.462,-14.648,47.363,-24.902,33.691,997.559,0
1483444860.466,-3.418,59.082,-74.707,44.922,999.023,0
1483444860.470,-31.250,32.715,89.355,11.230,999.512,0
1483444860.474,-28.320,23.438,96.191,10.742,999.512,0
1483444860.478,-17.578,36.621,9.277,31.738,999.512,0
1483444860.482,-25.879,35.156,89.844,18.555,999.512,0
1483444860.486,-30.762,30.762,137.207,5.371,999.512,0
1483444860.490,-25.879,31.250,85.449,8.301,999.512,0
1483444860.494,-21.484,32.715,58.105,24.414,999.512,0
1483444860.497,-22.461,37.109,37.109,22.949,999.512,0
1483444860.501,-17.578,39.062,-48.340,29.785,998.047,0
1483444860.505,-4.883,49.805,-142.578,44.922,-999.023,0
1483444860.509,-10.254,46.387,-63.965,39.062,985.352,0
1483444860.513,-33.691,23.438,112.793,15.625,954.590,0
1483444860.517,-38.574,22.461,157.715,9.766,958.008,0
1483444860.521,-22.461,38.086,43.945,26.367,956.543,0
1483444860.525,-11.230,35.645,-45.898,41.992,909.668,0
1483444860.529,-34.180,13.184,69.824,20.996,875.000,0
1483444860.533,-36.621,9.277,101.074,7.324,854.980,0
1483444860.536,-18.555,19.531,104.492,25.879,812.012,0
1483444860.540,-16.602,25.391,101.562,32.715,800.293,0
1483444860.544,-16.113,31.250,-0.977,34.668,818.359,0
1483444860.548,-25.879,25.391,-2.930,34.180,818.848,0
1483444860.552,-15.137,37.598,58.594,49.316,787.109,0
1483444860.556,-11.719,40.527,10.254,54.688,769.531,0
1483444860.560,-10.254,30.762,-164.062,57.129,780.273,0
1483444860.564,-12.695,25.879,-38.574,43.945,761.719,0
1483444860.568,-42.969,1.465,169.922,10.742,732.910,0
1483444860.572,-54.199,-5.371,141.113,10.742,708.008,0
1483444860.576,-41.992,6.836,88.867,26.367,681.641,0
1483444860.579,-30.273,16.602,78.613,36.621,667.969,0
1483444860.583,-5.859,37.598,-37.109,61.035,634.277,0
1483444860.587,-8.789,42.480,-77.637,56.152,658.691,0
1483444860.591,-34.668,32.227,59.082,30.273,662.109,0
1483444860.595,-40.527,30.273,85.449,20.996,620.117,0
1483444860.599,-52.246,16.113,52.734,-1.465,593.750,0
1483444860.603,-52.246,15.625,32.227,0.000,563.477,0
1483444860.607,-34.180,35.156,-54.688,34.180,542.480,0
1483444860.611,-30.762,43.945,-40.527,39.551,470.215,0
1483444860.615,-38.574,39.062,74.707,29.785,460.449,0
1483444860.619,-48.828,26.855,71.777,13.672,486.328,0
1483444860.622,-44.434,31.250,-2.441,17.578,456.543,0
1483444860.626,-26.367,45.898,64.941,37.598,416.992,0
1483444860.630,-22.949,45.898,12.695,40.039,406.250,0
1483444860.634,-35.156,36.133,-74.219,20.996,404.785,0
1483444860.638,-44.434,28.809,114.258,17.090,384.277,0
1483444860.642,-42.969,28.809,79.102,36.133,347.168,0
1483444860.646,-28.320,37.598,-128.418,51.270,321.289,0
1483444860.650,-35.645,31.250,-21.973,40.527,310.547,0
1483444860.654,-60.059,12.207,155.273,8.789,280.762,0
1483444860.658,-61.523,9.766,131.836,5.859,257.324,0
1483444860.661,-53.223,13.672,58.105,15.137,249.512,0
1483444860.665,-37.109,24.902,-43.457,25.391,238.281,0
1483444860.669,-24.902,38.574,-37.109,39.062,205.078,0
1483444860.673,-26.367,38.574,29.785,37.109,175.781,0
1483444860.677,-41.992,23.926,32.227,20.996,183.105,0
1483444860.681,-41.504,25.879,0.977,32.227,216.797,0
1483444860.685,-26.855,41.504,-53.711,51.758,195.312,0
1483444860.689,-41.504,32.227,15.137,30.273,155.273,0
1483444860.693,-56.641,20.508,91.797,9.277,166.016,0
1483444860.697,-46.387,26.367,5.859,19.531,136.719,0
1483444860.701,-39.062,31.738,-39.551,28.809,114.746,0
1483444860.704,-49.805,24.902,-28.320,20.996,115.723,0
1483444860.708,-48.340,21.484,7.812,14.160,108.887,0
1483444860.712,-47.363,20.996,87.402,17.578,89.844,0
1483444860.716,-52.246,21.973,53.711,24.902,85.449,0
1483444860.720,-44.922,32.227,19.531,25.391,112.793,0
1483444860.724,-39.551,37.598,9.766,31.738,132.324,0
1483444860.728,-40.527,36.133,4.883,39.062,87.402,0
1483444860.732,-37.109,42.969,-65.430,40.039,69.336,0
1483444860.736,-35.645,44.922,-164.551,43.945,57.617,0
1483444860.740,-37.109,44.922,-151.855,44.922,83.496,0
1483444860.744,-50.781,29.785,41.016,15.137,88.379,0
1483444860.747,-63.477,16.113,158.203,-6.348,59.082,0
1483444860.751,-66.406,15.625,101.074,-5.859,57.617,0
1483444860.755,-45.898,31.738,43.945,13.184,73.730,0
1483444860.759,-20.996,54.688,-0.488,47.363,20.020,0
1483444860.763,-39.062,42.480,-42.480,42.480,-28.320,0
1483444860.767,-59.570,22.949,-22.461,9.766,13.672,0
1483444860.771,-44.922,34.180,-3.418,18.555,15.625,0
1483444860.775,-35.156,42.969,10.254,31.250,-44.434,0
1483444860.779,-40.527,40.039,-22.461,34.180,-67.383,0
1483444860.783,-28.809,55.664,-125.488,45.898,-57.129,0
1483444860.786,-24.902,56.641,-73.730,41.992,-52.246,0
1483444860.790,-36.133,41.504,32.715,34.668,-63.477,0
1483444860.794,-38.086,37.109,1.953,37.598,-84.473,0
1483444860.798,-42.480,32.715,20.996,28.320,-71.289,0
1483444860.802,-40.039,37.109,32.227,22.461,-66.895,0
1483444860.806,-32.715,39.551,-20.508,37.598,-99.121,0
1483444860.810,-34.668,30.273,-34.180,41.992,-115.234,0
1483444860.814,-48.340,24.902,-3.418,29.785,-123.047,0
1483444860.818,-49.805,31.250,-7.324,32.715,-144.531,0
1483444860.822,-40.527,35.645,-35.645,37.598,-179.199,0
1483444860.826,-31.738,40.039,-85.938,49.316,-173.340,0
1483444860.829,-9.766,55.176,-79.102,72.754,-150.879,0
1483444860.833,-29.297,39.551,62.012,50.781,-154.785,0
1483444860.837,-56.152,16.113,100.586,28.809,-152.344,0
1483444860.841,-50.293,20.508,21.973,30.273,-154.297,0
1483444860.845,-40.039,30.273,-34.180,37.598,-143.066,0
1483444860.849,-38.086,31.738,16.113,42.480,-140.625,0
1483444860.853,-40.527,32.227,27.344,36.621,-135.254,0
1483444860.857,-44.434,33.691,51.270,30.273,-117.188,0
1483444860.861,-47.852,32.715,115.234,25.391,-86.914,0
1483444860.865,-34.180,41.504,113.281,37.598,-88.379,0
1483444860.869,-35.156,42.480,112.305,38.086,-83.008,0
1483444860.872,-46.387,32.715,65.430,29.297,-23.438,0
1483444860.876,-37.109,38.086,55.664,37.598,-25.879,0
1483444860.880,-29.785,43.945,65.918,41.992,-0.977,0
1483444860.884,-35.156,38.574,26.367,42.480,38.086,0
1483444860.888,-53.223,21.973,106.445,22.461,48.340,0
1483444860.892,-52.734,25.391,145.020,15.625,71.289,0
1483444860.896,-35.156,38.086,73.242,33.691,78.125,0
1483444860.900,-48.340,20.996,52.734,18.066,89.844,0
1483444860.904,-53.223,17.578,100.586,13.184,86.426,0
1483444860.908,-37.598,29.785,87.402,21.484,92.285,0
1483444860.911,-33.203,33.203,83.984,28.809,65.430,0
1483444860.915,-41.016,28.320,84.473,26.367,79.590,0
1483444860.919,-45.898,26.367,33.203,14.648,125.488,0
1483444860.923,-29.785,40.039,45.898,30.762,87.891,0
1483444860.927,-17.578,49.805,33.203,49.316,77.637,0
1483444860.931,-29.785,36.621,44.434,34.668,105.469,0
1483444860.935,-35.156,31.250,64.453,27.832,94.238,0
1483444860.939,-35.645,35.645,12.695,33.691,85.449,0
1483444860.943,-42.480,31.738,72.754,25.391,67.871,0
1483444860.947,-43.457,27.344,97.656,15.625,68.848,0
1483444860.951,-31.738,33.203,48.340,21.973,97.168,0
1483444860.954,-28.809,39.062,76.172,33.203,75.195,0
1483444860.958,-35.156,37.109,41.504,28.320,35.645,0
1483444860.962,-35.156,38.086,-40.527,23.438,39.062,0
1483444860.966,-29.785,41.992,32.715,34.668,59.570,0
1483444860.970,-24.902,41.504,83.008,40.039,66.895,0
1483444860.974,-30.762,37.109,19.043,27.344,78.613,0
1483444860.978,-39.062,35.645,32.227,23.438,73.242,0
1483444860.982,-40.527,35.645,58.105,29.297,42.480,0
1483444860.986,-37.109,36.621,14.648,29.785,16.602,0
1483444860.990,-33.203,41.016,-7.324,30.273,-10.742,0
1483444860.994,-31.738,42.480,37.598,39.551,-21.484,0
1483444860.997,-37.598,36.133,-1.953,41.992,-14.160,0
1483444861.001,-24.414,40.527,-42.969,40.527,-39.062,0
1483444861.005,-28.320,36.133,41.016,32.715,-50.293,0
1483444861.009,-47.852,24.902,75.195,10.742,-16.602,0
1483444861.013,-35.645,34.668,-5.859,20.996,-30.273,0
1483444861.017,-43.945,28.809,-41.504,26.367,-26.855,0
1483444861.021,-62.012,21.973,102.051,10.742,-15.625,0
1483444861.025,-49.805,29.297,128.418,11.230,-11.230,0
1483444861.029,-38.574,30.273,63.477,21.484,6.348,0
1483444861.033,-31.738,35.645,53.223,41.992,-7.324,0
1483444861.036,-40.527,29.785,23.438,29.297,-6.836,0
1483444861.040,-42.969,30.273,-4.395,30.762,-6.348,0
1483444861.044,-39.062,31.738,-10.742,42.480,-23.926,0
1483444861.048,-46.387,27.344,37.598,28.320,-39.062,0
1483444861.052,-45.410,30.273,37.109,26.855,4.883,0
1483444861.056,-34.668,32.715,4.395,36.621,28.809,0
1483444861.060,-37.109,29.785,15.625,32.715,29.785,0
1483444861.064,-40.039,28.809,34.668,20.508,35.156,0
1483444861.068,-41.504,26.855,6.348,16.602,31.250,0
1483444861.072,-45.410,19.043,0.488,17.578,28.320,0
1483444861.076,-38.086,26.855,35.156,25.391,6.348,0
1483444861.079,-37.598,37.598,45.898,35.156,-9.766,0
1483444861.083,-28.320,40.527,42.480,41.016,-9.766,0
1483444861.087,-21.484,39.062,-7.324,41.016,-20.020,0
1483444861.091,-18.066,44.922,43.457,38.086,-70.801,0
1483444861.095,-24.902,38.574,77.148,28.320,-82.031,0
1483444861.099,-44.434,20.020,43.945,7.812,-56.152,0
1483444861.103,-38.086,21.484,52.734,10.254,-71.289,0
1483444861.107,-34.180,25.879,35.645,23.438,-87.891,0
1483444861.111,-32.715,34.668,39.551,34.180,-84.473,0
1483444861.115,-25.391,39.062,40.039,40.527,-71.777,0
1483444861.119,-18.066,36.133,0.488,43.457,-79.590,0
1483444861.122,-20.996,37.598,3.418,42.969,-128.906,0
1483444861.126,-35.645,33.691,30.273,33.203,-109.863,0
1483444861.130,-24.902,42.480,14.160,47.363,-77.637,0
1483444861.134,-17.578,44.434,48.340,49.316,-107.910,0
1483444861.138,-40.527,23.926,88.379,26.367,-136.230,0
1483444861.142,-55.664,17.090,23.926,14.160,-113.281,0
1483444861.146,-43.945,23.926,-5.371,24.414,-93.750,0
1483444861.150,-19.531,44.434,24.414,63.965,-105.469,0
1483444861.154,-15.137,44.434,37.109,67.871,-100.098,0
1483444861.158,-42.480,14.648,38.574,22.949,-77.148,0
1483444861.161,-46.387,15.625,37.598,10.742,-70.801,0
1483444861.165,-28.809,31.250,38.574,34.180,-83.008,0
1483444861.169,-20.508,40.039,18.066,53.711,-115.234,0
1483444861.173,-17.090,44.434,6.836,56.152,-126.465,0
1483444861.177,-26.855,35.156,37.109,41.016,-107.910,0
1483444861.181,-34.180,24.414,44.922,26.855,-150.879,0
1483444861.185,-28.320,31.738,-1.953,36.133,-194.824,0
1483444861.189,-31.738,38.574,-16.113,38.574,-165.039,0
1483444861.193,-39.062,32.227,64.941,20.508,-173.340,0
1483444861.197,-41.992,21.973,88.379,17.090,-205.566,0
1483444861.201,-39.551,19.531,26.367,20.996,-182.617,0
1483444861.204,-42.969,22.461,3.418,26.367,-145.508,0
1483444861.208,-42.969,30.273,51.758,29.785,-158.691,0
1483444861.212,-27.832,41.992,59.082,33.691,-185.059,0
1483444861.216,-26.855,38.086,32.227,35.645,-183.105,0
1483444861.220,-25.879,36.133,13.184,44.434,-151.855,0
1483444861.224,-22.949,41.504,18.066,33.691,-144.531,0
1483444861.228,-22.949,46.387,31.738,33.203,-157.715,0
1483444861.232,-15.137,58.594,-26.855,53.223,-170.410,0
1483444861.236,-25.879,48.340,-30.762,41.504,-178.711,0
1483444861.240,-24.902,42.480,49.805,43.457,-222.656,0
1483444861.244,-27.344,41.504,61.035,40.039,-257.812,0
1483444861.247,-50.293,27.344,29.785,12.695,-184.082,0
1483444861.251,-53.223,25.879,30.273,10.742,-154.785,0
1483444861.255,-52.246,26.855,28.320,22.461,-190.918,0
1483444861.259,-41.992,34.180,18.066,33.691,-203.125,0
1483444861.263,-33.203,39.551,31.250,36.133,-174.316,0
1483444861.267,-38.086,36.133,42.480,26.855,-163.574,0
1483444861.271,-31.250,38.574,39.551,34.180,-205.566,0
1483444861.275,-25.391,43.945,15.137,43.457,-218.262,0
1483444861.279,-30.762,49.316,-26.855,39.551,-205.566,0
1483444861.283,-23.926,54.199,11.230,45.410,-206.055,0
1483444861.286,-23.926,50.781,84.473,50.781,-236.328,0
1483444861.290,-38.574,42.480,43.457,40.039,-232.422,0
1483444861.294,-36.621,41.016,1.953,26.855,-207.031,0
1483444861.298,-35.156,40.039,20.020,27.832,-242.676,0
1483444861.302,-25.879,45.410,-39.062,49.316,-250.488,0
1483444861.306,-19.531,46.875,-62.988,50.781,-244.141,0
1483444861.310,-48.828,23.926,28.320,16.602,-243.164,0
1483444861.314,-49.805,24.414,-53.223,18.066,-255.859,0
1483444861.318,-30.273,40.039,-101.074,42.480,-299.805,0
1483444861.322,-41.992,29.785,71.777,26.855,-334.473,0
1483444861.326,-55.664,19.043,158.691,17.090,-331.543,0
1483444861.329,-37.109,36.133,123.535,38.086,-355.469,0
1483444861.333,-20.508,46.387,42.969,55.176,-358.398,0
1483444861.337,-36.621,37.109,6.836,42.969,-322.754,0
1483444861.341,-39.551,38.574,16.113,32.227,-319.824,0
1483444861.345,-36.621,37.598,8.789,37.598,-332.031,0
1483444861.349,-44.434,31.250,53.711,30.762,-346.191,0
1483444861.353,-42.969,39.551,57.129,31.250,-323.730,0
1483444861.357,-43.457,40.527,32.227,37.109,-335.449,0
1483444861.361,-43.457,29.297,-20.996,41.016,-348.633,0
1483444861.365,-55.176,26.855,8.789,24.902,-337.891,0
1483444861.369,-66.406,23.926,135.254,1.465,-368.164,0
1483444861.372,-58.105,28.809,135.742,1.465,-361.816,0
1483444861.376,-46.875,39.062,93.750,18.066,-355.469,0
1483444861.380,-47.852,39.062,62.988,21.973,-333.496,0
1483444861.384,-43.945,43.945,41.992,23.926,-289.062,0
1483444861.388,-24.414,58.594,21.973,48.828,-311.523,0
1483444861.392,-25.391,57.129,-1.465,46.875,-304.199,0
1483444861.396,-46.387,40.039,-37.109,26.855,-280.762,0
1483444861.400,-50.781,36.621,-20.020,25.879,-277.832,0
1483444861.404,-48.828,34.180,29.785,15.137,-282.715,0
1483444861.408,-53.223,26.367,48.340,10.254,-291.016,0
1483444861.411,-55.664,24.414,50.293,12.695,-265.625,0
1483444861.415,-45.898,35.156,45.898,28.809,-247.559,0
1483444861.419,-42.969,40.527,67.871,35.645,-276.855,0
1483444861.423,-50.293,31.250,51.270,24.414,-306.641,0
1483444861.427,-54.199,26.855,61.523,19.531,-285.645,0
1483444861.431,-52.734,29.785,89.844,14.648,-241.699,0
1483444861.435,-42.480,33.691,53.223,24.902,-216.797,0
1483444861.439,-35.645,36.133,-17.578,37.598,-233.398,0
1483444861.443,-48.828,32.715,-47.852,30.762,-230.469,0
1483444861.447,-65.918,24.902,20.508,15.137,-208.496,0
1483444861.451,-58.105,33.203,39.551,18.066,-197.754,0
1483444861.454,-47.852,41.992,26.367,20.508,-191.406,0
1483444861.458,-57.129,35.156,93.262,5.371,-174.316,0
1483444861.462,-54.688,38.574,85.449,12.207,-170.898,0
1483444861.466,-47.363,41.016,20.508,23.926,-209.961,0
1483444861.470,-40.039,45.410,-78.125,38.086,-216.797,0
1483444861.474,-36.133,47.363,-20.996,42.969,-184.082,0
1483444861.478,-38.086,40.039,129.395,32.227,-160.645,0
1483444861.482,-47.363,30.762,150.879,22.949,-154.297,0
1483444861.486,-51.758,22.949,78.613,22.461,-156.738,0
1483444861.490,-42.969,28.320,10.742,34.180,-139.160,0
1483444861.494,-36.133,35.645,58.594,29.785,-159.180,0
1483444861.497,-38.086,38.086,35.156,33.203,-172.363,0
1483444861.501,-30.273,47.852,-92.773,54.688,-142.578,0
1483444861.505,-32.715,51.758,-22.949,48.340,-118.164,0
1483444861.509,-41.504,41.992,91.309,35.156,-167.480,0
1483444861.513,-35.645,38.574,85.449,35.156,-170.898,0
1483444861.517,-39.551,29.297,90.820,25.879,-133.789,0
1483444861.521,-32.715,32.715,17.578,37.598,-157.227,0
1483444861.525,-9.766,51.758,-43.457,62.012,-171.387,0
1483444861.529,-12.207,49.805,25.879,61.035,-171.875,0
1483444861.533,-28.809,33.203,63.965,55.176,-155.762,0
1483444861.536,-25.879,32.227,18.066,55.176,-125.488,0
1483444861.540,-22.949,34.668,-33.691,47.363,-110.352,0
1483444861.544,-47.363,18.555,65.918,20.020,-125.000,0
1483444861.548,-51.758,12.695,88.379,9.277,-111.816,0
1483444861.552,-30.273,26.367,-28.320,36.621,-105.469,0
1483444861.556,-31.250,33.203,41.992,43.457,-133.301,0
1483444861.560,-46.387,24.902,117.676,20.508,-123.535,0
1483444861.564,-51.270,11.719,102.051,15.137,-101.562,0
1483444861.568,-39.551,19.531,53.223,33.203,-100.586,0
1483444861.572,-18.066,42.480,-53.223,65.918,-104.492,0
1483444861.576,-20.020,39.551,-16.113,63.965,-83.984,0
1483444861.579,-42.969,16.113,93.750,25.391,-54.688,0
1483444861.583,-42.969,19.043,47.852,22.949,-70.801,0
1483444861.587,-28.809,32.227,-46.387,35.156,-39.551,0
1483444861.591,-40.527,23.926,29.297,13.672,-25.391,0
1483444861.595,-50.293,14.648,73.242,10.742,-39.551,0
1483444861.599,-43.945,20.508,11.719,29.297,-50.293,0
1483444861.603,-43.945,25.879,14.648,22.949,-75.195,0
1483444861.607,-37.109,26.367,-7.812,27.832,-57.129,0
1483444861.611,-32.227,29.785,17.578,39.551,-52.734,0
1483444861.615,-36.621,30.762,103.516,27.344,-73.242,0
1483444861.619,-46.875,20.996,62.012,20.020,-75.195,0
1483444861.622,-56.641,16.113,29.785,20.020,-51.758,0
1483444861.626,-51.758,20.020,24.414,12.695,-14.648,0
1483444861.630,-42.480,25.879,30.762,26.367,0.000,0
1483444861.634,-36.133,31.738,14.160,40.527,-6.836,0
1483444861.638,-26.855,35.645,49.805,48.340,29.297,0
1483444861.642,-21.484,40.039,51.270,52.734,38.574,0
1483444861.646,-24.902,45.410,-29.297,53.223,-2.441,0
1483444861.650,-26.367,40.527,28.320,52.246,-24.414,0
1483444861.654,-42.969,25.879,80.566,33.203,-18.555,0
1483444861.658,-47.363,25.391,35.645,33.691,-18.066,0
1483444861.661,-33.203,34.180,5.371,46.875,-63.477,0
1483444861.665,-48.340,25.879,41.016,21.484,-47.852,0
1483444861.669,-51.270,22.949,17.578,14.160,-24.414,0
1483444861.673,-31.738,42.480,-62.012,44.922,-66.895,0
1483444861.677,-29.785,47.363,-16.602,49.316,-76.660,0
1483444861.681,-31.738,34.668,47.363,38.574,-53.223,0
1483444861.685,-34.180,27.344,67.383,32.715,-32.715,0
1483444861.689,-34.180,29.785,92.773,34.180,-46.387,0
1483444861.693,-41.504,29.785,45.410,33.691,-99.121,0
1483444861.697,-57.129,19.531,34.668,18.066,-106.445,0
1483444861.701,-54.199,23.926,13.672,25.879,-78.613,0
1483444861.704,-39.551,35.645,0.488,33.203,-69.824,0
1483444861.708,-52.734,28.809,83.496,12.207,-109.375,0
1483444861.712,-62.012,20.508,25.391,9.277,-77.637,0
1483444861.716,-54.688,27.832,-10.254,21.484,-66.406,0
1483444861.720,-54.688,26.367,39.062,15.137,-120.605,0
1483444861.724,-57.617,20.996,9.277,13.672,-124.512,0
1483444861.728,-50.781,29.297,-9.766,25.879,-98.633,0
1483444861.732,-38.574,40.527,-1.953,44.434,-116.211,0
1483444861.736,-54.688,25.391,61.523,29.785,-145.508,0
1483444861.740,-69.336,10.254,96.680,-1.953,-141.602,0
1483444861.744,-56.641,20.508,51.758,6.836,-166.504,0
1483444861.747,-47.852,30.273,25.879,33.691,-155.762,0
1483444861.751,-46.875,30.762,57.129,35.156,-167.969,0
1483444861.755,-50.781,24.902,96.191,13.672,-180.664,0
1483444861.759,-38.574,34.180,-18.066,24.414,-146.973,0
1483444861.763,-26.367,49.316,-73.242,52.246,-129.883,0
1483444861.767,-37.598,47.852,72.266,41.504,-108.887,0
1483444861.771,-44.434,39.551,93.750,32.715,-100.098,0
1483444861.775,-52.246,29.297,35.156,27.832,-97.656,0
1483444861.779,-44.922,25.879,16.113,31.250,-96.191,0
1483444861.783,-55.176,20.996,46.875,19.043,-104.980,0
1483444861.786,-62.500,27.344,103.516,21.973,-89.844,0
1483444861.790,-49.805,33.203,83.496,37.109,-95.215,0
1483444861.794,-39.551,29.785,45.898,37.598,-124.023,0
1483444861.798,-42.480,27.832,20.996,36.621,-136.230,0
1483444861.802,-51.270,27.832,-2.441,35.645,-108.398,0
1483444861.806,-50.293,30.762,-5.371,43.945,-82.520,0
1483444861.810,-42.480,34.180,52.246,40.039,-123.535,0
1483444861.814,-37.109,41.992,51.270,44.922,-152.832,0
1483444861.818,-55.176,35.156,63.477,28.320,-147.461,0
1483444861.822,-60.547,22.949,75.195,14.648,-143.066,0
1483444861.826,-54.199,21.484,33.691,20.020,-126.465,0
1483444861.829,-61.523,17.090,34.180,13.184,-121.094,0
1483444861.833,-59.570,22.461,-13.672,29.297,-117.676,0
1483444861.837,-56.152,29.785,3.418,39.551,-136.719,0
1483444861.841,-58.105,23.926,94.238,36.621,-164.062,0
1483444861.845,-51.758,27.832,59.570,36.133,-174.316,0
1483444861.849,-44.922,35.156,13.184,31.250,-156.738,0
1483444861.853,-45.410,30.273,51.758,31.738,-136.230,0
1483444861.857,-47.852,29.785,67.871,24.414,-144.043,0
1483444861.861,-42.969,34.668,51.270,27.344,-145.020,0
1483444861.865,-48.340,33.691,88.379,24.414,-114.746,0
1483444861.869,-58.594,26.855,25.391,14.160,-120.605,0
1483444861.872,-54.199,25.391,5.371,27.832,-128.906,0
1483444861.876,-54.688,27.832,62.012,28.809,-114.258,0
1483444861.880,-55.664,28.809,-21.973,23.438,-101.562,0
1483444861.884,-51.270,32.227,-9.277,34.668,-118.164,0
1483444861.888,-59.570,25.391,71.289,17.578,-146.484,0
1483444861.892,-59.082,23.926,57.617,17.578,-120.117,0
1483444861.896,-56.641,25.391,40.039,28.809,-104.492,0
1483444861.900,-73.242,16.113,92.773,11.719,-131.348,0
1483444861.904,-75.195,20.020,62.500,11.719,-134.277,0
1483444861.908,-69.824,19.043,26.367,6.348,-121.582,0
1483444861.911,-63.477,22.461,15.625,10.742,-128.418,0
1483444861.915,-41.992,40.039,-21.973,41.504,-118.164,0
1483444861.919,-58.105,28.320,39.551,24.902,-87.402,0
1483444861.923,-73.242,20.996,57.617,5.859,-74.219,0
1483444861.927,-64.941,21.973,39.062,8.789,-101.074,0
1483444861.931,-70.801,15.137,68.359,-2.441,-76.172,0
1483444861.935,-63.965,20.020,5.371,7.324,-43.945,0
1483444861.939,-60.547,24.902,0.977,25.391,-50.781,0
1483444861.943,-55.664,26.855,41.016,32.227,-48.340,0
1483444861.947,-45.898,29.297,60.547,35.156,-62.500,0
1483444861.951,-48.828,29.297,67.383,31.250,-42.480,0
1483444861.954,-54.688,23.926,44.922,18.555,-21.973,0
1483444861.958,-57.617,19.043,43.457,18.555,-40.527,0
1483444861.962,-45.410,30.762,29.785,25.391,-23.438,0
1483444861.966,-43.945,35.645,35.645,32.227,-20.996,0
1483444861.970,-47.852,35.156,-29.785,42.480,-4.395,0
1483444861.974,-48.828,35.156,-0.977,27.344,-4.883,0
1483444861.978,-46.875,32.227,53.711,21.973,-23.438,0
1483444861.982,-44.922,29.785,44.434,30.273,-9.277,0
1483444861.986,-52.734,23.926,65.918,17.090,7.324,0
1483444861.990,-47.363,27.832,61.035,20.508,-8.789,0
1483444861.994,-42.969,27.344,9.277,32.715,-41.992,0
1483444861.997,-44.922,23.438,-61.523,29.785,-20.020,0
1483444862.001,-38.086,30.273,-16.602,25.879,11.230,0
1483444862.005,-40.039,22.949,83.984,17.578,20.020,0
1483444862.009,-37.598,24.414,96.680,26.855,-22.461,0
1483444862.013,-36.133,34.180,48.828,30.762,-17.578,0
1483444862.017,-41.992,35.156,36.621,25.879,-2.441,0
1483444862.021,-47.363,36.621,56.152,20.020,-13.184,0
1483444862.025,-47.363,39.551,57.617,17.578,-29.297,0
1483444862.029,-40.039,49.805,11.230,31.738,-61.523,0
1483444862.033,-44.434,42.480,-2.441,25.391,-43.945,0
1483444862.036,-62.012,20.020,56.641,2.441,-51.758,0
1483444862.040,-64.941,21.973,42.480,-5.371,-45.410,0
1483444862.044,-57.129,28.809,-0.977,6.348,4.395,0
1483444862.048,-46.875,34.180,20.996,28.809,-10.254,0
1483444862.052,-45.410,34.180,47.852,22.461,-38.574,0
1483444862.056,-46.387,32.227,16.113,20.996,-16.602,0
1483444862.060,-44.922,36.621,-15.137,19.531,12.695,0
1483444862.064,-46.387,38.086,15.625,21.484,-4.883,0
1483444862.068,-51.270,33.691,63.965,28.809,-19.531,0
1483444862.072,-44.434,40.527,68.359,37.109,-24.414,0
1483444862.076,-36.621,43.457,22.949,41.504,-26.855,0
1483444862.079,-46.875,35.645,26.855,30.273,-14.648,0
1483444862.083,-50.293,40.039,35.156,33.203,-12.207,0
1483444862.087,-57.617,36.621,22.461,17.578,-2.441,0
1483444862.091,-57.617,31.738,41.992,10.254,3.906,0
1483444862.095,-47.363,35.156,18.555,18.555,-1.953,0
1483444862.099,-55.664,28.320,2.441,1.465,-15.137,0
1483444862.103,-46.875,36.621,10.742,16.602,-20.508,0
1483444862.107,-44.434,42.480,-9.766,26.855,-19.531,0
1483444862.111,-49.316,33.691,-4.395,17.578,-25.879,0
1483444862.115,-37.598,41.992,0.000,28.320,-32.227,0
1483444862.119,-42.969,43.457,-7.812,28.320,-9.766,0
1483444862.122,-60.059,27.344,47.852,4.395,-6.836,0
1483444862.126,-62.988,20.020,74.219,7.812,-60.059,0
1483444862.130,-65.430,18.066,28.809,8.789,-59.082,0
1483444862.134,-56.152,25.391,24.902,16.113,0.000,0
1483444862.138,-54.199,29.785,23.438,22.461,-4.395,0
1483444862.142,-70.801,19.531,16.602,-14.648,-22.461,0
1483444862.146,-71.289,18.066,29.785,-20.996,-45.898,0
1483444862.150,-51.270,26.855,-12.207,31.738,-45.410,0
1483444862.154,-42.480,33.691,-64.453,39.062,-41.504,0
1483444862.158,-57.129,28.809,25.879,20.508,-48.828,0
1483444862.161,-56.152,28.809,92.285,17.090,-23.926,0
1483444862.165,-46.875,29.785,32.715,8.301,-0.488,0
1483444862.169,-34.668,39.551,9.766,34.180,-2.441,0
1483444862.173,-36.133,35.156,40.527,40.527,-30.762,0
1483444862.177,-55.176,15.625,52.246,13.184,-33.691,0
1483444862.181,-53.711,15.625,25.391,11.230,-5.859,0
1483444862.185,-39.062,27.344,22.949,26.855,-0.488,0
1483444862.189,-37.598,32.227,25.879,34.668,-14.648,0
1483444862.193,-48.340,26.855,-0.488,23.926,8.789,0
1483444862.197,-47.363,28.809,-0.488,18.066,15.137,0
1483444862.201,-42.480,29.297,7.324,23.926,7.812,0
1483444862.204,-42.969,29.785,10.254,34.668,-25.391,0
1483444862.208,-42.480,31.250,64.941,20.020,-60.547,0
1483444862.212,-40.039,33.203,75.684,22.949,-69.824,0
1483444862.216,-28.320,40.527,42.969,45.898,-89.844,0
1483444862.220,-39.551,26.855,22.461,20.020,-81.055,0
1483444862.224,-54.199,21.973,33.203,3.418,-72.754,0
1483444862.228,-36.621,42.969,27.344,30.273,-87.402,0
1483444862.232,-31.738,43.457,25.391,35.645,-83.008,0
1483444862.236,-55.176,27.832,38.086,4.395,-74.707,0
1483444862.240,-59.082,27.344,41.016,2.930,-48.828,0
1483444862.244,-47.363,33.691,45.898,20.020,-99.121,0
1483444862.247,-49.805,28.320,5.371,18.555,-113.281,0
1483444862.251,-59.570,25.391,-20.996,8.789,-38.086,0
1483444862.255,-63.477,24.414,-36.621,4.883,-83.984,0
1483444862.259,-41.016,35.645,-35.156,25.879,-106.934,0
1483444862.263,-35.156,37.109,37.598,30.273,-89.355,0
1483444862.267,-41.992,37.109,89.355,21.484,-76.172,0
1483444862.271,-40.039,45.410,78.613,19.043,-42.969,0
1483444862.275,-32.715,49.805,52.734,33.691,-86.914,0
1483444862.279,-34.668,46.387,31.250,40.527,-104.492,0
1483444862.283,-46.387,35.156,-1.953,26.855,-72.266,0
1483444862.286,-48.340,30.762,23.438,21.973,-55.664,0
1483444862.290,-57.129,31.738,46.875,26.367,-65.918,0
1483444862.294,-51.270,41.504,-12.695,32.715,-80.566,0
1483444862.298,-41.016,41.016,-31.250,40.039,-41.016,0
1483444862.302,-44.434,38.574,7.812,40.039,-13.184,0
1483444862.306,-39.551,41.504,12.207,36.133,-22.461,0
1483444862.310,-40.039,39.551,17.090,40.039,-36.133,0
1483444862.314,-42.480,39.551,55.176,38.574,-11.230,0
1483444862.318,-49.805,38.086,72.266,27.832,6.348,0
1483444862.322,-42.480,41.016,77.148,41.504,-30.273,0
1483444862.326,-36.133,37.109,49.805,38.574,-17.578,0
1483444862.329,-41.016,31.250,29.297,33.203,17.578,0
1483444862.333,-34.668,38.086,-16.113,43.945,13.672,0
1483444862.337,-29.297,41.504,-65.430,48.340,3.418,0
1483444862.341,-38.574,32.715,12.695,36.133,-4.395,0
1483444862.345,-42.480,30.762,83.496,29.785,23.926,0
1483444862.349,-42.480,30.762,93.262,35.645,13.184,0
1483444862.353,-43.945,29.785,71.289,38.574,-25.879,0
1483444862.357,-39.062,31.738,39.062,39.551,-14.648,0
1483444862.361,-40.527,28.809,34.180,34.668,8.789,0
1483444862.365,-36.133,29.297,34.668,45.898,5.371,0
1483444862.369,-36.133,26.855,35.156,44.434,-22.461,0
1483444862.372,-47.363,23.926,23.926,38.086,29.785,0
1483444862.376,-47.852,25.879,39.062,41.504,58.594,0
1483444862.380,-48.340,24.902,70.801,41.016,25.391,0
1483444862.384,-43.945,34.180,35.645,43.457,30.762,0
1483444862.388,-39.551,38.086,-62.988,49.316,40.039,0
1483444862.392,-50.781,26.367,-89.355,43.457,30.273,0
1483444862.396,-60.547,15.625,18.066,19.531,39.551,0
1483444862.400,-55.664,16.113,90.332,19.043,23.926,0
1483444862.404,-61.035,11.719,90.820,19.043,1.465,0
1483444862.408,-71.289,5.859,81.055,10.254,36.621,0
1483444862.411,-57.129,16.602,48.828,20.020,-6.348,0
1483444862.415,-49.805,20.508,-1.953,25.879,-43.945,0
1483444862.419,-53.223,19.531,-2.930,17.090,-7.324,0
1483444862.423,-46.875,25.879,62.012,15.137,4.395,0
1483444862.427,-40.527,31.250,91.309,19.043,-14.648,0
1483444862.431,-32.715,38.086,23.926,39.551,-11.719,0
1483444862.435,-36.133,37.109,-74.707,45.898,15.137,0
1483444862.439,-39.551,34.668,-82.520,41.504,-12.695,0
1483444862.443,-45.410,28.320,35.156,26.855,-43.945,0
1483444862.447,-67.871,13.184,100.586,4.883,-68.848,0
1483444862.451,-65.918,17.578,87.891,14.648,-90.332,0
1483444862.454,-40.039,37.598,15.625,49.805,-117.676,0
1483444862.458,-43.945,35.645,7.812,42.969,-120.117,0
1483444862.462,-67.383,18.066,69.824,7.812,-83.008,0
1483444862.466,-61.523,19.043,47.852,21.484,-99.609,0
1483444862.470,-55.176,22.949,56.641,28.320,-131.348,0
1483444862.474,-50.293,25.391,12.207,30.762,-144.043,0
1483444862.478,-36.621,40.039,-53.711,53.711,-121.094,0
1483444862.482,-39.062,40.039,14.160,50.293,-98.145,0
1483444862.486,-59.570,17.578,34.180,24.902,-131.836,0
1483444862.490,-60.059,10.742,32.227,20.020,-155.273,0
1483444862.494,-47.363,17.090,4.883,33.691,-159.668,0
1483444862.497,-37.109,23.438,-58.594,39.551,-177.734,0
1483444862.501,-39.551,18.066,30.273,28.809,-200.195,0
1483444862.505,-47.363,9.277,105.469,19.043,-196.777,0
1483444862.509,-53.223,12.695,92.285,16.113,-180.176,0
1483444862.513,-36.621,28.320,42.969,40.527,-192.871,0
1483444862.517,-13.184,48.340,-42.969,57.617,-188.965,0
1483444862.521,-22.461,51.270,-25.879,46.875,-184.570,0
1483444862.525,-40.039,41.016,2.441,40.039,-219.238,0
1483444862.529,-51.270,28.320,52.246,33.203,-204.102,0
1483444862.533,-55.176,25.391,70.312,25.391,-189.453,0
1483444862.536,-49.805,29.785,15.137,29.297,-209.473,0
1483444862.540,-43.457,34.180,28.809,38.574,-221.680,0
1483444862.544,-39.062,41.016,60.547,42.969,-215.332,0
1483444862.548,-42.480,38.086,55.664,32.227,-212.402,0
1483444862.552,-48.340,33.203,46.875,22.461,-205.078,0
1483444862.556,-41.992,35.156,37.598,32.715,-200.684,0
1483444862.560,-32.227,38.574,46.387,46.387,-190.430,0
1483444862.564,-44.922,27.344,91.309,31.738,-174.805,0
1483444862.568,-58.105,20.508,86.914,20.508,-158.203,0
1483444862.572,-41.504,38.574,58.594,39.062,-158.203,0
1483444862.576,-36.133,40.527,41.016,39.062,-186.035,0
1483444862.579,-58.594,21.484,59.570,18.555,-187.012,0
1483444862.583,-62.500,21.484,44.434,20.996,-163.086,0
1483444862.587,-60.059,25.391,32.715,30.762,-181.641,0
1483444862.591,-53.711,34.180,45.410,29.785,-237.305,0
1483444862.595,-39.551,44.922,-7.324,40.527,-231.934,0
1483444862.599,-56.641,29.785,41.016,22.461,-161.133,0
1483444862.603,-79.590,15.137,120.605,9.277,-150.879,0
1483444862.607,-60.547,29.297,96.191,40.039,-166.504,0
1483444862.611,-42.969,41.992,57.617,53.711,-181.152,0
1483444862.615,-52.734,28.320,56.152,39.062,-175.781,0
1483444862.619,-44.434,33.203,48.828,36.621,-171.387,0
1483444862.622,-36.621,48.340,5.371,44.922,-200.684,0
1483444862.626,-54.199,37.109,41.992,35.645,-193.848,0
1483444862.630,-57.129,38.086,102.539,38.086,-175.293,0
1483444862.634,-49.805,41.992,45.898,39.551,-182.617,0
1483444862.638,-44.922,38.574,-11.719,36.133,-175.781,0
1483444862.642,-54.199,37.109,26.855,31.250,-131.348,0
1483444862.646,-63.477,33.203,38.574,33.691,-113.281,0
1483444862.650,-55.176,37.109,63.477,42.969,-129.883,0
1483444862.654,-46.387,46.875,40.527,50.293,-115.723,0
1483444862.658,-53.223,39.062,17.090,42.969,-104.492,0
1483444862.661,-56.152,26.855,108.887,37.109,-120.605,0
1483444862.665,-46.875,30.273,96.191,44.922,-149.902,0
1483444862.669,-41.016,39.551,18.066,55.664,-113.281,0
1483444862.673,-44.922,38.574,47.852,53.223,-91.309,0
1483444862.677,-43.457,39.551,37.598,51.758,-151.367,0
1483444862.681,-40.039,43.457,31.250,53.711,-176.758,0
1483444862.685,-44.922,37.109,30.273,42.969,-156.738,0
1483444862.689,-52.246,34.668,25.879,43.457,-116.211,0
1483444862.693,-57.617,33.691,88.867,41.504,-85.938,0
1483444862.697,-45.410,41.992,84.473,37.598,-125.488,0
1483444862.701,-40.527,48.340,55.176,37.598,-147.461,0
1483444862.704,-37.598,51.270,41.016,50.293,-130.859,0
1483444862.708,-31.738,51.270,28.809,60.547,-188.965,0
1483444862.712,-50.293,32.227,91.797,39.062,-242.676,0
1483444862.716,-60.547,25.391,125.000,33.691,-221.680,0
1483444862.720,-52.734,31.250,131.836,41.016,-213.867,0
1483444862.724,-44.434,34.180,97.168,53.223,-221.191,0
1483444862.728,-42.480,33.203,73.242,53.711,-249.023,0
1483444862.732,-45.898,32.227,75.195,46.387,-263.672,0
1483444862.736,-30.273,47.363,13.672,63.965,-251.953,0
1483444862.740,-21.484,53.223,62.500,69.336,-302.246,0
1483444862.744,-42.480,34.668,120.605,44.922,-361.328,0
1483444862.747,-55.176,29.785,107.422,30.762,-301.270,0
1483444862.751,-47.852,38.086,32.227,44.434,-283.203,0
1483444862.755,-33.203,54.199,-73.242,68.848,-312.500,0
1483444862.759,-41.016,38.086,-4.395,47.363,-300.781,0
1483444862.763,-53.711,20.508,64.941,29.785,-293.945,0
1483444862.767,-46.875,33.691,70.801,39.551,-256.348,0
1483444862.771,-55.664,27.832,157.715,30.273,-246.582,0
1483444862.775,-62.500,20.996,157.227,20.996,-288.086,0
1483444862.779,-56.641,30.762,103.516,30.762,-278.809,0
1483444862.783,-40.039,50.293,78.613,52.246,-260.742,0
1483444862.786,-16.113,68.359,-16.602,71.289,-295.898,0
1483444862.790,-45.410,44.922,39.062,44.922,-293.457,0
1483444862.794,-81.543,14.160,168.945,2.441,-235.840,0
1483444862.798,-60.547,24.414,135.742,6.348,-234.863,0
1483444862.802,-54.688,26.367,135.254,14.160,-270.020,0
1483444862.806,-62.500,18.555,166.016,10.742,-291.504,0
1483444862.810,-65.918,20.996,174.316,9.277,-270.020,0
1483444862.814,-53.711,33.203,101.562,29.785,-244.141,0
1483444862.818,-40.039,44.434,62.500,40.527,-244.629,0
1483444862.822,-45.898,42.480,90.820,29.297,-245.605,0
1483444862.826,-43.457,42.480,104.492,35.645,-243.652,0
1483444862.829,-40.039,47.363,136.230,41.016,-255.859,0
1483444862.833,-31.250,49.316,104.980,38.086,-251.465,0
1483444862.837,-43.457,28.809,73.242,27.344,-220.215,0
1483444862.841,-60.059,13.184,109.375,9.277,-220.703,0
1483444862.845,-48.340,21.484,132.324,7.324,-214.355,0
1483444862.849,-41.016,29.785,109.375,17.578,-197.754,0
1483444862.853,-41.992,33.203,43.457,26.855,-170.410,0
1483444862.857,-26.367,42.480,-16.602,40.039,-162.109,0
1483444862.861,-24.414,41.992,-17.578,42.969,-158.203,0
1483444862.865,-23.438,38.086,39.551,48.828,-159.180,0
1483444862.869,-19.043,32.715,111.816,56.641,-159.180,0
1483444862.872,-31.738,22.949,110.840,40.039,-158.203,0
1483444862.876,-37.598,16.113,84.961,28.320,-217.285,0
1483444862.880,-40.039,12.695,78.613,21.973,-239.746,0
1483444862.884,-38.574,17.578,96.680,19.531,-182.617,0
1483444862.888,-42.969,15.625,100.586,19.531,-185.059,0
1483444862.892,-48.828,15.625,39.062,22.461,-225.098,0
1483444862.896,-34.668,28.809,-49.316,40.039,-200.684,0
1483444862.900,-25.391,32.227,-36.621,42.480,-193.359,0
1483444862.904,-26.367,29.297,83.496,39.062,-229.004,0
1483444862.908,-41.504,21.973,86.426,19.531,-240.234,0
1483444862.911,-43.457,18.066,30.762,29.297,-241.211,0
1483444862.915,-31.738,23.438,32.227,52.734,-200.195,0
1483444862.919,-48.828,16.113,75.195,35.645,-200.684,0
1483444862.923,-53.711,14.160,111.328,26.367,-250.000,0
1483444862.927,-46.387,15.137,73.242,30.273,-198.730,0
1483444862.931,-42.480,21.973,13.184,35.645,-176.270,0
1483444862.935,-23.438,38.574,-38.574,48.828,-220.703,0
1483444862.939,-20.996,44.922,-41.992,49.316,-237.793,0
1483444862.943,-34.668,37.598,34.668,46.387,-239.746,0
1483444862.947,-31.250,32.715,54.688,48.828,-186.523,0
1483444862.951,-41.504,27.344,22.949,41.016,-150.391,0
1483444862.954,-55.176,18.555,15.137,29.785,-165.527,0
1483444862.958,-48.340,20.996,11.719,31.250,-143.555,0
1483444862.962,-41.992,26.855,32.715,46.387,-88.867,0
1483444862.966,-41.992,25.391,45.898,45.898,-44.922,0
1483444862.970,-37.598,25.391,37.109,42.480,-79.590,0
1483444862.974,-37.598,27.344,8.301,48.340,-114.258,0
1483444862.978,-45.410,25.879,28.320,38.086,-113.281,0
1483444862.982,-34.668,31.738,24.902,47.852,-82.031,0
1483444862.986,-39.551,27.344,-22.461,50.293,-64.941,0
1483444862.990,-45.898,20.996,-56.152,33.203,-85.938,0
1483444862.994,-30.273,31.250,-112.305,55.664,-38.086,0
1483444862.997,-32.715,26.367,-46.387,47.852,-32.227,0
1483444863.001,-45.410,18.555,52.734,27.344,-69.824,0
1483444863.005,-33.691,27.832,0.000,44.434,-20.020,0
1483444863.009,-22.949,32.715,-38.086,62.988,-22.461,0
1483444863.013,-42.969,18.555,19.531,48.340,-28.809,0
1483444863.017,-39.551,17.578,44.922,45.410,7.812,0
1483444863.021,-23.438,29.785,34.668,61.035,0.488,0
1483444863.025,-44.922,23.438,-9.766,42.969,-35.156,0
1483444863.029,-36.621,23.438,-47.852,48.340,-7.324,0
1483444863.033,-20.020,25.391,-41.504,62.012,-23.438,0
1483444863.036,-32.715,22.949,-90.820,52.734,-17.578,0
1483444863.040,-39.551,19.531,-59.082,45.410,20.020,0
1483444863.044,-33.691,19.531,36.621,42.969,-35.156,0
1483444863.048,-34.180,24.902,32.715,40.039,9.277,0
1483444863.052,-46.875,13.184,4.395,22.461,35.156,0
1483444863.056,-43.945,6.348,21.484,23.926,-2.441,0
1483444863.060,-30.762,21.973,9.277,41.992,-16.113,0
1483444863.064,-29.785,28.320,-30.273,45.410,12.207,0
1483444863.068,-41.016,17.578,-19.043,24.902,31.738,0
1483444863.072,-44.922,13.672,2.441,38.086,48.828,0
1483444863.076,-43.457,17.578,-30.273,42.480,51.270,0
1483444863.079,-36.621,26.855,-33.203,35.645,41.504,0
1483444863.083,-24.902,37.109,-53.711,53.223,69.336,0
1483444863.087,-20.996,40.039,-57.617,55.664,54.199,0
1483444863.091,-50.781,21.973,30.273,29.297,54.688,0
1483444863.095,-61.035,8.789,58.105,19.531,76.172,0
1483444863.099,-37.598,22.461,5.859,32.715,92.773,0
1483444863.103,-25.391,41.504,17.090,48.828,55.176,0
1483444863.107,-31.738,32.715,14.160,45.410,34.180,0
1483444863.111,-33.203,27.344,-42.969,39.551,61.523,0
1483444863.115,-29.785,36.621,-48.828,54.199,33.203,0
1483444863.119,-26.367,36.621,-1.465,55.176,47.363,0
1483444863.122,-26.855,33.691,-9.766,39.551,71.289,0
1483444863.126,-23.926,38.574,-30.762,39.551,123.535,0
1483444863.130,-26.855,38.086,66.895,41.504,148.926,0
1483444863.134,-35.645,28.320,73.242,22.461,126.465,0
1483444863.138,-28.809,30.273,-27.344,32.227,162.598,0
1483444863.142,-13.672,38.574,-31.738,57.129,189.941,0
1483444863.146,-15.625,44.434,33.203,58.105,206.055,0
1483444863.150,-33.691,36.133,24.902,49.316,243.652,0
1483444863.154,-27.832,31.738,-33.203,41.016,229.492,0
1483444863.158,-27.832,30.273,13.672,30.273,216.797,0
1483444863.161,-39.062,26.855,72.266,28.809,213.867,0
1483444863.165,-35.156,26.855,-5.371,31.250,214.844,0
1483444863.169,-26.367,35.645,-48.340,24.902,240.723,0
1483444863.173,-21.484,43.945,48.340,37.109,197.754,0
1483444863.177,-20.996,39.551,72.754,46.875,170.898,0
1483444863.181,-21.973,35.156,18.066,43.945,188.965,0
1483444863.185,-29.785,33.203,-25.391,42.480,208.984,0
1483444863.189,-36.133,32.715,5.371,42.480,236.328,0
1483444863.193,-33.203,27.832,10.254,38.574,224.609,0
1483444863.197,-34.180,29.297,15.137,34.180,205.566,0
1483444863.201,-29.785,32.715,48.828,35.645,234.375,0
1483444863.204,-28.809,33.203,34.668,40.039,245.605,0
1483444863.208,-34.180,36.621,4.883,41.992,222.656,0
