timestamps,TP9,AF7,AF8,TP10,Right AUX,Marker0
1483453773.938,43.945,49.805,37.598,56.152,-9.766,0
1483453773.942,36.621,48.828,36.133,47.852,-20.020,0
1483453773.946,26.855,46.875,41.504,38.574,33.691,0
1483453773.950,28.809,51.270,48.340,43.457,2.930,0
1483453773.954,23.926,48.340,52.246,33.691,-50.293,0
1483453773.958,19.531,48.340,56.641,33.691,-52.246,0
1483453773.962,27.832,50.781,55.176,42.480,-22.949,0
1483453773.966,33.203,49.316,56.641,39.551,-37.598,0
1483453773.970,30.762,48.340,47.363,34.668,-18.066,0
1483453773.974,27.832,47.363,40.039,38.574,-3.418,0
1483453773.977,29.297,47.363,39.062,38.574,-47.363,0
1483453773.981,31.738,49.316,37.598,32.715,-63.965,0
1483453773.985,36.621,49.805,32.715,36.133,0.488,0
1483453773.989,41.016,45.410,28.809,44.434,14.648,0
1483453773.993,40.527,44.922,25.391,41.992,4.395,0
1483453773.997,41.992,42.969,37.109,35.645,8.301,0
1483453774.001,46.387,43.457,56.152,40.039,-16.602,0
1483453774.005,47.363,44.922,51.270,48.340,20.996,0
1483453774.009,41.992,39.062,47.852,42.969,67.871,0
1483453774.013,40.039,40.039,50.781,40.527,42.480,0
1483453774.017,40.527,41.992,45.898,43.945,22.949,0
1483453774.020,38.574,36.621,21.973,38.086,44.922,0
1483453774.024,20.508,38.086,5.859,34.668,37.109,0
1483453774.028,-13.184,40.527,4.883,31.738,-11.719,0
1483453774.032,-37.109,37.109,-0.977,26.855,-6.348,0
1483453774.036,-38.574,38.574,3.906,37.109,-19.043,0
1483453774.040,-31.738,41.992,7.812,46.875,-71.777,0
1483453774.044,-29.297,37.598,13.672,38.574,-21.973,0
1483453774.048,-19.531,34.668,31.738,36.133,23.926,0
1483453774.052,-6.348,38.574,26.367,43.945,-16.602,0
1483453774.056,-1.953,40.039,14.648,45.410,-44.434,0
1483453774.060,-0.977,37.109,31.738,43.945,-2.930,0
1483453774.063,3.906,40.527,34.180,47.363,25.879,0
1483453774.067,13.184,43.945,26.367,45.898,9.277,0
1483453774.071,14.648,40.039,28.809,46.875,-28.320,0
1483453774.075,13.184,38.086,26.367,48.340,-45.898,0
1483453774.079,19.043,39.062,21.484,49.316,0.977,0
1483453774.083,29.785,39.062,25.391,55.176,17.090,0
1483453774.087,28.809,37.598,23.926,50.293,20.508,0
1483453774.091,20.508,35.645,19.531,42.969,-40.039,0
1483453774.095,19.043,35.645,22.461,45.898,-36.621,0
1483453774.099,24.414,34.180,25.391,42.480,-1.465,0
1483453774.102,28.320,33.203,25.879,40.527,-9.277,0
1483453774.106,29.297,33.691,22.949,46.387,-5.859,0
1483453774.110,27.344,30.762,19.531,43.457,-8.789,0
1483453774.114,25.391,26.855,22.461,35.645,41.016,0
1483453774.118,23.438,25.391,20.508,33.203,40.527,0
1483453774.122,26.367,25.879,20.996,31.738,19.043,0
1483453774.126,30.762,27.344,22.461,27.832,22.461,0
1483453774.130,32.715,30.273,12.695,31.250,-1.465,0
1483453774.134,33.203,28.809,14.648,35.645,17.090,0
1483453774.138,31.738,23.926,28.809,35.645,-11.230,0
1483453774.142,29.297,20.996,46.875,33.203,-36.133,0
1483453774.145,33.691,23.926,52.246,35.156,27.344,0
1483453774.149,40.039,25.879,47.852,45.410,21.973,0
1483453774.153,37.598,21.973,53.223,49.316,8.301,0
1483453774.157,41.504,18.555,58.594,52.246,59.082,0
1483453774.161,42.480,21.973,44.922,54.199,41.016,0
1483453774.165,38.086,23.438,45.898,51.270,29.785,0
1483453774.169,39.551,21.973,59.570,52.734,18.066,0
1483453774.173,43.457,26.367,52.246,56.152,6.836,0
1483453774.177,39.062,26.855,57.617,57.129,-7.324,0
1483453774.181,36.133,23.438,63.477,52.734,8.301,0
1483453774.185,36.621,21.484,56.152,46.387,50.293,0
1483453774.188,36.133,24.414,50.781,45.410,23.438,0
1483453774.192,37.598,29.297,39.062,46.387,31.250,0
1483453774.196,36.133,32.715,33.203,44.434,38.574,0
1483453774.200,31.250,29.785,53.223,34.668,3.906,0
1483453774.204,30.762,27.344,66.895,28.809,14.648,0
1483453774.208,31.250,25.391,59.570,35.645,4.395,0
1483453774.212,33.691,26.367,53.711,38.086,22.949,0
1483453774.216,41.016,31.738,47.852,41.504,61.523,0
1483453774.220,41.016,31.250,44.922,41.992,17.090,0
1483453774.224,41.504,31.250,44.922,39.551,-12.695,0
1483453774.227,44.922,31.250,47.363,39.062,0.000,0
1483453774.231,38.574,25.879,49.805,35.645,10.742,0
1483453774.235,36.133,23.926,41.504,36.621,26.367,0
1483453774.239,43.457,27.832,47.852,46.875,47.363,0
1483453774.243,41.992,28.320,50.293,49.316,38.086,0
1483453774.247,33.203,28.320,57.617,43.945,18.555,0
1483453774.251,38.574,28.320,50.293,38.574,7.812,0
1483453774.255,43.945,27.832,30.762,32.715,15.625,0
1483453774.259,44.434,26.855,50.781,36.621,17.578,0
1483453774.263,46.875,29.297,56.641,48.340,20.508,0
1483453774.267,41.992,30.273,47.363,46.875,63.477,0
1483453774.270,43.457,28.809,43.945,40.527,100.586,0
1483453774.274,48.828,26.367,41.992,45.410,19.531,0
1483453774.278,51.270,26.367,38.574,51.270,10.254,0
1483453774.282,47.363,26.367,36.133,50.293,39.551,0
1483453774.286,45.410,28.809,43.945,46.875,-25.879,0
1483453774.290,44.434,28.320,51.758,41.992,10.742,0
1483453774.294,41.504,28.320,43.945,46.387,41.992,0
1483453774.298,40.039,28.809,30.762,47.852,8.301,0
1483453774.302,41.504,24.902,40.039,43.945,28.809,0
1483453774.306,44.434,24.902,30.273,41.504,29.785,0
1483453774.310,32.715,22.461,25.391,38.086,11.719,0
1483453774.313,32.715,23.926,45.898,43.457,16.113,0
1483453774.317,45.410,24.902,58.594,48.828,5.859,0
1483453774.321,40.039,20.508,59.570,43.945,-17.578,0
1483453774.325,41.504,22.949,55.176,42.969,26.855,0
1483453774.329,51.270,26.367,51.758,54.688,31.250,0
1483453774.333,53.223,25.391,34.180,63.477,-7.324,0
1483453774.337,50.781,24.902,35.645,59.082,24.414,0
1483453774.341,51.270,27.344,49.805,50.781,4.883,0
1483453774.345,54.199,29.297,62.500,49.805,-30.762,0
1483453774.349,53.711,27.832,63.477,52.734,-46.387,0
1483453774.352,46.875,27.344,44.434,52.734,-1.465,0
1483453774.356,43.945,30.762,41.504,49.805,54.199,0
1483453774.360,49.316,34.180,43.945,47.852,37.598,0
1483453774.364,49.316,32.715,44.434,54.199,0.488,0
1483453774.368,44.922,27.344,51.270,53.711,32.227,0
1483453774.372,40.527,23.926,38.574,50.293,11.230,0
1483453774.376,40.527,20.996,36.621,49.316,7.812,0
1483453774.380,49.316,22.461,44.434,52.734,63.965,0
1483453774.384,54.688,27.344,43.457,54.199,15.137,0
1483453774.388,56.152,28.320,47.363,55.664,-17.090,0
1483453774.392,55.664,27.344,47.363,57.129,17.578,0
1483453774.395,53.711,27.832,36.133,51.758,63.477,0
1483453774.399,52.734,29.785,33.203,48.828,41.016,0
1483453774.403,51.758,27.832,43.945,48.828,4.395,0
1483453774.407,48.340,24.902,45.410,49.316,17.090,0
1483453774.411,48.340,25.391,39.062,48.340,36.133,0
1483453774.415,49.805,27.344,36.133,48.828,-12.695,0
1483453774.419,46.387,21.484,41.504,42.969,-1.465,0
1483453774.423,42.969,18.555,36.621,32.715,-1.465,0
1483453774.427,44.922,20.020,23.438,34.668,36.621,0
1483453774.431,47.852,20.020,34.668,37.598,69.824,0
1483453774.435,39.062,18.066,40.039,31.250,13.672,0
1483453774.438,32.715,14.648,34.180,28.320,-12.695,0
1483453774.442,37.598,15.137,36.621,30.762,27.344,0
1483453774.446,29.297,16.113,37.598,24.902,24.414,0
1483453774.450,13.672,17.090,35.156,20.508,-16.113,0
1483453774.454,12.207,15.625,33.203,23.438,23.926,0
1483453774.458,14.160,11.230,44.434,19.531,32.715,0
1483453774.462,16.602,13.184,31.250,15.137,10.742,0
1483453774.466,18.066,13.184,7.324,19.043,-20.996,0
1483453774.470,22.461,10.742,21.973,21.484,19.531,0
1483453774.474,22.949,11.719,36.133,28.809,56.641,0
1483453774.477,20.996,11.230,37.598,34.668,75.195,0
1483453774.481,27.832,10.254,35.645,30.273,36.133,0
1483453774.485,33.691,13.672,39.062,29.297,16.113,0
1483453774.489,32.715,12.695,24.902,29.297,44.434,0
1483453774.493,28.809,10.254,15.137,29.297,38.574,0
1483453774.497,33.203,11.719,29.785,29.297,30.273,0
1483453774.501,32.227,10.742,37.598,26.855,-25.879,0
1483453774.505,31.250,11.719,30.273,31.738,-2.441,0
1483453774.509,33.203,16.113,21.973,41.016,54.688,0
1483453774.513,28.320,17.090,27.344,39.062,51.758,0
1483453774.517,27.344,14.648,31.738,37.109,20.508,0
1483453774.520,28.809,14.648,25.391,34.180,34.180,0
1483453774.524,35.156,18.555,26.367,36.133,35.156,0
1483453774.528,34.668,19.043,15.137,39.551,-22.949,0
1483453774.532,30.762,19.043,13.672,41.504,6.836,0
1483453774.536,32.227,19.043,28.320,40.039,28.320,0
1483453774.540,34.180,16.602,34.668,35.156,-20.996,0
1483453774.544,32.715,13.184,28.320,33.203,-23.438,0
1483453774.548,35.156,15.137,18.555,36.621,-4.395,0
1483453774.552,39.062,20.020,27.832,41.992,-47.852,0
1483453774.556,34.180,20.020,39.551,41.504,-59.082,0
1483453774.560,30.273,18.555,38.574,41.016,10.742,0
1483453774.563,33.691,18.066,25.879,36.133,83.496,0
1483453774.567,35.156,20.020,26.367,35.645,55.176,0
1483453774.571,32.715,22.461,28.809,39.551,5.371,0
1483453774.575,31.738,25.391,24.414,39.551,75.684,0
1483453774.579,34.180,25.391,28.320,39.551,63.477,0
1483453774.583,32.227,21.973,27.344,38.086,-7.324,0
1483453774.587,28.809,20.996,10.742,35.645,32.227,0
1483453774.591,28.809,19.531,13.672,34.668,50.293,0
1483453774.595,35.645,21.484,20.508,37.598,10.254,0
1483453774.599,47.363,24.902,21.484,43.457,-3.906,0
1483453774.602,39.062,24.414,38.086,45.410,-19.531,0
1483453774.606,27.344,19.531,41.016,43.457,-34.180,0
1483453774.610,33.203,19.531,35.645,50.781,-46.875,0
1483453774.614,30.273,20.508,35.156,50.293,20.508,0
1483453774.618,29.297,21.973,31.250,45.410,62.500,0
1483453774.622,33.203,25.391,30.762,48.828,37.598,0
1483453774.626,34.180,21.973,24.902,45.898,20.508,0
1483453774.630,39.062,20.996,23.438,48.340,17.578,0
1483453774.634,39.551,22.461,24.414,49.316,-0.977,0
1483453774.638,40.527,22.949,29.785,48.828,11.719,0
1483453774.642,41.016,25.391,36.133,50.293,42.969,0
1483453774.645,38.574,24.902,34.668,46.387,84.473,0
1483453774.649,37.109,23.926,25.391,41.504,35.645,0
1483453774.653,39.062,25.391,24.902,46.875,-7.324,0
1483453774.657,40.039,24.414,33.691,42.969,38.574,0
1483453774.661,37.109,20.996,36.133,36.621,55.664,0
1483453774.665,39.551,20.508,38.086,43.945,70.801,0
1483453774.669,42.480,20.996,24.414,42.480,106.934,0
1483453774.673,43.945,19.043,16.113,41.016,81.055,0
1483453774.677,41.016,18.066,33.203,44.434,62.012,0
1483453774.681,26.855,17.578,33.691,43.945,48.340,0
1483453774.685,22.949,15.137,43.457,42.480,51.270,0
1483453774.688,25.879,14.648,46.875,41.992,41.992,0
1483453774.692,19.043,22.949,37.109,38.086,8.301,0
1483453774.696,19.531,19.043,38.086,36.133,-2.441,0
1483453774.700,24.414,-4.395,33.203,32.715,-1.953,0
1483453774.704,21.484,-15.137,21.973,33.203,26.855,0
1483453774.708,17.090,-24.414,27.832,33.203,24.902,0
1483453774.712,23.438,-30.762,41.504,34.668,18.066,0
1483453774.716,28.809,-28.320,33.691,34.668,-4.883,0
1483453774.720,20.996,-28.809,19.043,29.785,37.598,0
1483453774.724,25.879,-26.855,29.785,32.715,39.062,0
1483453774.727,29.785,-28.320,30.273,29.297,4.883,0
1483453774.731,30.762,-29.297,25.391,29.785,23.926,0
1483453774.735,40.527,-22.949,39.062,41.992,48.340,0
1483453774.739,41.504,-20.996,43.457,49.316,44.434,0
1483453774.743,41.992,-20.020,42.480,53.711,-11.719,0
1483453774.747,43.945,-21.973,38.574,52.246,-38.086,0
1483453774.751,39.062,-23.438,30.762,48.828,-27.344,0
1483453774.755,38.086,-18.555,29.297,50.293,21.484,0
1483453774.759,41.504,-25.391,36.621,46.387,18.066,0
1483453774.763,37.598,-30.762,41.504,46.387,12.207,0
1483453774.767,35.645,-28.320,48.340,50.293,29.785,0
1483453774.770,35.645,-29.785,39.551,48.828,35.645,0
1483453774.774,37.109,-28.809,23.926,43.457,27.832,0
1483453774.778,41.992,-26.855,30.762,46.875,-8.301,0
1483453774.782,41.992,-26.367,36.133,47.852,9.766,0
1483453774.786,32.715,-24.902,24.414,43.945,30.273,0
1483453774.790,29.297,-20.020,25.391,44.922,30.762,0
1483453774.794,28.809,-18.066,36.133,46.387,63.965,0
1483453774.798,29.297,-21.484,35.156,46.387,60.059,0
1483453774.802,21.973,-23.926,27.344,40.527,31.250,0
1483453774.806,17.090,-20.508,21.973,36.133,-24.414,0
1483453774.810,21.973,-17.090,23.926,34.668,-30.273,0
1483453774.813,26.367,-16.602,34.180,31.738,27.344,0
1483453774.817,34.180,-15.137,33.203,40.527,14.648,0
1483453774.821,35.156,-13.672,26.367,52.246,24.414,0
1483453774.825,35.156,-14.648,37.598,52.246,33.203,0
1483453774.829,32.715,-15.625,28.320,46.875,-2.930,0
1483453774.833,33.691,-13.184,8.789,50.293,33.203,0
1483453774.837,37.598,-13.672,32.227,50.781,26.855,0
1483453774.841,36.133,-13.184,40.527,51.758,12.207,0
1483453774.845,32.227,-11.719,33.203,51.758,50.293,0
1483453774.849,30.762,-13.672,24.902,43.457,41.992,0
1483453774.852,29.297,-12.207,27.344,44.922,62.988,0
1483453774.856,27.832,-12.695,26.367,44.434,29.785,0
1483453774.860,31.738,-12.695,22.949,46.387,-4.395,0
1483453774.864,32.227,-12.695,27.832,51.270,50.293,0
1483453774.868,35.645,-13.184,29.785,54.199,-10.742,0
1483453774.872,38.574,-10.742,26.855,48.828,14.160,0
1483453774.876,38.086,-9.277,16.602,47.363,86.914,0
1483453774.880,36.621,-9.766,15.625,47.363,36.621,0
1483453774.884,33.691,-11.230,30.762,41.016,-18.555,0
1483453774.888,34.668,-6.348,27.832,41.504,-24.414,0
1483453774.892,36.133,-3.906,20.996,40.039,35.645,0
1483453774.895,35.156,-4.883,23.926,36.133,54.199,0
1483453774.899,36.133,-2.930,27.344,44.922,35.645,0
1483453774.903,36.621,-4.883,25.879,44.922,62.500,0
1483453774.907,39.551,-5.859,33.203,41.504,24.414,0
1483453774.911,43.457,-1.465,35.156,46.387,19.043,0
1483453774.915,45.410,0.488,27.344,49.805,17.090,0
1483453774.919,50.293,-1.953,45.410,48.340,-44.922,0
1483453774.923,48.828,-3.418,51.758,46.875,15.137,0
1483453774.927,41.992,-2.441,34.668,46.875,66.406,0
1483453774.931,39.062,-3.418,29.785,48.828,24.902,0
1483453774.935,37.109,-3.418,36.133,51.270,26.855,0
1483453774.938,34.180,-3.906,44.922,50.781,63.965,0
1483453774.942,35.645,0.000,39.551,45.410,92.773,0
1483453774.946,36.621,2.930,28.320,44.434,25.879,0
1483453774.950,37.598,4.883,32.227,51.270,-40.039,0
1483453774.954,41.504,7.324,35.156,50.293,-19.531,0
1483453774.958,46.875,8.789,32.227,49.805,-6.348,0
1483453774.962,49.805,8.301,29.297,50.781,-48.340,0
1483453774.966,42.480,7.324,32.715,51.758,5.371,0
1483453774.970,40.039,7.324,41.504,56.152,63.965,1
1483453774.974,44.434,7.324,34.180,52.246,75.684,0
1483453774.977,39.551,7.812,20.996,46.387,67.383,0
1483453774.981,38.086,4.883,33.691,46.387,13.184,0
1483453774.985,37.598,4.395,36.621,41.504,15.137,0
1483453774.989,36.621,8.301,30.273,46.387,25.391,0
1483453774.993,33.203,6.348,39.551,44.922,43.457,0
1483453774.997,39.551,9.766,29.785,45.410,9.766,0
1483453775.001,46.387,11.719,23.438,50.781,-24.414,0
1483453775.005,40.527,3.418,40.039,43.945,62.988,0
1483453775.009,35.645,0.488,42.480,37.598,70.312,0
1483453775.013,34.180,-1.465,38.574,28.809,1.953,0
1483453775.017,35.645,-1.465,31.250,33.203,-11.719,0
1483453775.020,34.668,5.371,35.156,37.109,7.812,0
1483453775.024,34.668,7.324,27.832,30.273,-4.395,0
1483453775.028,33.203,4.883,17.090,29.297,-23.438,0
1483453775.032,35.156,5.371,24.902,32.715,8.789,0
1483453775.036,41.016,6.348,30.273,35.645,26.367,0
1483453775.040,41.016,7.812,30.762,36.133,0.977,0
1483453775.044,35.156,8.301,33.203,33.691,49.805,0
1483453775.048,31.738,8.789,50.293,33.691,23.926,0
1483453775.052,29.297,8.301,46.387,34.668,-15.137,0
1483453775.056,24.902,6.348,25.391,33.691,-5.371,0
1483453775.060,27.832,9.277,20.508,33.691,30.762,0
1483453775.063,31.738,10.742,27.344,33.203,66.895,0
1483453775.067,32.715,9.277,33.691,36.621,42.969,0
1483453775.071,34.668,9.766,28.809,38.086,66.895,0
1483453775.075,30.762,7.324,20.996,33.203,31.738,0
1483453775.079,31.738,6.836,12.207,39.551,7.812,0
1483453775.083,45.410,12.207,20.020,50.293,-4.883,0
1483453775.087,44.922,11.230,44.922,41.504,-57.617,0
1483453775.091,36.621,7.812,44.922,40.039,23.438,0
1483453775.095,34.668,8.789,32.227,48.340,57.617,0
1483453775.099,33.203,12.207,28.320,48.340,-8.301,0
1483453775.102,27.832,8.301,28.320,41.504,27.344,0
1483453775.106,28.320,6.348,25.391,40.039,73.242,0
1483453775.110,30.273,7.324,20.508,43.945,46.387,0
1483453775.114,31.738,7.812,11.230,45.410,43.945,0
1483453775.118,32.715,6.836,15.137,40.039,50.293,0
1483453775.122,38.574,11.719,29.297,47.363,45.898,0
1483453775.126,45.410,14.160,25.879,57.617,6.348,0
1483453775.130,40.527,9.766,19.531,53.711,-43.945,0
1483453775.134,45.898,14.160,28.809,55.664,-4.395,0
1483453775.138,48.828,16.602,41.992,54.688,26.367,0
1483453775.142,42.969,13.672,38.574,49.805,23.926,0
1483453775.145,36.133,12.695,23.926,47.363,-8.789,0
1483453775.149,35.645,15.137,12.695,48.828,39.551,0
1483453775.153,37.109,14.160,29.785,47.363,25.391,0
1483453775.157,32.227,12.695,34.668,42.969,-33.691,0
1483453775.161,35.156,12.695,21.484,43.457,9.277,0
1483453775.165,33.691,9.277,12.207,39.062,2.930,0
1483453775.169,37.598,11.719,20.020,45.410,28.320,0
1483453775.173,41.992,8.301,44.434,51.758,62.012,0
1483453775.177,41.504,5.371,43.945,47.363,31.738,0
1483453775.181,43.945,8.789,33.203,52.246,18.066,0
1483453775.185,41.504,8.789,24.414,54.688,12.695,0
1483453775.188,46.387,10.742,32.227,57.129,-0.488,0
1483453775.192,47.852,15.137,39.551,55.664,24.414,0
1483453775.196,41.504,16.113,35.156,52.734,24.414,0
1483453775.200,42.480,15.625,31.738,50.293,-24.414,0
1483453775.204,42.480,17.090,31.250,49.805,0.977,0
1483453775.208,35.645,17.578,31.250,46.387,30.762,0
1483453775.212,35.156,17.090,29.785,43.945,-44.434,0
1483453775.216,36.133,19.043,31.738,42.969,-87.891,0
1483453775.220,38.574,18.555,33.203,43.457,20.508,0
1483453775.224,45.410,18.555,26.367,49.805,70.312,0
1483453775.227,42.480,19.531,32.715,48.340,53.223,0
1483453775.231,35.156,16.113,42.969,43.945,5.859,0
1483453775.235,37.598,15.625,27.344,49.316,5.371,0
1483453775.239,41.016,14.160,25.879,50.293,33.203,0
1483453775.243,40.039,10.254,29.785,45.410,33.691,0
1483453775.247,36.133,8.301,29.785,44.922,-19.043,0
1483453775.251,36.133,11.719,26.367,49.316,-14.160,0
1483453775.255,43.457,14.648,21.484,50.781,21.484,0
1483453775.259,42.969,12.695,38.086,50.781,-19.043,0
1483453775.263,41.504,10.254,50.781,50.293,-46.387,0
1483453775.267,43.457,5.859,40.039,43.945,1.465,0
1483453775.270,42.969,4.395,34.180,44.922,57.617,0
1483453775.274,39.551,3.418,36.133,45.898,5.371,0
1483453775.278,35.156,3.418,40.039,43.945,-18.066,0
1483453775.282,36.133,6.348,39.062,43.457,4.395,0
1483453775.286,38.574,6.836,37.598,42.969,14.160,0
1483453775.290,36.621,6.836,35.645,43.457,36.133,0
1483453775.294,35.645,9.766,22.949,40.527,32.715,0
1483453775.298,28.320,9.766,24.902,32.715,-17.090,0
1483453775.302,21.973,5.859,33.691,32.715,7.812,0
1483453775.306,19.043,2.930,22.461,27.344,61.523,0
1483453775.310,28.320,9.277,19.043,28.809,4.883,0
1483453775.313,45.410,15.625,35.645,45.410,-30.273,0
1483453775.317,38.574,11.719,40.527,39.551,-13.672,0
1483453775.321,24.414,6.348,35.156,32.715,-17.578,0
1483453775.325,28.320,5.371,20.996,39.062,-43.457,0
1483453775.329,38.086,8.301,25.391,42.480,41.016,0
1483453775.333,39.551,10.254,33.691,43.457,49.316,0
1483453775.337,34.668,9.277,27.344,37.598,-17.090,0
1483453775.341,35.645,10.742,22.461,36.133,5.859,0
1483453775.345,39.551,12.207,28.320,40.527,20.996,0
1483453775.349,37.598,11.230,31.250,38.086,36.621,0
1483453775.352,32.227,9.277,28.320,34.180,13.184,0
1483453775.356,31.738,9.766,22.949,38.086,-19.043,0
1483453775.360,36.621,11.719,23.438,42.969,-14.648,0
1483453775.364,38.574,10.254,34.668,35.645,7.324,0
1483453775.368,39.551,10.254,37.598,31.738,29.785,0
1483453775.372,37.598,11.230,40.527,35.645,25.391,0
1483453775.376,33.691,11.719,31.738,39.062,13.672,0
1483453775.380,37.598,10.254,13.184,37.109,41.504,0
1483453775.384,40.527,13.184,16.602,40.039,44.434,0
1483453775.388,37.109,17.090,33.691,44.922,22.949,0
1483453775.392,37.598,15.625,41.016,41.992,24.902,0
1483453775.395,41.992,16.602,41.992,44.434,-13.184,0
1483453775.399,46.875,14.648,37.598,43.945,-21.484,0
1483453775.403,42.480,9.766,32.715,36.133,-3.906,0
1483453775.407,36.133,12.207,29.297,35.156,29.785,0
1483453775.411,37.109,14.648,29.785,38.086,83.008,0
1483453775.415,36.133,13.184,33.203,36.621,48.828,0
1483453775.419,37.598,13.672,36.621,39.551,32.227,0
1483453775.423,37.598,14.648,37.109,42.969,43.945,0
1483453775.427,35.645,17.578,39.062,46.875,52.734,0
1483453775.431,36.621,18.066,44.922,45.898,44.922,0
1483453775.435,31.738,12.695,41.016,36.621,43.945,0
1483453775.438,29.785,10.742,34.180,40.527,13.672,0
1483453775.442,29.297,12.207,28.809,43.945,11.230,0
1483453775.446,24.414,10.742,31.738,36.133,44.922,0
1483453775.450,29.297,13.184,41.016,38.086,53.223,0
1483453775.454,34.180,15.625,36.621,41.016,49.805,0
1483453775.458,29.297,10.254,28.809,36.133,35.156,0
1483453775.462,26.367,9.277,25.391,34.180,12.695,0
1483453775.466,32.715,13.672,21.973,32.227,63.965,0
1483453775.470,38.574,16.602,19.043,28.320,62.012,0
1483453775.474,36.133,18.066,21.973,33.691,41.992,0
1483453775.477,34.180,21.973,27.344,34.668,45.898,0
1483453775.481,32.227,20.996,33.691,30.762,47.363,0
1483453775.485,34.180,19.531,33.203,28.809,60.547,0
1483453775.489,32.715,20.020,33.203,29.297,72.266,0
1483453775.493,40.527,20.020,29.297,33.203,36.133,0
1483453775.497,47.363,16.602,26.855,35.645,-4.883,0
1483453775.501,41.992,15.625,22.461,40.039,39.062,0
1483453775.505,38.574,17.090,31.250,40.039,51.758,0
1483453775.509,36.133,14.160,29.785,37.598,48.340,0
1483453775.513,34.180,15.625,22.949,37.109,72.266,0
1483453775.517,34.180,19.531,24.414,34.668,65.918,0
1483453775.520,29.785,20.020,24.414,38.574,66.406,0
1483453775.524,21.973,19.531,26.367,38.574,84.473,0
1483453775.528,21.484,20.020,23.926,35.645,69.824,0
1483453775.532,20.508,20.996,23.926,30.273,62.012,0
1483453775.536,15.137,20.020,31.738,26.367,72.754,0
1483453775.540,10.742,15.625,27.344,26.367,24.414,0
1483453775.544,10.254,15.137,15.625,20.020,30.762,0
1483453775.548,5.859,11.719,13.184,12.695,35.156,0
1483453775.552,8.301,15.137,10.742,20.508,12.695,0
1483453775.556,12.207,21.973,11.719,24.902,25.879,0
1483453775.560,6.836,17.090,15.625,19.531,41.504,0
1483453775.563,7.812,13.672,11.719,14.160,77.637,0
1483453775.567,12.207,16.602,12.695,17.578,44.434,0
1483453775.571,16.113,16.602,18.066,24.414,4.395,0
1483453775.575,21.973,17.578,20.020,25.391,26.367,0
1483453775.579,32.227,20.020,13.184,30.273,50.781,0
1483453775.583,30.273,14.648,18.066,23.926,31.250,0
1483453775.587,24.902,10.742,28.809,24.902,23.438,0
1483453775.591,29.785,15.137,20.996,36.133,41.504,0
1483453775.595,31.738,16.113,26.855,30.762,-28.809,0
1483453775.599,36.133,14.160,32.227,31.738,-8.301,0
1483453775.602,34.180,14.648,11.719,40.039,55.176,0
1483453775.606,36.133,18.066,11.230,44.434,8.789,0
1483453775.610,40.527,18.066,25.879,45.410,-12.207,0
1483453775.614,32.715,16.113,38.574,41.016,11.719,0
1483453775.618,32.227,14.648,39.062,36.133,12.207,0
1483453775.622,38.574,16.602,31.738,37.598,51.758,0
1483453775.626,41.992,18.066,30.273,40.527,31.250,0
1483453775.630,47.363,20.020,25.879,44.434,-34.668,0
1483453775.634,41.504,20.020,29.785,46.875,-42.969,0
1483453775.638,33.691,18.555,25.879,35.645,-29.785,0
1483453775.642,42.480,22.949,29.785,36.133,-26.855,0
1483453775.645,41.504,17.578,30.273,35.156,-32.715,0
1483453775.649,40.039,13.672,15.137,35.645,-24.414,0
1483453775.653,41.992,17.578,19.043,36.133,-16.602,0
1483453775.657,43.457,20.020,20.996,38.574,-19.043,0
1483453775.661,40.039,20.508,12.207,40.039,39.551,0
1483453775.665,38.086,22.461,28.320,31.738,51.758,0
1483453775.669,39.551,24.902,38.086,31.250,-9.277,0
1483453775.673,37.598,20.996,45.410,32.227,-62.012,0
1483453775.677,38.086,17.090,40.039,25.391,-46.387,0
1483453775.681,38.086,15.625,24.414,25.391,-6.836,0
1483453775.685,40.039,20.508,28.320,37.598,-16.602,0
1483453775.688,40.039,24.902,41.992,40.527,-17.578,0
1483453775.692,37.109,22.949,41.992,35.645,-34.180,0
1483453775.696,34.180,22.949,32.227,32.227,-19.531,0
1483453775.700,40.039,32.715,39.551,31.250,-47.363,0
1483453775.704,42.480,60.059,41.504,39.551,-35.645,0
1483453775.708,38.086,101.562,33.203,51.270,4.395,0
1483453775.712,41.992,124.512,33.203,51.270,-18.066,0
1483453775.716,42.480,128.906,47.852,42.480,10.742,0
1483453775.720,37.598,129.883,52.246,37.598,47.363,0
1483453775.724,40.527,127.930,35.156,41.016,21.973,0
1483453775.727,38.086,121.094,33.203,40.039,28.320,0
1483453775.731,33.691,119.141,18.066,42.969,13.184,0
1483453775.735,34.668,116.211,10.742,44.434,-6.836,0
1483453775.739,32.227,104.004,31.738,32.715,-2.441,0
1483453775.743,41.016,98.145,33.691,31.250,1.953,0
1483453775.747,42.969,92.285,34.668,30.273,15.625,0
1483453775.751,41.016,87.891,17.090,33.691,24.414,0
1483453775.755,37.598,84.473,14.648,32.715,-21.484,0
1483453775.759,39.062,76.172,25.391,34.668,-11.719,0
1483453775.763,46.387,69.824,19.531,44.922,23.926,0
1483453775.767,45.898,62.988,23.926,47.852,-11.230,0
1483453775.770,47.852,57.617,31.738,52.246,-17.578,0
1483453775.774,47.363,53.711,27.344,54.688,-26.855,0
1483453775.778,42.969,51.270,27.832,52.246,-19.531,0
1483453775.782,48.340,49.805,28.809,56.152,-5.371,0
1483453775.786,50.293,45.410,17.090,59.082,22.949,0
1483453775.790,49.316,42.480,39.062,56.152,27.832,0
1483453775.794,52.734,43.945,41.504,62.988,16.602,0
1483453775.798,51.758,43.457,14.648,69.824,45.410,0
1483453775.802,49.805,38.574,9.766,56.152,9.766,0
1483453775.806,45.898,34.180,20.020,50.293,-22.949,0
1483453775.810,45.410,33.691,31.250,55.176,41.504,0
1483453775.813,41.504,35.156,5.371,51.270,54.688,0
1483453775.817,41.504,37.109,6.836,44.434,38.086,0
1483453775.821,40.527,32.715,40.527,43.457,48.828,0
1483453775.825,32.227,27.832,38.574,42.480,9.277,0
1483453775.829,36.621,32.715,28.809,41.504,22.461,0
1483453775.833,29.297,31.738,23.438,35.645,55.176,0
1483453775.837,26.367,24.414,13.184,33.203,41.504,0
1483453775.841,36.621,23.438,15.137,32.227,35.645,0
1483453775.845,42.969,25.391,23.438,34.180,20.508,0
1483453775.849,34.180,21.484,17.090,30.273,46.387,0
1483453775.852,24.414,19.531,18.555,27.832,53.711,0
1483453775.856,27.832,20.996,25.879,35.156,38.086,0
1483453775.860,35.156,20.020,27.832,42.969,-24.902,0
1483453775.864,37.109,17.578,28.320,41.016,-17.090,0
1483453775.868,38.574,16.602,33.203,36.133,40.527,0
1483453775.872,39.551,17.090,35.645,31.738,-17.578,0
1483453775.876,30.762,14.648,27.344,37.109,-12.695,0
1483453775.880,21.973,12.207,25.879,34.668,-13.184,0
1483453775.884,29.297,13.672,30.273,27.344,-31.250,0
1483453775.888,35.645,13.184,37.598,34.180,20.996,0
1483453775.892,40.527,19.531,22.949,44.922,42.480,0
1483453775.895,35.156,21.973,6.348,41.504,50.293,0
1483453775.899,32.227,16.602,14.160,30.762,18.555,0
1483453775.903,36.621,15.137,21.973,33.203,55.176,0
1483453775.907,31.738,12.695,30.273,30.273,63.965,0
1483453775.911,23.926,10.742,28.809,20.020,-73.242,0
1483453775.915,21.484,11.230,25.391,25.879,-29.785,0
1483453775.919,22.461,11.230,18.555,32.227,13.184,0
1483453775.923,27.344,11.719,24.902,36.621,-28.320,0
1483453775.927,45.410,18.555,23.926,49.805,6.836,0
1483453775.931,44.434,16.602,16.113,41.992,-3.906,0
1483453775.935,38.574,10.254,22.949,39.551,-46.875,0
1483453775.938,39.062,8.301,20.996,45.410,-49.805,0
1483453775.942,45.898,9.766,16.602,56.152,-14.648,0
1483453775.946,54.199,13.184,26.367,62.500,18.066,0
1483453775.950,51.758,10.742,34.180,58.105,5.371,0
1483453775.954,61.523,12.695,35.645,62.012,33.203,0
1483453775.958,62.988,17.578,22.461,63.965,22.949,0
1483453775.962,52.246,13.672,20.508,56.152,-22.949,0
1483453775.966,46.875,13.672,33.203,55.664,34.180,0
1483453775.970,39.551,14.160,25.879,56.152,47.363,0
1483453775.974,36.133,12.695,11.719,50.781,58.594,0
1483453775.977,41.504,12.695,16.113,48.340,42.969,0
1483453775.981,49.805,14.160,33.203,50.781,21.484,0
1483453775.985,52.734,15.137,32.227,49.316,37.598,0
1483453775.989,50.293,10.742,27.832,46.875,27.344,0
1483453775.993,54.688,9.766,32.227,60.059,14.648,0
1483453775.997,54.199,11.719,27.832,63.477,40.039,0
1483453776.001,46.387,11.719,20.508,52.734,57.129,0
1483453776.005,43.457,10.254,24.902,49.316,14.648,0
1483453776.009,49.805,11.230,23.438,48.828,24.902,0
1483453776.013,50.293,12.207,18.555,49.316,13.672,0
1483453776.017,41.992,3.906,29.297,41.504,-23.926,0
1483453776.020,36.133,0.977,33.691,38.574,60.547,0
1483453776.024,36.133,5.371,14.160,46.387,75.684,0
1483453776.028,30.273,1.953,26.367,41.016,11.719,0
1483453776.032,24.414,1.953,41.992,26.855,2.930,0
1483453776.036,29.785,8.301,33.691,30.762,5.859,0
1483453776.040,25.391,6.836,28.809,33.203,-9.766,0
1483453776.044,24.414,4.883,26.367,24.414,39.551,0
1483453776.048,37.109,8.301,28.320,31.250,27.344,0
1483453776.052,40.527,8.301,26.367,35.156,-5.371,0
1483453776.056,40.039,7.812,23.926,37.598,-24.414,0
1483453776.060,48.340,10.742,28.809,43.945,-35.156,0
1483453776.063,48.340,11.719,31.738,41.016,-41.504,0
1483453776.067,41.504,9.766,23.438,40.527,-64.453,0
1483453776.071,35.156,6.348,19.531,37.109,-14.160,0
1483453776.075,34.668,7.324,28.809,35.645,-1.953,0
1483453776.079,35.645,8.789,31.250,33.203,-13.184,0
1483453776.083,33.691,9.766,29.297,34.180,15.625,0
1483453776.087,33.203,11.230,34.180,39.062,-35.645,0
1483453776.091,26.855,7.324,24.414,32.715,-21.973,0
1483453776.095,28.809,2.930,28.320,28.809,22.461,0
1483453776.099,34.180,3.906,30.273,36.133,-6.836,0
1483453776.102,35.156,4.883,22.949,42.969,-62.988,0
1483453776.106,37.109,7.324,33.203,40.527,-64.453,0
1483453776.110,35.645,6.836,31.250,29.785,27.344,0
1483453776.114,35.156,7.812,25.391,34.180,66.895,0
1483453776.118,26.367,5.859,23.926,40.039,12.695,0
1483453776.122,25.879,5.859,20.020,40.527,-17.090,0
1483453776.126,36.133,9.766,16.113,43.457,3.418,0
1483453776.130,39.551,11.230,35.156,43.457,-8.789,0
1483453776.134,38.574,12.695,44.434,44.434,-25.879,0
1483453776.138,41.016,12.695,37.109,42.480,20.996,0
1483453776.142,45.410,15.625,35.156,42.969,28.809,0
1483453776.145,43.945,17.090,20.020,45.410,-6.348,0
1483453776.149,36.621,13.672,21.973,43.457,-28.809,0
1483453776.153,41.504,16.113,28.809,43.945,-18.555,0
1483453776.157,41.504,14.648,22.461,42.480,6.348,0
1483453776.161,32.715,4.883,20.020,36.133,44.922,0
1483453776.165,33.691,7.324,16.602,30.762,14.648,0
1483453776.169,36.133,15.625,18.066,36.133,-39.062,0
1483453776.173,40.039,14.160,21.484,41.992,-31.738,0
1483453776.177,38.574,8.789,21.973,31.738,-45.898,0
1483453776.181,36.621,7.324,28.320,33.691,-38.574,0
1483453776.185,41.504,7.324,44.434,39.062,-2.930,0
1483453776.188,46.387,7.812,50.293,42.480,-28.320,0
1483453776.192,46.387,7.812,41.504,45.410,-16.113,0
1483453776.196,41.016,8.301,38.086,46.875,19.531,0
1483453776.200,38.574,6.836,30.273,44.922,17.578,0
1483453776.204,45.410,5.371,36.621,45.410,-0.488,0
1483453776.208,49.805,5.859,46.387,45.898,-36.621,0
1483453776.212,41.016,5.371,43.457,43.457,4.395,0
1483453776.216,32.715,6.836,36.621,42.969,20.020,0
1483453776.220,36.621,10.254,30.273,40.039,-6.836,0
1483453776.224,43.457,11.719,39.062,39.551,19.531,0
1483453776.227,41.504,10.742,27.344,35.156,38.574,0
1483453776.231,42.969,9.766,20.508,32.227,28.809,0
1483453776.235,45.898,6.836,22.949,35.645,15.625,2
1483453776.239,41.016,7.324,13.184,33.203,-16.602,0
1483453776.243,45.898,17.578,21.973,35.156,-21.973,0
1483453776.247,52.734,16.602,37.598,38.086,0.977,0
1483453776.251,58.105,13.184,45.898,37.109,-20.020,0
1483453776.255,62.012,15.137,45.898,48.340,-7.812,0
1483453776.259,69.336,21.973,38.574,61.035,-3.906,0
1483453776.263,71.289,22.949,42.969,57.129,-0.488,0
1483453776.267,61.035,16.113,47.852,47.363,2.930,0
1483453776.270,51.758,15.137,47.363,42.480,-6.836,0
1483453776.274,48.340,19.043,47.363,49.805,11.230,0
1483453776.278,50.293,21.484,45.898,49.316,34.180,0
1483453776.282,50.781,20.508,41.992,38.086,34.180,0
1483453776.286,57.129,27.344,20.508,45.410,10.742,0
1483453776.290,59.082,27.344,24.414,42.480,18.555,0
1483453776.294,51.270,21.484,51.270,40.527,14.648,0
1483453776.298,49.316,22.461,43.945,51.758,9.766,0
1483453776.302,53.223,20.996,36.133,45.898,8.789,0
1483453776.306,51.758,20.996,43.457,47.363,21.973,0
1483453776.310,49.316,23.438,42.969,53.223,-16.602,0
1483453776.313,53.223,22.949,30.762,51.758,-36.133,0
1483453776.317,53.711,23.438,32.715,51.758,5.371,0
1483453776.321,61.523,23.926,39.062,57.129,4.883,0
1483453776.325,55.664,20.020,33.691,53.223,-33.203,0
1483453776.329,53.223,20.508,39.551,54.688,-36.621,0
1483453776.333,53.223,18.555,42.480,56.152,-8.301,0
1483453776.337,48.828,18.066,37.598,53.711,-23.438,0
1483453776.341,58.105,22.949,41.992,60.547,-45.410,0
1483453776.345,58.594,23.926,41.992,62.012,-2.930,0
1483453776.349,57.129,24.414,38.086,57.617,15.137,0
1483453776.352,51.758,24.902,23.926,51.270,-7.812,0
1483453776.356,42.969,25.879,10.254,45.898,11.719,0
1483453776.360,46.875,27.344,26.367,53.223,18.555,0
1483453776.364,47.852,27.344,32.227,61.523,5.859,0
1483453776.368,49.805,27.832,21.973,59.570,24.414,0
1483453776.372,51.270,25.391,31.738,47.363,35.645,0
1483453776.376,58.105,26.855,36.621,51.270,3.906,0
1483453776.380,56.152,22.949,42.480,54.688,-27.832,0
1483453776.384,50.781,18.066,42.480,48.828,-8.789,0
1483453776.388,56.641,20.996,27.832,55.176,46.387,0
1483453776.392,47.852,20.508,21.484,52.734,37.109,0
1483453776.395,48.340,22.461,34.668,50.781,0.488,0
1483453776.399,59.570,29.785,42.480,58.105,7.812,0
1483453776.403,55.664,29.297,30.762,61.035,3.906,0
1483453776.407,55.176,25.879,27.832,54.688,-8.301,0
1483453776.411,64.453,27.832,28.320,52.246,5.859,0
1483453776.415,67.383,30.273,24.414,51.270,48.340,0
1483453776.419,60.547,28.809,26.855,49.316,36.621,0
1483453776.423,44.922,24.902,17.578,46.875,-21.484,0
1483453776.427,36.133,22.461,20.996,38.086,19.043,0
1483453776.431,42.969,21.484,44.922,36.621,25.391,0
1483453776.435,42.969,19.531,37.598,39.551,20.508,0
1483453776.438,39.551,17.090,28.809,38.086,42.480,0
1483453776.442,50.781,15.625,40.039,42.969,7.812,0
1483453776.446,51.758,15.625,42.969,42.480,11.719,0
1483453776.450,46.387,18.555,30.762,34.180,20.020,0
1483453776.454,45.410,18.066,37.109,42.480,18.066,0
1483453776.458,42.969,15.625,41.992,49.805,0.000,0
1483453776.462,36.133,17.090,34.180,30.273,31.250,0
1483453776.466,36.621,21.973,20.020,25.879,54.199,0
1483453776.470,37.109,20.996,14.160,32.715,10.254,0
1483453776.474,43.457,17.578,31.738,28.320,-26.855,0
1483453776.477,57.129,19.531,34.668,40.039,-32.715,0
1483453776.481,51.758,20.508,39.551,40.527,-27.832,0
1483453776.485,54.199,23.438,41.504,44.434,4.395,0
1483453776.489,55.176,23.438,24.902,50.293,24.414,0
1483453776.493,57.617,22.461,19.531,54.199,20.020,0
1483453776.497,56.641,18.066,28.320,58.594,27.832,0
1483453776.501,41.992,14.648,27.344,44.922,-4.883,0
1483453776.505,35.156,12.695,39.062,36.621,0.000,0
1483453776.509,38.574,14.648,48.340,44.922,31.250,0
1483453776.513,41.016,16.602,37.109,46.387,43.945,0
1483453776.517,46.875,15.137,33.203,42.969,31.250,0
1483453776.520,51.758,15.137,30.762,39.062,18.555,0
1483453776.524,47.363,16.602,24.902,36.621,-3.418,0
1483453776.528,36.621,16.602,23.926,33.203,40.527,0
1483453776.532,27.832,13.672,18.066,25.879,67.383,0
1483453776.536,31.250,8.301,25.391,31.738,5.371,0
1483453776.540,31.250,6.348,29.297,28.809,-30.273,0
1483453776.544,23.438,3.906,25.879,19.531,-11.230,0
1483453776.548,23.438,3.906,26.367,25.879,0.488,0
1483453776.552,24.414,6.348,38.086,25.879,-15.137,0
1483453776.556,25.879,5.371,46.875,25.879,1.465,0
1483453776.560,33.203,7.812,32.227,33.203,47.852,0
1483453776.563,33.691,6.348,23.926,33.691,91.309,0
1483453776.567,29.297,4.883,32.227,30.762,55.664,0
1483453776.571,35.645,6.348,34.668,31.738,6.348,0
1483453776.575,37.109,4.395,35.156,39.062,66.895,0
1483453776.579,27.344,3.418,49.805,35.645,49.316,0
1483453776.583,30.762,8.789,42.480,34.668,-56.641,0
1483453776.587,22.461,9.277,35.156,26.367,-18.066,0
1483453776.591,15.625,8.301,31.250,22.949,23.926,0
1483453776.595,27.832,11.230,35.645,38.086,3.418,0
1483453776.599,32.715,11.719,42.969,41.016,-16.602,0
1483453776.602,30.762,12.695,33.203,39.062,-1.953,0
1483453776.606,36.621,13.184,32.715,43.945,3.906,0
1483453776.610,43.945,12.207,33.203,45.898,8.301,0
1483453776.614,43.457,11.719,42.480,49.805,-33.203,0
1483453776.618,42.480,11.230,42.480,53.711,-25.879,0
1483453776.622,41.992,9.277,31.738,47.852,-39.062,0
1483453776.626,38.086,6.348,38.574,43.457,-18.555,0
1483453776.630,30.273,5.371,39.062,47.852,22.461,0
1483453776.634,16.113,0.000,38.574,34.180,-4.883,0
1483453776.638,13.672,-4.883,29.297,25.879,21.484,0
1483453776.642,23.438,-7.812,32.227,37.598,17.090,0
1483453776.645,29.785,-10.254,46.387,38.574,3.906,0
1483453776.649,36.621,-10.254,44.922,42.969,-10.254,0
1483453776.653,32.715,-19.043,40.527,41.992,2.441,0
1483453776.657,31.738,-18.555,42.480,45.410,57.617,0
1483453776.661,35.645,-15.137,37.598,52.246,43.945,0
1483453776.665,34.180,-20.508,38.086,50.293,38.086,0
1483453776.669,33.691,-21.973,45.898,49.805,46.875,0
1483453776.673,30.273,-19.531,47.363,51.270,-30.273,0
1483453776.677,19.531,-16.602,42.480,40.527,-6.348,0
1483453776.681,25.391,-14.648,41.992,42.969,30.273,0
1483453776.685,32.715,-17.090,41.016,51.270,-2.930,0
1483453776.688,22.461,-20.020,37.109,45.410,-16.113,0
1483453776.692,28.320,-11.230,39.062,51.270,-14.160,0
1483453776.696,41.504,-7.812,36.621,60.547,16.113,0
1483453776.700,44.434,-13.184,38.574,59.570,20.508,0
1483453776.704,44.922,-12.695,36.621,65.918,20.996,0
1483453776.708,48.828,-10.254,34.668,67.383,13.672,0
1483453776.712,50.781,-8.789,38.086,60.547,21.484,0
1483453776.716,44.922,-7.324,37.598,60.059,21.973,0
1483453776.720,41.016,-7.812,29.785,60.059,-23.926,0
1483453776.724,38.086,-5.859,24.902,54.199,-9.277,0
1483453776.727,35.645,-5.859,38.086,50.293,22.949,0
1483453776.731,33.691,-8.301,33.203,49.805,3.418,0
1483453776.735,30.273,-8.301,26.367,45.898,-28.809,3
1483453776.739,30.762,-7.812,27.832,48.828,-23.438,0
1483453776.743,31.250,-8.301,43.457,47.852,9.277,0
1483453776.747,31.738,-10.742,44.434,47.363,41.992,0
1483453776.751,30.273,-7.812,16.602,49.805,78.125,0
1483453776.755,31.250,-8.301,28.320,50.781,58.105,0
1483453776.759,41.016,-11.719,35.645,52.246,-2.441,0
1483453776.763,48.340,-8.301,29.785,50.781,17.090,0
1483453776.767,47.363,-5.371,34.180,54.199,20.508,0
1483453776.770,32.715,-6.348,37.598,53.711,-4.883,0
1483453776.774,24.414,-3.906,37.109,49.316,-25.879,0
1483453776.778,37.109,-0.977,45.898,56.641,3.418,0
1483453776.782,46.387,-2.930,48.828,57.129,34.668,0
1483453776.786,47.852,-6.836,47.852,62.012,17.090,0
1483453776.790,48.828,-6.348,41.016,66.406,17.578,0
1483453776.794,47.363,-7.324,36.133,50.781,-3.906,0
1483453776.798,55.664,-5.371,40.527,56.152,-49.805,0
1483453776.802,53.711,-3.906,42.480,73.242,-20.508,0
1483453776.806,41.504,-4.883,40.527,69.336,-6.836,0
1483453776.810,38.086,-3.418,39.551,56.641,-53.223,0
1483453776.813,35.156,-2.930,40.039,52.246,-83.008,0
1483453776.817,37.109,-1.953,41.992,58.594,-62.988,0
1483453776.821,32.227,-4.395,51.758,55.176,12.695,0
1483453776.825,22.461,-8.789,52.246,46.387,-11.230,0
1483453776.829,33.691,-6.836,51.270,57.129,-25.391,0
1483453776.833,44.434,-4.883,47.852,61.035,28.809,0
1483453776.837,48.828,-4.395,44.922,65.918,0.000,0
1483453776.841,54.688,-2.930,41.016,73.730,-10.742,0
1483453776.845,54.199,-6.836,26.367,72.754,-19.043,0
1483453776.849,55.176,-9.766,21.484,81.055,-34.668,0
1483453776.852,58.105,-7.324,32.227,77.637,39.062,0
1483453776.856,58.105,-7.324,36.621,67.871,9.766,0
1483453776.860,45.410,-10.742,41.504,75.684,-29.785,0
1483453776.864,35.645,-10.254,43.945,77.148,42.480,0
1483453776.868,41.016,-6.348,58.105,72.266,41.504,0
1483453776.872,45.410,-2.930,60.059,70.312,37.598,0
1483453776.876,43.945,-3.418,28.320,72.266,52.246,0
1483453776.880,43.945,-4.883,27.344,81.543,64.941,0
1483453776.884,43.945,-2.441,41.992,79.102,48.828,0
1483453776.888,42.969,2.441,40.039,78.125,-0.488,0
1483453776.892,31.250,2.930,30.273,72.266,20.020,0
1483453776.895,22.461,0.488,31.738,63.477,102.539,0
1483453776.899,21.973,-3.906,27.344,72.266,53.223,0
1483453776.903,19.043,-1.953,24.414,78.125,7.324,0
1483453776.907,25.879,5.371,27.344,75.195,55.176,0
1483453776.911,27.832,1.465,37.109,67.383,39.551,0
1483453776.915,28.320,0.000,45.410,70.801,-7.812,0
1483453776.919,23.438,-1.465,37.109,65.918,-24.414,0
1483453776.923,23.926,-2.930,29.785,68.848,41.016,0
1483453776.927,33.203,1.465,27.832,71.777,40.527,0
1483453776.931,33.691,-0.488,32.227,68.359,-16.113,0
1483453776.935,31.250,0.000,37.109,67.383,17.090,0
1483453776.938,34.180,7.324,28.809,68.359,6.348,0
1483453776.942,29.785,4.883,27.344,74.707,-0.488,0
1483453776.946,26.855,-0.488,45.410,68.848,13.184,0
1483453776.950,31.250,-0.977,31.250,62.500,15.625,0
1483453776.954,25.879,-2.441,23.438,62.012,-15.137,0
1483453776.958,24.414,-0.488,31.250,68.848,3.906,0
1483453776.962,27.832,0.977,16.602,68.359,45.410,0
1483453776.966,31.738,-0.488,20.020,65.430,-6.348,0
1483453776.970,31.250,-2.441,33.203,68.848,-35.645,0
1483453776.974,24.902,-1.953,28.809,66.406,-50.781,0
1483453776.977,25.391,-1.465,23.926,59.570,-19.043,0
1483453776.981,22.949,-3.418,31.250,54.199,-10.254,0
1483453776.985,24.902,0.488,26.367,59.570,-4.395,0
1483453776.989,20.508,-0.488,24.902,60.547,-17.090,0
1483453776.993,14.648,-2.930,41.992,58.594,-63.965,0
1483453776.997,18.066,0.977,41.016,59.570,-29.297,0
1483453777.001,23.926,5.371,34.668,56.152,51.758,0
1483453777.005,22.461,5.859,36.133,62.012,37.109,0
1483453777.009,8.789,2.441,27.832,51.758,16.113,0
1483453777.013,13.184,3.418,21.973,52.734,35.645,0
1483453777.017,24.414,10.742,30.762,57.617,15.137,0
1483453777.020,29.785,16.602,34.668,61.035,4.395,0
1483453777.024,24.414,13.184,35.645,60.547,92.773,0
1483453777.028,19.531,7.812,44.434,55.664,113.281,0
1483453777.032,27.344,9.766,43.945,60.547,41.504,0
1483453777.036,30.762,10.742,38.086,62.500,9.766,0
1483453777.040,29.297,9.766,39.551,53.223,20.508,0
1483453777.044,27.344,15.625,35.645,53.223,0.977,0
1483453777.048,27.832,22.949,29.297,63.477,-10.254,0
1483453777.052,34.668,25.391,35.645,71.777,-1.465,0
1483453777.056,32.715,25.879,33.691,67.383,41.992,0
1483453777.060,23.438,21.484,27.344,55.176,42.969,0
1483453777.063,20.508,15.625,35.156,51.758,32.715,0
1483453777.067,22.949,17.578,49.316,55.664,26.855,0
1483453777.071,21.973,17.578,48.828,61.035,-10.254,0
1483453777.075,27.344,12.695,45.898,60.059,5.371,0
1483453777.079,23.926,11.230,55.176,55.176,47.363,0
1483453777.083,22.461,13.672,44.922,57.129,84.473,0
1483453777.087,28.320,14.160,37.598,56.152,58.594,0
1483453777.091,30.762,13.184,36.621,52.734,42.480,0
1483453777.095,30.762,16.113,28.320,60.059,59.570,0
1483453777.099,26.855,16.113,27.832,58.594,49.805,0
1483453777.102,23.438,12.207,31.738,59.082,30.762,0
1483453777.106,21.484,10.254,36.621,59.570,0.488,0
1483453777.110,18.066,7.324,42.480,60.059,17.578,0
1483453777.114,20.996,7.812,38.574,58.105,53.223,0
1483453777.118,20.508,3.906,47.363,50.293,52.246,0
1483453777.122,20.020,0.977,48.828,59.570,11.230,0
1483453777.126,23.438,3.906,23.926,61.035,16.602,0
1483453777.130,20.996,0.488,36.133,52.734,21.484,0
1483453777.134,17.578,-2.930,40.527,50.293,-21.973,0
1483453777.138,21.973,-1.465,19.043,67.383,0.000,0
1483453777.142,24.414,-2.930,23.438,68.848,40.527,0
1483453777.145,24.902,-2.930,31.250,64.941,50.293,0
1483453777.149,20.020,-5.371,32.715,58.594,55.664,0
1483453777.153,21.484,-10.254,41.504,57.129,44.922,0
1483453777.157,33.691,-8.789,46.387,71.777,20.996,0
1483453777.161,26.855,-8.301,37.109,72.754,0.000,0
1483453777.165,14.648,-10.742,29.785,64.941,-20.996,0
1483453777.169,18.555,-11.230,28.320,73.730,16.113,0
1483453777.173,23.926,-8.301,19.043,75.684,5.371,0
1483453777.177,25.879,-4.883,41.992,72.266,5.859,0
1483453777.181,31.250,-4.395,64.453,76.172,50.293,0
1483453777.185,37.598,-1.465,48.828,69.336,61.523,0
1483453777.188,32.715,-0.488,30.762,76.660,6.348,0
1483453777.192,15.137,-3.418,27.832,71.289,-11.230,0
1483453777.196,13.672,-1.953,31.738,55.664,18.066,0
1483453777.200,20.020,-1.465,30.273,74.707,-6.348,0
1483453777.204,25.391,-3.906,37.598,71.777,4.883,0
1483453777.208,25.391,-2.441,42.969,61.523,42.480,0
1483453777.212,22.949,-1.953,40.527,78.613,12.207,0
1483453777.216,21.973,-7.812,35.156,77.148,62.012,0
1483453777.220,23.926,-2.930,33.203,72.266,91.797,0
1483453777.224,26.855,3.906,34.668,75.195,44.922,0
1483453777.227,29.785,1.953,37.109,62.988,19.531,0
1483453777.231,28.320,0.000,40.039,50.293,-1.953,0
1483453777.235,25.879,1.465,29.297,49.805,21.484,0
1483453777.239,23.926,3.418,23.438,61.523,28.809,4
1483453777.243,13.184,-1.465,28.320,67.383,39.551,0
1483453777.247,16.602,-0.977,29.785,65.918,69.824,0
1483453777.251,15.137,-1.465,41.992,55.176,16.113,0
1483453777.255,9.766,-6.836,39.551,49.805,1.465,0
1483453777.259,16.602,-4.883,41.504,57.617,2.930,0
1483453777.263,15.137,-5.371,40.039,62.988,3.418,0
1483453777.267,14.648,-5.859,24.414,65.918,9.766,0
1483453777.270,24.414,1.465,26.855,60.547,3.418,0
1483453777.274,33.203,5.859,23.926,63.965,52.734,0
1483453777.278,28.809,4.883,15.625,74.219,62.988,0
1483453777.282,34.668,3.906,31.250,78.125,22.461,0
1483453777.286,39.551,2.441,40.527,73.242,33.203,0
1483453777.290,30.762,0.977,33.203,76.660,57.617,0
1483453777.294,30.762,0.488,38.574,77.637,52.734,0
1483453777.298,29.785,0.977,55.664,70.801,47.363,0
1483453777.302,30.762,1.465,47.363,71.777,10.742,0
1483453777.306,35.156,0.000,40.039,69.824,-20.996,0
1483453777.310,28.809,1.953,37.109,69.824,-1.465,0
1483453777.313,27.344,4.883,24.414,74.219,-4.395,0
1483453777.317,34.668,5.859,28.809,72.266,36.621,0
1483453777.321,37.109,6.348,30.762,71.289,24.902,0
1483453777.325,30.273,6.348,31.250,69.824,-23.438,0
1483453777.329,20.508,9.277,49.316,70.312,22.949,0
1483453777.333,22.949,7.812,58.105,62.988,23.926,0
1483453777.337,23.926,3.418,38.574,63.477,19.531,0
1483453777.341,22.949,5.371,37.109,72.754,41.992,0
1483453777.345,24.902,4.883,49.316,72.266,88.867,0
1483453777.349,24.414,3.906,51.270,81.055,0.000,0
1483453777.352,23.926,4.883,53.711,80.078,-66.406,0
1483453777.356,28.320,7.324,51.270,71.289,34.668,0
1483453777.360,33.203,7.812,40.039,66.895,83.008,0
1483453777.364,30.762,4.883,34.180,75.684,89.355,0
1483453777.368,22.461,5.371,45.898,82.520,17.090,0
1483453777.372,27.832,7.812,45.410,82.031,-33.691,0
1483453777.376,35.645,9.277,45.410,73.242,14.648,0
1483453777.380,29.785,10.742,54.688,62.500,7.324,0
1483453777.384,22.949,9.766,44.922,61.035,-26.367,0
1483453777.388,26.367,10.254,47.363,71.289,-12.695,0
1483453777.392,29.297,10.254,44.922,76.172,-14.648,0
1483453777.395,21.484,5.371,41.016,71.289,10.742,0
1483453777.399,25.879,5.859,41.504,77.148,45.410,0
1483453777.403,36.621,10.254,24.902,76.660,18.555,0
1483453777.407,28.809,7.324,25.879,73.730,-32.715,0
1483453777.411,32.227,6.836,36.133,89.355,23.438,0
1483453777.415,45.410,7.812,38.574,84.961,43.457,0
1483453777.419,41.016,4.395,46.875,74.219,8.301,0
1483453777.423,34.180,4.883,46.387,75.195,-45.898,0
1483453777.427,37.109,6.348,28.320,83.008,-19.043,0
1483453777.431,44.434,7.812,31.738,92.285,30.273,0
1483453777.435,32.227,2.930,39.062,75.684,-3.418,0
1483453777.438,25.391,3.418,30.762,60.059,0.977,0
1483453777.442,25.879,5.859,26.367,64.941,2.930,0
1483453777.446,21.973,4.395,35.156,65.918,-20.020,0
1483453777.450,29.297,6.836,34.668,67.871,-27.832,0
1483453777.454,27.344,6.348,26.855,73.730,20.508,0
1483453777.458,23.926,6.348,31.250,71.289,10.254,0
1483453777.462,24.902,7.324,25.391,68.848,-20.508,0
1483453777.466,21.973,1.953,22.949,60.059,-4.395,0
1483453777.470,26.367,0.977,27.832,59.570,21.484,0
1483453777.474,33.203,2.930,25.391,67.871,53.223,0
1483453777.477,27.344,-3.418,33.203,53.711,23.926,0
1483453777.481,33.203,-3.906,36.621,53.223,-15.625,0
1483453777.485,43.457,2.441,30.762,66.895,0.000,0
1483453777.489,33.203,2.930,36.621,59.082,-1.953,0
1483453777.493,27.344,2.930,34.668,57.617,21.484,0
1483453777.497,32.715,2.930,28.320,63.477,36.621,0
1483453777.501,38.574,4.883,21.973,72.266,-3.418,0
1483453777.505,34.668,2.930,21.973,60.547,-17.578,0
1483453777.509,29.297,1.953,29.297,54.688,-17.090,0
1483453777.513,38.086,7.812,26.855,69.824,16.602,0
1483453777.517,41.016,3.906,27.344,63.965,4.395,0
1483453777.520,37.598,-0.977,34.180,56.152,12.695,0
1483453777.524,38.086,2.441,37.109,64.941,58.594,0
1483453777.528,41.016,6.836,25.391,68.848,41.016,0
1483453777.532,44.434,7.812,31.250,64.941,36.621,0
1483453777.536,40.527,0.488,48.828,64.453,34.180,0
1483453777.540,38.574,-1.953,51.758,62.988,16.602,0
1483453777.544,40.039,4.883,59.082,65.918,79.102,0
1483453777.548,32.715,2.930,47.363,66.406,64.453,0
1483453777.552,29.785,1.953,29.785,60.547,3.418,0
1483453777.556,39.062,8.301,46.387,62.500,41.016,0
1483453777.560,42.480,8.301,48.340,71.777,76.172,0
1483453777.563,40.039,5.859,44.922,68.848,32.715,0
1483453777.567,31.250,1.953,54.199,63.477,10.254,0
1483453777.571,32.715,-0.977,56.641,66.406,20.508,0
1483453777.575,38.086,3.418,62.012,63.477,17.578,0
1483453777.579,30.762,0.977,55.664,61.523,52.246,0
1483453777.583,33.203,-0.488,40.039,61.523,49.805,0
1483453777.587,39.062,3.418,37.598,68.848,67.383,0
1483453777.591,39.551,3.906,41.504,67.383,42.969,0
1483453777.595,41.016,7.812,53.711,69.824,10.254,0
1483453777.599,43.457,6.836,59.082,67.871,10.254,0
1483453777.602,39.062,6.836,42.969,59.082,29.297,0
1483453777.606,36.133,12.695,27.344,71.289,0.488,0
1483453777.610,41.016,10.742,41.504,68.848,-5.371,0
1483453777.614,34.180,4.395,43.457,64.941,55.176,0
1483453777.618,34.668,6.348,31.738,62.012,38.086,0
1483453777.622,35.645,5.859,46.875,54.688,4.395,0
1483453777.626,21.973,-0.488,53.223,57.617,8.301,0
1483453777.630,29.297,-0.488,38.086,55.176,28.809,0
1483453777.634,35.645,2.930,31.738,49.805,52.734,0
1483453777.638,35.156,6.348,35.645,58.594,33.203,0
1483453777.642,37.109,5.859,38.574,62.012,27.344,0
1483453777.645,31.738,-0.977,44.434,50.781,48.828,0
1483453777.649,34.180,-0.488,43.945,47.852,70.312,0
1483453777.653,27.344,0.488,42.969,46.875,52.734,0
1483453777.657,26.855,0.488,40.039,37.109,17.578,0
1483453777.661,35.156,2.441,40.527,41.992,14.160,0
1483453777.665,33.691,0.977,42.480,48.340,47.363,0
1483453777.669,34.668,0.488,33.203,49.805,74.707,0
1483453777.673,29.297,-1.465,26.855,44.922,80.566,0
1483453777.677,33.691,2.930,35.156,52.734,61.523,0
1483453777.681,41.016,6.348,43.457,65.918,59.082,0
1483453777.685,39.551,5.859,48.340,54.688,69.336,0
1483453777.688,42.969,6.836,45.898,51.270,57.129,0
1483453777.692,41.016,4.395,35.645,51.270,125.488,0
1483453777.696,35.645,5.371,28.320,47.852,114.746,0
1483453777.700,26.855,3.906,38.086,43.457,32.227,0
1483453777.704,32.227,4.883,37.109,55.176,31.250,0
1483453777.708,42.480,9.277,36.133,62.500,-25.391,0
1483453777.712,44.922,8.301,35.156,55.664,-32.227,0
1483453777.716,43.457,8.301,21.973,60.059,13.184,0
1483453777.720,40.039,8.789,39.551,57.129,-36.621,0
1483453777.724,41.016,7.324,58.594,56.152,-42.969,0
1483453777.727,35.156,4.883,41.504,51.758,33.203,0
1483453777.731,33.203,5.859,38.574,49.316,95.215,0
1483453777.735,35.156,4.883,30.273,45.898,37.109,0
1483453777.739,30.762,1.465,20.020,39.551,-2.930,5
1483453777.743,30.273,4.395,30.762,46.875,43.945,0
1483453777.747,28.320,5.371,29.297,43.457,59.082,0
1483453777.751,27.832,3.418,31.250,38.086,64.941,0
1483453777.755,21.484,1.953,35.645,38.086,41.504,0
1483453777.759,15.137,6.348,23.926,36.621,6.348,0
1483453777.763,20.508,11.719,23.926,45.898,10.742,0
1483453777.767,22.461,8.301,47.363,51.270,24.902,0
1483453777.770,22.949,5.859,47.852,49.316,16.113,0
1483453777.774,24.902,4.883,36.133,51.270,4.883,0
1483453777.778,32.715,2.930,43.945,45.898,15.137,0
1483453777.782,34.180,5.371,41.992,51.270,16.602,0
1483453777.786,29.785,4.395,30.273,45.898,0.000,0
1483453777.790,41.504,5.859,31.738,43.945,23.926,0
1483453777.794,37.109,7.324,30.762,47.363,46.387,0
1483453777.798,35.156,7.812,29.785,47.852,29.785,0
1483453777.802,42.969,6.836,34.668,50.781,-0.977,0
1483453777.806,41.992,7.324,38.086,47.363,-25.391,0
1483453777.810,44.434,8.301,28.320,54.199,21.973,0
1483453777.813,49.805,7.812,16.602,60.059,49.805,0
1483453777.817,46.387,6.836,31.738,44.434,6.836,0
1483453777.821,41.992,6.348,39.062,40.527,-17.090,0
1483453777.825,43.945,6.836,40.039,49.805,4.883,0
1483453777.829,41.016,6.348,39.551,49.316,47.852,0
1483453777.833,38.574,8.301,26.855,44.434,28.320,0
1483453777.837,48.340,8.301,11.230,48.828,13.184,0
1483453777.841,43.945,9.277,24.414,48.340,0.000,0
1483453777.845,37.109,8.301,41.992,36.621,-13.184,0
1483453777.849,43.945,9.766,31.738,39.551,20.020,0
1483453777.852,35.156,7.812,28.809,45.898,23.926,0
1483453777.856,37.598,6.348,14.648,39.551,51.270,0
1483453777.860,46.875,9.766,24.414,44.434,10.742,0
1483453777.864,48.340,6.348,37.598,43.945,-50.781,0
1483453777.868,49.805,2.930,19.043,42.969,55.664,0
1483453777.872,39.062,3.418,29.785,45.410,82.031,0
1483453777.876,32.715,1.953,44.434,38.574,2.930,0
1483453777.880,35.645,2.441,41.504,34.180,-31.250,0
1483453777.884,43.945,6.836,33.203,37.109,14.648,0
1483453777.888,49.316,10.254,30.762,48.340,45.898,0
1483453777.892,41.504,8.789,20.020,43.945,10.742,0
1483453777.895,26.855,6.836,25.879,29.297,11.230,0
1483453777.899,20.508,4.883,43.945,37.109,33.203,0
1483453777.903,21.484,2.930,37.109,38.574,38.574,0
1483453777.907,22.461,0.488,28.809,36.621,30.273,0
1483453777.911,28.809,-1.465,34.180,32.715,-11.230,0
1483453777.915,27.344,-1.953,36.133,34.668,20.996,0
1483453777.919,33.691,1.953,32.715,50.781,89.355,0
1483453777.923,39.551,6.836,35.645,51.270,102.051,0
1483453777.927,33.691,7.324,29.297,45.898,79.102,0
1483453777.931,45.898,11.719,18.555,58.594,-11.719,0
1483453777.935,55.664,13.184,19.531,58.105,16.113,0
1483453777.938,48.828,6.348,36.621,47.852,14.160,0
1483453777.942,42.480,3.906,41.504,47.852,1.953,0
1483453777.946,39.551,3.418,51.270,43.945,24.414,0
1483453777.950,41.992,5.859,53.711,54.199,-30.762,0
1483453777.954,50.293,11.230,30.273,55.176,-2.930,0
1483453777.958,41.504,9.766,24.414,42.969,30.762,0
1483453777.962,37.598,6.348,39.062,44.922,24.414,0
1483453777.966,39.551,5.859,40.039,41.992,48.340,0
1483453777.970,39.062,8.301,38.574,37.109,36.133,0
1483453777.974,36.133,7.812,45.410,38.574,12.695,0
1483453777.977,37.109,7.324,35.156,39.062,30.273,0
1483453777.981,42.969,7.812,32.227,47.363,49.316,0
1483453777.985,44.922,6.348,28.809,38.574,83.984,0
1483453777.989,44.434,8.789,6.348,33.691,72.754,0
1483453777.993,34.180,9.766,23.926,36.133,0.488,0
1483453777.997,26.855,4.395,46.387,32.715,3.906,0
1483453778.001,31.738,5.371,41.016,35.645,9.766,0
1483453778.005,29.785,7.812,36.133,38.574,36.621,0
1483453778.009,29.297,6.348,40.039,33.203,49.805,0
1483453778.013,34.668,1.953,48.828,23.438,37.109,0
1483453778.017,34.180,1.953,40.039,41.016,20.508,0
1483453778.020,28.320,5.371,32.715,50.293,-36.621,0
1483453778.024,25.391,8.301,26.855,41.016,-28.809,0
1483453778.028,30.762,8.301,18.066,33.691,1.953,0
1483453778.032,28.320,2.930,16.113,27.344,50.293,0
1483453778.036,20.508,-0.977,31.250,29.297,69.336,0
1483453778.040,24.414,0.488,33.691,39.551,27.832,0
1483453778.044,35.645,0.488,33.203,37.598,-10.254,0
1483453778.048,35.156,-0.488,46.387,28.320,-22.949,0
1483453778.052,28.809,1.953,44.922,37.598,-4.883,0
1483453778.056,28.809,4.395,31.738,36.621,70.312,0
1483453778.060,37.598,6.836,34.180,38.086,63.477,0
1483453778.063,41.504,5.371,44.922,49.316,-16.602,0
1483453778.067,32.227,1.465,33.203,38.086,-40.039,0
1483453778.071,30.762,3.418,28.320,25.391,10.742,0
1483453778.075,35.645,3.906,30.762,40.039,66.406,0
1483453778.079,34.180,-2.441,39.551,39.551,37.109,0
1483453778.083,32.715,-1.465,54.199,32.227,21.973,0
1483453778.087,25.391,-1.465,36.621,35.645,51.270,0
1483453778.091,24.902,-0.488,16.602,39.551,37.598,0
1483453778.095,24.414,-1.953,43.945,34.180,31.250,0
1483453778.099,17.090,-5.859,58.594,27.344,76.172,0
1483453778.102,28.320,0.000,37.109,36.621,88.867,0
1483453778.106,36.133,2.930,29.785,35.645,69.336,0
1483453778.110,22.461,-0.977,34.180,35.156,16.602,0
1483453778.114,11.719,-4.395,30.762,27.344,-17.090,0
1483453778.118,15.625,-0.488,36.621,25.391,-32.715,0
1483453778.122,19.043,1.953,39.062,26.367,12.695,0
1483453778.126,19.531,-0.488,36.621,13.184,42.969,0
1483453778.130,24.902,1.465,30.273,23.926,48.828,0
1483453778.134,27.832,0.977,24.414,37.109,62.012,0
1483453778.138,29.297,3.418,14.160,39.062,10.254,0
1483453778.142,35.645,3.418,23.926,30.762,-0.977,0
1483453778.145,33.691,1.465,35.645,19.531,16.602,0
1483453778.149,38.574,5.371,29.297,36.621,51.758,0
1483453778.153,37.598,4.883,36.621,45.898,84.961,0
1483453778.157,25.391,2.441,43.945,36.621,36.621,0
1483453778.161,28.809,2.441,37.598,33.691,6.348,0
1483453778.165,39.062,7.324,18.066,43.945,56.152,0
1483453778.169,34.668,6.348,17.578,41.992,66.406,0
1483453778.173,28.320,-2.441,40.527,26.855,87.891,0
1483453778.177,33.203,-1.465,47.363,37.598,70.312,0
1483453778.181,38.086,1.465,39.551,48.340,22.461,0
1483453778.185,32.227,3.418,22.461,44.434,28.809,0
1483453778.188,26.855,2.441,20.020,49.316,-21.484,0
1483453778.192,28.320,-0.977,45.410,38.086,-12.207,0
1483453778.196,26.367,0.488,49.316,34.668,11.719,0
1483453778.200,25.879,2.930,33.203,41.016,20.508,0
1483453778.204,31.738,4.883,25.391,37.109,34.668,0
1483453778.208,31.738,4.883,20.020,40.527,41.504,0
1483453778.212,25.391,1.953,38.574,39.551,60.059,0
1483453778.216,25.879,-0.977,52.246,36.133,65.430,0
1483453778.220,33.203,0.488,40.527,43.457,26.367,0
1483453778.224,34.180,2.930,30.762,49.316,4.395,0
1483453778.227,28.320,1.465,28.320,31.250,-10.742,0
1483453778.231,28.809,4.395,35.645,29.297,-28.320,0
1483453778.235,27.344,8.301,51.270,37.598,12.207,0
1483453778.239,24.414,8.789,44.922,33.691,28.809,0
1483453778.243,27.832,10.742,31.738,35.645,59.570,0
1483453778.247,36.133,15.137,27.344,41.504,46.875,0
1483453778.251,44.922,17.090,22.949,46.875,-16.113,0
1483453778.255,44.922,13.184,41.016,43.457,17.090,0
1483453778.259,42.480,11.230,43.945,44.434,50.293,0
1483453778.263,52.246,12.695,29.297,54.199,40.039,0
1483453778.267,44.434,10.254,29.297,52.734,38.574,0
1483453778.270,31.250,6.348,42.969,47.852,20.508,0
1483453778.274,42.969,7.324,42.969,45.410,48.340,0
1483453778.278,39.551,5.859,34.180,36.621,61.035,0
1483453778.282,41.016,7.324,29.785,46.387,8.789,0
1483453778.286,42.480,6.348,34.180,51.758,30.762,0
1483453778.290,33.203,5.859,34.180,36.133,37.109,0
1483453778.294,36.133,14.160,37.109,40.039,48.828,0
1483453778.298,36.133,16.113,39.062,50.293,86.426,0
1483453778.302,35.645,11.230,37.109,48.340,77.148,0
1483453778.306,30.273,10.254,40.039,40.527,58.594,0
1483453778.310,29.785,12.207,27.344,41.504,50.781,0
1483453778.313,32.227,12.207,22.949,51.270,55.664,0
1483453778.317,32.227,9.766,33.203,56.152,16.113,0
1483453778.321,31.738,9.277,34.180,55.664,-41.016,0
1483453778.325,38.574,11.719,26.367,61.523,0.977,0
1483453778.329,40.039,7.812,23.438,64.453,46.875,0
1483453778.333,43.945,9.277,12.695,63.965,84.961,0
1483453778.337,55.176,17.578,20.508,72.754,66.895,0
1483453778.341,54.688,20.020,35.645,80.078,30.762,0
1483453778.345,57.129,15.625,35.645,85.938,63.477,0
1483453778.349,49.805,9.766,29.785,83.008,82.520,0
1483453778.352,45.898,10.254,23.438,69.336,36.621,0
1483453778.356,46.875,9.766,19.531,71.289,-0.977,0
1483453778.360,42.969,6.836,27.832,71.777,34.180,0
1483453778.364,40.527,5.859,23.926,66.895,47.363,0
1483453778.368,36.133,6.348,8.789,75.684,63.965,0
1483453778.372,28.809,2.441,7.812,72.754,47.852,0
1483453778.376,29.297,0.977,28.809,63.965,75.684,0
1483453778.380,32.715,5.371,45.898,71.777,65.430,0
1483453778.384,36.621,6.836,39.062,71.289,31.738,0
1483453778.388,34.668,3.418,39.062,65.918,54.688,0
1483453778.392,33.203,0.488,32.227,65.430,76.660,0
1483453778.395,23.438,-3.906,33.691,59.082,97.656,0
1483453778.399,26.367,-1.465,28.320,57.129,108.887,0
1483453778.403,40.039,2.930,22.949,62.012,46.387,0
1483453778.407,38.574,-0.488,31.738,54.199,53.223,0
1483453778.411,37.109,3.418,27.344,60.059,63.477,0
1483453778.415,31.738,6.836,21.973,59.570,60.059,0
1483453778.419,26.855,2.930,17.578,39.062,78.613,0
1483453778.423,32.227,1.465,15.137,40.039,65.430,0
1483453778.427,36.133,4.395,17.578,49.805,66.895,0
1483453778.431,31.250,6.348,4.883,40.039,50.781,0
1483453778.435,28.809,6.348,0.488,32.227,50.781,0
1483453778.438,30.762,6.836,27.832,34.668,98.633,0
1483453778.442,29.785,4.395,28.320,33.203,55.664,0
1483453778.446,29.297,4.883,12.207,27.344,53.711,0
1483453778.450,33.203,5.371,28.320,24.902,36.133,0
1483453778.454,29.297,0.977,32.227,24.902,26.855,0
1483453778.458,21.484,-0.977,23.926,29.785,95.703,0
1483453778.462,19.043,-3.418,23.926,28.320,39.551,0
1483453778.466,33.691,0.488,25.879,35.645,0.000,0
1483453778.470,33.691,1.465,31.738,41.016,35.645,0
1483453778.474,24.414,-4.395,23.926,33.691,102.539,0
1483453778.477,17.090,-3.906,35.156,19.043,139.160,0
1483453778.481,0.488,-4.395,58.594,19.043,127.930,0
1483453778.485,-11.719,-2.441,55.176,23.438,124.512,0
1483453778.489,-26.367,0.488,45.410,21.484,136.719,0
1483453778.493,-31.738,-1.465,45.410,23.438,158.691,0
1483453778.497,-30.762,1.465,44.434,9.277,200.684,0
1483453778.501,-26.855,0.488,41.992,-1.465,213.379,0
1483453778.505,-13.184,-3.906,38.574,7.812,239.258,0
1483453778.509,-11.719,-4.883,25.391,8.301,250.000,0
1483453778.513,-9.277,-6.836,39.551,6.836,275.879,0
1483453778.517,8.301,-3.906,43.457,20.508,321.289,0
1483453778.520,12.207,-2.930,32.227,20.508,301.758,0
1483453778.524,14.648,-1.953,32.715,14.648,286.133,0
1483453778.528,27.344,1.465,37.598,16.113,284.180,0
1483453778.532,34.180,2.930,43.457,26.367,308.594,0
1483453778.536,35.156,4.883,47.363,29.297,339.355,0
1483453778.540,34.668,2.930,35.645,21.484,341.797,0
1483453778.544,36.133,0.977,10.254,24.902,362.793,0
1483453778.548,42.969,-0.977,16.602,24.902,345.703,0
1483453778.552,40.039,-0.977,38.574,23.926,336.914,0
1483453778.556,43.457,6.348,32.715,39.062,358.887,0
1483453778.560,44.922,8.301,27.344,36.133,384.277,0
1483453778.563,40.039,7.812,33.691,38.086,374.512,0
1483453778.567,34.668,6.348,39.062,33.203,333.008,0
1483453778.571,35.645,4.395,33.691,18.066,337.402,0
1483453778.575,37.109,4.395,18.555,20.020,366.699,0
1483453778.579,31.738,4.395,16.602,20.508,359.863,0
1483453778.583,23.926,3.418,13.672,15.625,328.613,0
1483453778.587,20.996,1.465,12.207,19.531,313.477,0
1483453778.591,32.227,-0.977,29.297,20.508,329.102,0
1483453778.595,31.250,-4.395,34.668,15.137,366.699,0
1483453778.599,32.227,0.488,30.273,13.672,356.934,0
1483453778.602,40.527,2.441,40.527,10.254,342.285,0
1483453778.606,35.645,-1.465,43.945,8.789,349.609,0
1483453778.610,36.133,0.977,24.414,16.602,334.961,0
1483453778.614,38.574,2.930,18.555,26.367,315.430,0
1483453778.618,31.250,0.000,29.785,24.902,344.238,0
1483453778.622,34.180,2.930,20.996,24.902,382.324,0
1483453778.626,34.668,1.953,16.602,23.438,379.395,0
1483453778.630,32.227,-5.371,33.691,17.578,355.469,0
1483453778.634,33.691,-2.930,39.062,18.066,336.426,0
1483453778.638,18.066,-3.418,28.809,12.207,367.188,0
1483453778.642,14.648,-4.883,27.832,8.301,362.305,0
1483453778.645,28.809,0.977,37.598,17.090,345.703,0
1483453778.649,30.762,0.488,30.762,19.531,357.422,0
1483453778.653,19.531,-1.953,24.414,18.555,351.074,0
1483453778.657,24.414,-1.465,38.574,21.484,329.102,0
1483453778.661,33.691,-0.488,32.227,22.949,319.336,0
1483453778.665,32.227,-0.977,14.160,21.484,357.910,0
1483453778.669,32.715,-4.395,32.715,13.184,409.668,0
1483453778.673,32.715,-6.836,52.246,18.066,450.684,0
1483453778.677,30.762,-11.230,41.992,21.484,484.375,0
1483453778.681,31.738,-11.719,31.738,21.973,482.422,0
1483453778.685,37.109,-9.766,32.227,17.090,482.422,0
1483453778.688,36.621,-5.859,35.645,15.625,476.074,0
1483453778.692,34.668,-0.977,20.508,29.297,492.188,0
1483453778.696,30.762,-3.418,18.066,27.344,539.551,0
1483453778.700,33.203,-4.883,47.363,21.973,557.129,0
1483453778.704,38.086,-3.906,56.152,22.949,550.293,0
1483453778.708,41.504,-4.395,49.805,15.625,579.102,0
1483453778.712,34.180,-5.859,36.133,22.949,655.762,0
1483453778.716,21.484,-6.348,17.578,25.879,663.086,0
1483453778.720,25.879,-4.883,20.020,20.508,617.676,0
1483453778.724,32.715,-3.906,32.715,27.832,616.699,0
1483453778.727,34.180,-4.395,27.832,30.273,611.328,0
1483453778.731,38.574,-3.418,20.996,27.344,624.023,0
1483453778.735,39.062,-2.930,27.832,21.484,653.320,0
1483453778.739,36.621,-3.906,48.828,20.020,642.090,0
1483453778.743,43.945,-2.441,57.129,26.855,625.000,0
1483453778.747,44.922,-5.371,45.898,30.273,619.629,0
1483453778.751,40.527,-7.324,36.621,29.297,571.289,0
1483453778.755,39.551,-3.418,38.574,20.996,579.102,0
1483453778.759,31.738,-2.930,33.203,17.090,611.816,0
1483453778.763,29.297,-0.488,14.648,32.227,584.473,0
1483453778.767,34.180,-3.906,10.742,30.273,585.938,0
1483453778.770,29.297,-11.230,41.016,18.555,608.398,0
1483453778.774,32.227,-4.395,36.621,27.344,596.191,0
1483453778.778,37.598,-0.488,25.391,30.762,590.332,0
1483453778.782,30.762,-2.441,36.621,24.414,580.078,0
1483453778.786,25.879,-4.883,20.020,25.391,583.984,0
1483453778.790,27.344,-7.812,18.066,22.949,583.496,0
1483453778.794,30.273,-7.812,15.137,20.508,563.965,0
1483453778.798,39.551,-7.324,11.230,26.367,600.586,0
1483453778.802,37.598,-9.766,21.973,22.949,664.062,0
1483453778.806,41.016,-6.836,11.719,19.531,674.316,0
1483453778.810,41.016,-4.395,12.695,20.508,692.383,0
1483453778.813,40.527,-2.441,26.367,34.180,732.422,0
1483453778.817,41.504,-2.930,35.645,26.855,733.398,0
1483453778.821,30.762,-7.812,44.922,23.926,716.309,0
1483453778.825,27.832,-7.812,30.273,41.992,709.961,0
1483453778.829,28.320,-5.859,12.695,34.180,725.586,0
1483453778.833,24.902,-9.277,16.113,21.973,694.824,0
1483453778.837,34.180,-7.324,11.719,27.832,666.992,0
1483453778.841,34.668,-5.371,15.625,30.273,651.855,0
1483453778.845,11.230,-12.207,31.250,20.508,658.203,0
1483453778.849,11.230,-10.742,24.902,24.414,674.805,0
1483453778.852,16.602,-10.742,6.348,22.949,640.625,0
1483453778.856,13.672,-12.207,17.578,13.672,613.281,0
1483453778.860,17.578,-4.883,28.320,24.414,655.762,0
1483453778.864,17.578,-1.953,21.484,24.902,657.227,0
1483453778.868,26.855,-5.371,25.879,18.066,631.836,0
1483453778.872,22.949,-7.812,41.016,21.484,653.809,0
1483453778.876,24.414,-5.859,37.109,28.809,659.180,0
1483453778.880,28.320,-7.324,26.855,22.949,642.090,0
1483453778.884,26.855,-6.836,14.160,22.949,587.891,0
1483453778.888,36.621,-3.418,16.113,37.109,572.266,0
1483453778.892,35.645,-4.883,36.621,27.832,604.980,0
1483453778.895,34.180,-5.371,34.668,22.461,607.422,0
1483453778.899,30.273,-4.883,28.809,20.020,593.750,0
1483453778.903,30.762,-0.977,18.066,21.973,579.102,0
1483453778.907,35.156,-0.977,7.324,22.949,592.285,0
1483453778.911,27.832,-5.859,21.484,19.531,572.266,0
1483453778.915,23.926,-2.441,44.922,19.043,541.504,0
1483453778.919,24.902,-1.465,35.156,10.254,558.105,0
1483453778.923,30.273,-3.906,23.438,20.020,571.289,0
1483453778.927,31.250,-5.371,27.832,24.902,544.434,0
1483453778.931,35.645,-3.418,11.719,21.973,550.293,0
1483453778.935,30.273,-4.395,15.137,27.832,552.734,0
1483453778.938,34.180,-4.883,37.598,31.738,495.117,0
1483453778.942,44.434,-0.488,30.273,35.645,492.676,0
1483453778.946,40.527,-4.883,36.133,30.762,523.926,0
1483453778.950,38.086,-5.371,37.109,31.250,549.805,0
1483453778.954,39.551,-1.953,25.879,30.762,531.738,0
1483453778.958,41.016,-3.418,38.574,35.156,490.723,0
1483453778.962,41.504,0.488,44.434,36.133,488.770,0
1483453778.966,44.922,-0.977,45.410,31.738,514.160,0
1483453778.970,41.504,-2.441,27.832,28.809,505.371,0
1483453778.974,43.457,1.465,3.418,29.785,457.031,0
1483453778.977,34.668,-1.465,22.461,26.855,451.660,0
1483453778.981,26.855,-1.953,34.180,18.066,484.863,0
1483453778.985,26.367,2.930,26.855,20.508,468.262,0
1483453778.989,34.180,6.348,22.949,23.926,425.293,0
1483453778.993,41.504,5.859,27.832,22.949,414.062,0
1483453778.997,42.480,3.418,28.320,23.438,395.020,0
1483453779.001,43.945,1.953,43.945,24.902,347.656,0
1483453779.005,41.992,-2.930,28.809,27.832,316.895,0
1483453779.009,41.504,-1.953,5.859,33.203,320.801,0
1483453779.013,45.898,0.488,31.738,40.527,327.637,0
1483453779.017,46.387,-0.977,43.945,34.668,281.738,0
1483453779.020,44.434,-1.953,37.109,28.809,242.676,0
1483453779.024,39.062,-3.418,33.203,34.180,251.953,0
1483453779.028,36.133,-0.977,30.273,31.250,241.211,0
1483453779.032,49.805,0.488,22.949,41.016,186.035,0
1483453779.036,57.617,2.930,33.203,55.176,151.855,0
1483453779.040,53.223,3.906,41.992,50.293,182.617,0
1483453779.044,44.922,6.348,38.574,42.480,187.500,0
1483453779.048,41.992,7.324,31.738,38.574,150.879,0
1483453779.052,44.434,3.418,24.902,27.832,134.766,0
1483453779.056,38.574,3.418,14.648,30.762,123.047,0
1483453779.060,34.180,5.371,20.020,41.992,103.027,0
1483453779.063,33.203,5.371,24.414,34.668,80.566,0
1483453779.067,28.809,7.812,36.133,27.344,67.871,0
1483453779.071,27.832,8.301,50.781,35.156,74.707,0
1483453779.075,32.227,5.371,33.691,36.133,51.758,0
1483453779.079,40.039,6.348,29.297,30.273,19.531,0
1483453779.083,40.039,6.836,28.320,36.621,38.086,0
1483453779.087,32.715,7.324,12.207,43.945,64.453,0
1483453779.091,35.156,5.859,35.645,46.387,60.059,0
1483453779.095,41.992,4.395,35.645,43.945,44.922,0
1483453779.099,40.039,4.883,-17.578,40.039,76.660,0
1483453779.102,44.922,3.906,-16.602,40.039,101.562,0
1483453779.106,44.922,3.418,3.418,38.574,86.426,0
1483453779.110,49.805,10.742,-7.324,42.480,90.820,0
1483453779.114,45.898,13.184,-4.883,41.504,95.215,0
1483453779.118,37.109,8.789,3.418,40.527,96.191,0
1483453779.122,37.109,8.789,-1.465,36.133,69.824,0
1483453779.126,33.691,5.859,4.883,28.809,44.922,0
1483453779.130,33.203,5.371,15.137,32.715,99.609,0
1483453779.134,34.668,2.930,4.395,30.762,108.398,0
1483453779.138,34.180,1.465,0.488,26.855,45.898,0
1483453779.142,36.621,7.324,3.418,36.133,52.734,0
1483453779.145,41.016,8.789,10.254,36.621,68.848,0
1483453779.149,25.879,3.418,25.879,22.461,84.473,0
1483453779.153,20.996,3.906,25.391,24.902,102.051,0
1483453779.157,29.297,7.812,24.414,33.203,91.309,0
1483453779.161,27.832,7.812,21.973,34.668,84.473,0
1483453779.165,29.785,10.254,28.809,32.715,101.562,0
1483453779.169,25.391,8.301,21.973,28.320,68.848,0
1483453779.173,20.996,7.812,1.953,30.762,36.133,0
1483453779.177,25.391,8.789,15.137,29.297,99.609,0
1483453779.181,25.879,9.766,33.203,28.809,119.629,0
1483453779.185,25.879,12.207,30.273,30.273,88.867,0
1483453779.188,20.020,9.277,28.809,24.902,95.703,0
1483453779.192,16.602,5.859,34.180,23.438,104.980,0
1483453779.196,18.066,6.348,34.180,30.762,96.191,0
1483453779.200,25.879,7.324,34.180,35.156,117.676,0
1483453779.204,35.645,4.883,31.738,36.133,115.723,0
1483453779.208,39.062,2.441,24.902,38.086,104.492,0
1483453779.212,42.480,4.883,28.320,46.387,88.379,0
1483453779.216,37.109,1.953,22.461,44.922,84.961,0
1483453779.220,37.109,2.441,18.066,43.457,142.578,0
1483453779.224,35.645,0.488,44.922,45.898,167.480,0
1483453779.227,37.109,0.488,52.734,38.574,144.043,0
1483453779.231,45.410,4.883,40.039,34.668,145.996,0
1483453779.235,41.992,6.348,22.949,31.250,149.414,0
1483453779.239,35.156,10.742,21.973,36.621,155.762,0
1483453779.243,34.180,12.695,30.273,40.039,139.160,0
1483453779.247,30.273,7.812,21.484,35.156,155.762,0
1483453779.251,31.738,2.441,9.766,28.320,177.734,0
1483453779.255,43.457,6.836,16.113,40.039,169.922,0
1483453779.259,42.969,10.254,20.508,44.434,185.059,0
1483453779.263,34.180,6.348,20.996,32.715,181.641,0
1483453779.267,36.621,7.812,33.203,36.621,187.012,0
1483453779.270,31.738,7.324,37.598,37.598,193.848,0
1483453779.274,25.391,3.906,41.504,32.227,199.707,0
1483453779.278,32.715,9.766,29.297,34.180,202.637,0
1483453779.282,35.156,13.672,17.578,36.621,220.703,0
1483453779.286,29.297,13.184,16.602,40.527,217.773,0
1483453779.290,30.273,14.160,20.508,38.086,191.895,0
1483453779.294,32.227,17.090,31.738,25.391,199.707,0
1483453779.298,26.855,16.113,27.344,22.949,212.891,0
1483453779.302,24.414,13.672,20.996,29.297,188.965,0
1483453779.306,30.762,16.602,26.367,33.691,173.828,0
1483453779.310,38.086,15.625,15.625,33.691,199.707,0
1483453779.313,34.668,11.719,16.602,31.250,214.844,0
1483453779.317,36.133,11.719,34.668,32.715,194.824,0
1483453779.321,42.480,13.672,31.738,36.621,187.500,0
1483453779.325,44.922,14.160,30.273,29.785,219.727,0
1483453779.329,44.434,13.184,43.945,35.156,235.840,0
1483453779.333,45.898,11.230,34.180,45.410,236.328,0
1483453779.337,45.410,11.719,18.555,39.062,233.887,0
1483453779.341,37.598,13.672,15.137,34.668,215.820,0
1483453779.345,46.875,14.648,18.555,38.574,232.422,0
1483453779.349,53.711,12.695,20.508,46.875,236.328,0
1483453779.352,47.363,9.766,27.832,53.223,217.773,0
1483453779.356,39.551,8.301,25.391,49.316,221.191,0
1483453779.360,41.016,11.230,18.555,45.410,208.496,0
1483453779.364,42.480,10.254,40.039,44.922,188.477,0
1483453779.368,33.203,5.371,44.434,35.645,189.453,0
1483453779.372,41.016,6.348,45.898,36.133,205.566,0
1483453779.376,45.410,6.348,40.039,39.062,234.375,0
1483453779.380,31.738,5.371,36.133,37.598,211.914,0
1483453779.384,27.344,4.395,42.969,37.598,189.453,0
1483453779.388,32.715,7.324,31.250,38.574,205.078,0
1483453779.392,32.227,9.277,20.020,43.945,197.266,0
1483453779.395,25.391,8.301,15.625,41.504,183.594,0
1483453779.399,37.598,8.789,23.926,35.645,180.664,0
1483453779.403,42.480,5.859,42.480,34.180,186.035,0
1483453779.407,37.598,6.836,44.922,42.480,149.902,0
1483453779.411,41.504,10.742,38.086,38.086,109.863,0
1483453779.415,38.574,9.277,40.039,38.574,135.742,0
1483453779.419,39.062,6.348,42.969,41.504,162.598,0
1483453779.423,38.086,5.371,38.574,41.504,149.414,0
1483453779.427,36.133,7.324,41.016,42.969,152.344,0
1483453779.431,35.156,9.277,31.738,37.109,166.016,0
1483453779.435,39.062,5.859,21.973,30.762,145.020,0
1483453779.438,37.109,4.395,16.113,29.785,97.656,0
1483453779.442,24.902,1.465,22.461,31.738,88.867,0
1483453779.446,22.461,-2.930,51.270,19.043,87.402,0
1483453779.450,17.090,-4.883,48.340,12.695,58.105,0
1483453779.454,25.391,-0.977,29.297,26.855,37.598,0
1483453779.458,25.391,1.953,30.273,27.832,59.082,0
1483453779.462,22.949,2.930,27.832,27.344,109.375,0
1483453779.466,30.762,4.395,33.691,33.691,85.938,0
1483453779.470,32.227,4.395,34.180,34.180,45.410,0
1483453779.474,36.133,6.348,16.602,32.715,76.660,0
1483453779.477,26.367,3.418,30.273,16.113,92.285,0
1483453779.481,19.531,0.000,34.180,14.160,102.539,0
1483453779.485,21.973,-1.465,23.438,26.855,133.789,0
1483453779.489,23.438,-2.441,11.719,19.043,167.480,0
1483453779.493,32.715,2.441,17.090,23.438,154.785,0
1483453779.497,35.645,5.371,34.180,29.785,158.203,0
1483453779.501,33.203,7.324,35.156,34.668,173.828,0
1483453779.505,32.227,8.789,33.691,36.133,180.664,0
1483453779.509,31.738,6.348,46.875,38.574,214.355,0
1483453779.513,34.180,7.324,58.594,35.645,200.195,0
1483453779.517,30.762,8.301,43.457,27.832,188.965,0
1483453779.520,27.832,9.766,23.926,37.109,216.309,0
1483453779.524,29.785,8.789,37.598,41.016,257.324,0
1483453779.528,35.645,8.789,37.109,36.133,279.297,0
1483453779.532,37.598,7.324,17.090,12.207,286.133,0
1483453779.536,36.133,4.883,23.926,20.020,313.965,0
1483453779.540,42.969,5.371,35.645,44.434,343.262,0
1483453779.544,39.062,7.324,44.922,32.227,346.680,0
1483453779.548,32.715,11.719,30.762,24.414,385.742,0
1483453779.552,37.109,15.137,14.160,24.902,430.664,0
1483453779.556,43.945,15.625,37.598,30.273,425.781,0
1483453779.560,37.598,11.230,45.898,28.809,442.871,0
1483453779.563,22.461,4.883,34.180,17.578,520.996,0
1483453779.567,29.785,7.812,23.926,16.602,548.828,0
1483453779.571,46.387,12.207,32.227,29.785,554.688,0
1483453779.575,42.969,6.836,37.109,35.645,596.191,0
1483453779.579,25.391,4.395,25.391,33.203,608.887,0
1483453779.583,22.461,5.859,44.434,22.949,630.859,0
1483453779.587,29.785,5.371,45.898,24.414,686.523,0
1483453779.591,31.250,3.906,20.508,23.438,684.082,0
1483453779.595,26.367,1.465,45.410,27.832,710.449,0
1483453779.599,29.297,3.906,55.176,34.180,775.879,0
1483453779.602,31.738,6.836,34.180,31.738,752.930,0
1483453779.606,21.484,3.906,32.227,23.926,738.770,0
1483453779.610,29.785,8.789,36.133,21.484,770.508,0
1483453779.614,35.156,13.184,24.902,28.320,801.270,0
1483453779.618,35.645,10.254,27.832,31.738,825.684,0
1483453779.622,38.086,7.324,43.945,30.762,833.008,0
1483453779.626,30.273,10.742,27.344,27.344,842.285,0
1483453779.630,39.062,14.648,11.719,31.738,856.934,0
1483453779.634,35.645,9.277,21.484,32.227,858.887,0
1483453779.638,29.785,9.277,27.832,34.668,860.352,0
1483453779.642,39.062,9.766,33.691,36.133,894.043,0
1483453779.645,40.039,6.348,39.551,39.062,923.828,0
1483453779.649,38.574,7.324,40.527,39.062,981.445,0
1483453779.653,46.875,9.277,35.645,48.340,-997.559,0
1483453779.657,43.945,5.859,37.109,40.527,997.070,0
1483453779.661,41.504,4.883,39.551,26.855,999.512,0
1483453779.665,39.062,6.348,39.062,38.574,999.512,0
1483453779.669,33.691,4.883,53.711,44.922,999.512,0
1483453779.673,43.945,7.812,34.180,45.410,999.023,0
1483453779.677,42.969,11.719,9.766,42.480,999.023,0
1483453779.681,37.598,8.301,34.668,28.809,998.047,0
1483453779.685,36.133,8.301,50.781,27.344,981.934,0
1483453779.688,28.320,9.766,40.527,31.738,978.516,0
1483453779.692,19.531,15.625,31.738,21.973,975.098,0
1483453779.696,32.227,34.180,26.367,17.578,946.777,0
1483453779.700,36.621,44.434,35.156,23.438,940.918,0
1483453779.704,18.555,41.504,31.738,26.367,889.160,0
1483453779.708,12.695,40.527,17.090,27.344,806.641,0
1483453779.712,7.812,40.527,27.344,30.762,802.734,0
1483453779.716,7.812,36.621,40.039,17.578,816.406,0
1483453779.720,14.160,31.738,33.691,19.043,769.043,0
1483453779.724,20.996,29.785,35.156,41.504,712.891,0
1483453779.727,21.484,32.715,38.086,49.805,695.801,0
1483453779.731,19.043,34.668,22.949,42.969,722.168,0
1483453779.735,27.344,34.180,27.832,47.363,699.219,0
1483453779.739,32.715,36.133,26.367,54.199,619.141,0
1483453779.743,32.227,38.086,9.766,51.758,607.910,0
1483453779.747,34.668,31.738,20.020,44.434,626.465,0
1483453779.751,27.832,38.086,38.574,29.785,581.055,0
1483453779.755,32.227,57.617,23.926,39.551,565.430,0
1483453779.759,34.668,50.293,21.484,41.504,566.895,0
1483453779.763,30.273,36.621,33.203,40.527,527.344,0
1483453779.767,36.133,31.250,23.926,41.504,479.004,0
1483453779.770,36.621,26.855,25.879,27.832,441.406,0
1483453779.774,32.227,28.809,20.020,41.504,432.129,0
1483453779.778,34.180,29.785,16.602,38.086,440.918,0
1483453779.782,45.410,27.344,20.508,38.574,391.113,0
1483453779.786,56.152,21.973,13.184,56.152,337.402,0
1483453779.790,61.035,19.043,8.789,57.617,341.309,0
1483453779.794,57.129,17.090,-1.465,58.105,334.473,0
1483453779.798,53.711,13.184,20.996,40.039,298.828,0
1483453779.802,57.617,12.207,38.574,44.922,285.156,0
1483453779.806,52.734,13.184,28.320,62.012,288.086,0
1483453779.810,58.105,18.555,40.527,64.941,272.461,0
1483453779.813,59.082,22.949,62.012,71.777,257.324,0
1483453779.817,48.828,18.555,58.105,63.965,221.680,0
1483453779.821,44.922,16.113,36.621,53.711,190.430,0
1483453779.825,36.621,15.625,27.832,47.363,159.668,0
1483453779.829,43.457,19.043,21.973,57.617,126.953,0
1483453779.833,39.062,19.043,21.484,47.852,140.137,0
1483453779.837,38.574,19.043,31.738,42.480,143.555,0
1483453779.841,47.363,19.531,23.438,46.875,112.793,0
1483453779.845,30.762,15.137,24.902,40.527,66.406,0
1483453779.849,24.414,14.160,43.945,40.039,80.566,0
1483453779.852,30.762,13.184,35.645,40.039,94.727,0
1483453779.856,30.762,10.742,20.508,37.598,84.961,0
1483453779.860,19.043,4.395,17.578,30.273,70.801,0
1483453779.864,15.625,-0.488,15.625,28.809,34.180,0
1483453779.868,29.297,4.883,28.320,35.645,27.344,0
1483453779.872,28.809,2.930,38.086,28.320,3.418,0
1483453779.876,30.762,1.953,28.809,35.156,-14.160,0
1483453779.880,37.598,7.812,20.508,49.316,-6.836,0
1483453779.884,37.109,7.324,31.738,42.480,-7.812,0
1483453779.888,34.180,6.348,47.852,30.273,-56.641,0
1483453779.892,38.086,6.348,44.434,38.086,-73.730,0
1483453779.895,50.293,7.812,34.668,48.340,-8.789,0
1483453779.899,41.016,4.395,29.297,35.645,-5.859,0
1483453779.903,44.922,2.930,35.156,37.109,-60.059,0
1483453779.907,51.270,2.441,25.391,56.152,-68.848,0
1483453779.911,35.645,-2.441,9.277,42.969,-68.848,0
1483453779.915,24.414,-6.836,19.043,23.926,-63.477,0
1483453779.919,18.066,-6.348,53.711,19.043,-114.258,0
1483453779.923,17.578,-3.418,55.176,20.020,-141.113,0
1483453779.927,20.996,0.488,29.785,27.344,-113.281,0
1483453779.931,25.879,8.301,26.855,38.086,-113.770,0
1483453779.935,21.484,5.859,20.020,28.320,-149.902,0
1483453779.938,19.043,0.977,25.391,14.648,-161.621,0
1483453779.942,25.879,-0.488,35.156,26.367,-129.883,0
1483453779.946,27.832,0.488,27.832,25.391,-154.785,0
1483453779.950,22.949,-2.930,35.645,20.996,-183.594,0
1483453779.954,19.043,-8.301,32.227,22.949,-163.086,0
1483453779.958,15.137,-3.906,20.020,16.602,-143.066,0
1483453779.962,18.555,-0.977,31.738,31.250,-175.781,0
1483453779.966,31.738,-0.488,35.645,41.504,-198.242,0
1483453779.970,35.645,0.488,28.809,36.621,-190.430,0
1483453779.974,35.156,-1.465,41.992,47.363,-182.617,0
1483453779.977,37.109,-0.488,41.016,41.016,-194.336,0
1483453779.981,37.109,-2.930,29.297,32.715,-176.758,0
1483453779.985,36.621,-5.859,41.992,46.387,-149.414,0
1483453779.989,38.086,-2.441,39.551,51.758,-178.711,0
1483453779.993,38.086,-2.930,38.086,51.758,-202.637,0
1483453779.997,28.809,-4.883,38.574,37.598,-201.660,0
1483453780.001,23.438,-4.395,31.250,26.367,-190.430,0
1483453780.005,20.020,-4.395,30.762,33.203,-199.219,0
1483453780.009,29.785,-3.418,18.555,37.598,-230.957,0
1483453780.013,37.598,-2.930,14.160,31.250,-217.285,0
1483453780.017,31.738,-5.859,37.109,35.156,-186.035,0
1483453780.020,28.320,-4.395,49.316,34.668,-208.496,0
1483453780.024,27.832,-4.395,40.039,22.461,-207.031,0
1483453780.028,29.297,-6.348,48.828,40.039,-177.246,0
1483453780.032,36.621,-5.371,48.340,51.758,-178.711,0
1483453780.036,37.598,-0.977,35.156,50.781,-187.012,0
1483453780.040,29.785,-1.953,41.016,42.480,-189.453,0
1483453780.044,26.855,-3.418,37.109,39.551,-190.918,0
1483453780.048,31.738,-3.418,43.457,48.340,-192.871,0
1483453780.052,39.551,-1.953,41.992,47.363,-189.941,0
1483453780.056,40.039,-0.488,38.574,35.156,-170.898,0
1483453780.060,33.691,0.000,35.645,28.809,-155.273,0
1483453780.063,38.574,1.465,22.949,50.781,-134.766,0
1483453780.067,34.668,-2.441,30.273,50.781,-142.578,0
1483453780.071,34.180,-0.977,48.828,47.363,-173.828,0
1483453780.075,34.180,2.441,45.410,53.223,-149.414,0
1483453780.079,39.062,0.000,42.480,48.340,-104.980,0
1483453780.083,46.875,0.000,46.875,45.410,-128.906,0
1483453780.087,44.434,2.930,41.504,46.387,-127.441,0
1483453780.091,40.039,1.465,43.945,45.410,-103.027,0
1483453780.095,39.062,-2.441,33.691,46.387,-99.121,0
1483453780.099,36.621,-5.371,32.227,38.086,-125.488,0
1483453780.102,35.156,-2.441,38.574,34.668,-186.035,0
1483453780.106,37.598,1.465,24.414,40.527,-191.406,0
1483453780.110,43.945,0.977,28.320,51.758,-209.473,0
1483453780.114,49.316,3.418,42.480,55.664,-257.812,0
1483453780.118,41.016,3.418,45.898,46.387,-282.227,0
1483453780.122,34.668,2.441,36.133,33.691,-300.781,0
1483453780.126,38.574,3.906,33.203,43.457,-323.242,0
1483453780.130,42.969,4.395,45.410,51.758,-328.125,0
1483453780.134,39.551,4.883,56.152,50.293,-310.059,0
1483453780.138,34.668,4.395,46.387,41.992,-343.750,0
1483453780.142,31.738,-0.977,21.484,27.344,-376.465,0
1483453780.145,30.762,-0.488,6.348,38.574,-349.121,0
1483453780.149,27.344,-3.906,27.344,34.668,-377.930,0
1483453780.153,32.227,-3.418,33.203,35.645,-390.137,0
1483453780.157,34.180,-1.953,39.551,44.922,-385.742,0
1483453780.161,35.645,-3.906,49.316,50.293,-391.113,0
1483453780.165,39.062,-1.465,36.621,39.551,-348.633,0
1483453780.169,39.062,0.000,38.574,34.668,-361.816,0
1483453780.173,34.180,-2.930,31.738,39.062,-413.086,0
1483453780.177,41.504,0.488,37.109,38.574,-420.898,0
1483453780.181,39.551,3.906,58.105,37.109,-397.949,0
1483453780.185,30.273,0.977,47.363,36.621,-414.062,0
1483453780.188,44.922,2.930,35.156,45.898,-470.215,0
1483453780.192,37.109,0.977,37.598,39.062,-486.328,0
1483453780.196,35.156,3.418,29.297,35.645,-481.934,0
1483453780.200,49.316,8.789,30.273,49.805,-499.512,0
1483453780.204,46.875,3.418,32.227,47.363,-517.090,0
1483453780.208,38.574,-2.930,20.020,39.551,-538.574,0
1483453780.212,40.527,-1.465,21.484,47.363,-543.457,0
1483453780.216,39.551,-0.488,39.551,46.875,-566.406,0
1483453780.220,38.574,2.441,35.645,28.809,-636.230,0
1483453780.224,40.527,3.906,37.109,26.367,-642.090,0
1483453780.227,31.250,-0.977,41.992,31.250,-604.004,0
1483453780.231,28.809,4.395,29.297,30.273,-625.977,0
1483453780.235,34.668,6.836,32.715,27.832,-676.758,0
1483453780.239,40.527,2.441,37.598,40.039,-667.969,0
1483453780.243,37.598,0.977,38.574,43.457,-658.203,0
1483453780.247,31.738,2.441,39.062,37.598,-702.637,0
1483453780.251,34.668,4.395,39.551,36.621,-746.094,0
1483453780.255,37.598,3.906,27.832,34.180,-727.539,0
1483453780.259,36.621,4.883,33.691,42.969,-718.262,0
1483453780.263,37.109,3.906,43.457,43.945,-740.234,0
1483453780.267,42.480,3.906,29.785,32.715,-753.418,0
1483453780.270,40.039,3.418,9.277,31.250,-752.441,0
1483453780.274,33.203,0.000,21.484,35.645,-756.348,0
1483453780.278,31.738,0.488,43.945,32.227,-775.879,0
1483453780.282,34.668,0.000,25.391,37.109,-795.410,0
1483453780.286,38.086,-0.977,31.738,41.992,-809.570,0
1483453780.290,40.039,0.488,48.340,34.668,-831.055,0
1483453780.294,47.852,1.465,38.086,42.480,-859.863,0
1483453780.298,47.852,-1.465,39.551,45.410,-868.652,0
1483453780.302,39.551,-4.395,44.434,45.410,-859.863,0
1483453780.306,40.039,-2.441,22.461,43.945,-900.879,0
1483453780.310,47.852,-0.488,21.973,29.785,-945.312,0
1483453780.313,45.410,1.465,41.504,22.461,-917.969,0
1483453780.317,42.480,-1.953,37.109,34.180,-901.367,0
1483453780.321,49.805,-2.441,33.691,34.180,-928.223,0
1483453780.325,44.434,4.395,34.668,23.926,-942.871,0
1483453780.329,31.738,6.348,33.691,26.367,-926.270,0
1483453780.333,35.156,2.930,19.531,31.738,-919.434,0
1483453780.337,41.504,-2.441,22.461,25.391,-926.758,0
1483453780.341,36.133,-6.348,35.645,20.020,-892.578,0
1483453780.345,36.133,-2.930,19.043,26.855,-854.980,0
1483453780.349,37.598,-1.953,10.742,34.180,-847.656,0
1483453780.352,26.855,-4.395,18.066,25.391,-860.352,0
1483453780.356,33.203,-3.906,25.391,23.438,-864.746,0
1483453780.360,43.457,-2.441,18.066,29.785,-829.102,0
1483453780.364,38.086,-4.395,18.066,15.625,-824.707,0
1483453780.368,35.645,-0.977,30.762,22.949,-833.496,0
1483453780.372,28.809,0.488,12.695,26.855,-816.895,0
1483453780.376,25.391,-2.930,18.066,21.973,-812.988,0
1483453780.380,29.297,-0.977,40.527,28.320,-832.520,0
1483453780.384,30.273,0.977,39.551,31.738,-872.070,0
1483453780.388,34.180,0.488,23.926,32.715,-880.859,0
1483453780.392,33.691,0.000,21.973,22.461,-829.590,0
1483453780.395,34.180,1.465,38.086,23.438,-811.035,0
1483453780.399,45.410,2.441,21.484,36.133,-833.008,0
1483453780.403,52.734,9.277,-9.766,40.039,-849.121,0
1483453780.407,50.781,11.230,0.977,41.016,-862.305,0
1483453780.411,53.711,7.324,36.133,42.480,-850.586,0
1483453780.415,52.246,7.812,46.387,41.504,-858.398,0
1483453780.419,44.922,5.371,40.527,34.668,-865.234,0
1483453780.423,39.062,5.859,21.484,28.320,-877.441,0
1483453780.427,43.457,5.859,12.207,32.227,-917.480,0
1483453780.431,43.945,7.812,10.742,38.574,-921.387,0
1483453780.435,29.297,5.859,14.648,26.855,-913.574,0
1483453780.438,31.738,3.418,27.832,26.855,-940.918,0
1483453780.442,34.180,6.348,22.949,23.926,-966.309,0
1483453780.446,37.109,13.184,5.371,22.949,-967.285,0
1483453780.450,40.039,13.184,19.043,26.367,-966.309,0
1483453780.454,31.250,4.395,33.691,20.508,-967.285,0
1483453780.458,35.156,3.906,23.438,29.785,-967.285,0
1483453780.462,33.691,4.883,21.973,32.715,-967.285,0
1483453780.466,30.273,6.348,22.461,27.832,-967.285,0
1483453780.470,35.156,9.277,21.484,27.832,-966.797,0
1483453780.474,30.762,7.812,15.137,21.973,-966.797,0
1483453780.477,35.645,5.859,27.344,21.973,-966.797,0
1483453780.481,43.457,6.836,39.062,31.738,-966.797,0
1483453780.485,41.016,5.859,38.086,32.715,-967.285,0
1483453780.489,39.551,7.812,39.062,21.973,-966.797,0
1483453780.493,27.344,7.324,39.551,18.066,-966.797,0
1483453780.497,35.156,6.836,26.367,22.949,-966.797,0
1483453780.501,39.062,9.766,20.020,22.949,-966.797,0
1483453780.505,25.879,12.695,25.879,20.020,-966.797,0
1483453780.509,29.297,15.137,27.832,14.160,-966.797,0
1483453780.513,41.992,17.090,26.367,11.230,-967.285,0
1483453780.517,38.086,20.508,23.926,14.160,-967.285,0
1483453780.520,41.016,22.461,27.832,29.297,-967.285,0
1483453780.524,41.016,20.508,40.527,20.020,-967.285,0
1483453780.528,28.320,19.043,40.039,12.695,-967.285,0
1483453780.532,29.785,23.926,29.297,29.785,-967.285,0
1483453780.536,23.926,28.320,30.762,10.742,-965.332,0
1483453780.540,16.602,37.109,23.926,-7.324,-970.215,0
1483453780.544,13.672,48.340,15.625,8.789,-954.590,0
1483453780.548,21.484,54.199,32.227,26.367,-916.992,0
1483453780.552,24.414,58.594,39.062,19.043,-908.203,0
1483453780.556,31.250,63.965,23.438,19.531,-855.957,0
1483453780.560,35.645,63.965,44.434,20.996,-788.574,0
1483453780.563,32.715,62.012,52.246,16.113,-781.250,0
1483453780.567,33.203,65.918,35.645,17.578,-742.676,0
1483453780.571,37.598,71.289,34.668,19.043,-704.590,0
1483453780.575,33.691,76.172,35.156,26.367,-679.688,0
1483453780.579,30.273,81.055,35.645,30.273,-665.039,0
1483453780.583,42.480,85.938,40.039,26.367,-635.742,0
1483453780.587,59.570,86.914,45.410,43.457,-554.199,0
1483453780.591,57.617,81.543,49.316,40.527,-516.602,0
1483453780.595,47.363,80.566,46.387,34.668,-488.770,0
1483453780.599,57.129,85.449,61.523,52.734,-425.781,0
1483453780.602,60.059,81.543,87.891,49.805,-358.398,0
1483453780.606,57.129,75.684,85.449,50.293,-337.891,0
1483453780.610,50.293,69.336,61.035,47.363,-311.035,0
1483453780.614,49.805,66.895,65.430,40.039,-252.441,0
1483453780.618,52.734,70.801,79.102,47.363,-224.121,0
1483453780.622,51.758,69.336,77.148,48.828,-231.934,0
1483453780.626,56.641,67.871,72.754,54.688,-200.684,0
1483453780.630,52.246,61.035,71.289,58.105,-109.375,0
1483453780.634,49.805,59.082,56.641,47.852,-77.637,0
1483453780.638,52.734,62.500,60.059,43.945,-86.426,0
1483453780.642,53.711,65.430,74.707,49.316,-75.195,0
1483453780.645,52.734,64.941,80.566,49.316,-65.918,0
1483453780.649,52.734,65.430,79.590,53.711,-88.379,0
1483453780.653,48.828,67.383,68.359,47.363,-55.664,0
1483453780.657,53.223,64.453,59.570,42.969,-11.230,0
1483453780.661,58.105,64.453,56.641,49.316,-14.160,0
1483453780.665,37.109,59.570,62.500,40.039,0.000,0
1483453780.669,34.180,49.805,54.199,41.504,-22.461,0
1483453780.673,40.527,44.922,40.527,53.223,-18.066,0
1483453780.677,36.133,40.039,52.246,40.527,33.691,0
1483453780.681,36.621,29.297,57.129,34.180,-6.348,0
1483453780.685,43.945,23.438,62.012,39.062,5.859,0
1483453780.688,48.340,24.414,77.148,46.875,82.520,0
1483453780.692,40.039,23.926,78.125,39.551,94.727,0
1483453780.696,38.086,24.902,62.500,23.926,108.887,0
1483453780.700,39.062,28.809,42.969,32.715,148.438,0
1483453780.704,43.457,26.367,28.320,42.480,181.152,0
1483453780.708,39.551,20.996,43.457,32.227,188.965,0
1483453780.712,34.668,19.043,43.945,36.621,207.031,0
1483453780.716,37.598,20.996,42.969,34.180,218.262,0
1483453780.720,35.156,20.996,61.523,22.949,239.258,0
1483453780.724,39.551,20.996,54.688,15.137,267.090,0
1483453780.727,37.109,21.484,41.504,14.648,279.785,0
1483453780.731,28.809,19.531,32.715,29.785,293.457,0
1483453780.735,30.273,22.949,34.668,30.762,338.379,0
1483453780.739,20.996,24.902,42.969,18.066,318.359,0
1483453780.743,15.137,22.461,41.992,16.113,300.293,0
1483453780.747,20.508,16.602,39.551,17.578,317.871,0
1483453780.751,23.926,19.043,63.965,4.883,307.617,0
1483453780.755,27.344,27.344,98.145,0.000,291.504,0
1483453780.759,30.762,29.297,107.422,20.508,289.551,0
1483453780.763,27.344,27.344,126.953,30.762,349.121,0
1483453780.767,24.902,31.250,221.191,17.578,393.555,0
1483453780.770,32.227,35.156,395.996,19.531,391.113,0
1483453780.774,31.738,34.180,527.344,20.996,396.973,0
1483453780.778,24.414,37.598,590.820,15.137,398.438,0
1483453780.782,19.043,36.133,594.238,10.254,422.363,0
1483453780.786,22.949,33.691,569.336,13.672,427.246,0
1483453780.790,24.902,32.227,550.293,19.043,400.879,0
1483453780.794,20.996,25.879,517.578,12.695,429.688,0
1483453780.798,15.625,21.973,474.609,22.461,437.988,0
1483453780.802,13.672,19.043,437.012,26.855,411.621,0
1483453780.806,18.066,10.254,416.992,13.184,419.922,0
1483453780.810,19.043,3.906,396.973,23.438,465.820,0
1483453780.813,17.578,0.977,361.328,23.926,474.121,0
1483453780.817,13.672,-0.488,338.867,14.160,442.383,0
1483453780.821,17.578,-5.371,339.844,13.672,440.430,0
1483453780.825,18.555,-8.789,325.195,21.484,445.801,0
1483453780.829,19.531,-3.906,297.852,26.855,420.410,0
1483453780.833,26.855,0.000,272.461,23.438,425.781,0
1483453780.837,31.250,-3.418,256.836,20.508,444.336,0
1483453780.841,31.738,-2.441,235.840,20.996,418.457,0
1483453780.845,32.227,-1.953,218.750,22.949,417.480,0
1483453780.849,34.180,-2.930,211.426,27.832,437.012,0
1483453780.852,35.156,-0.488,201.172,32.227,435.547,0
1483453780.856,38.086,-0.977,205.078,26.367,441.406,0
1483453780.860,44.434,-5.371,191.406,25.391,463.379,0
1483453780.864,40.039,-8.301,163.574,30.273,437.500,0
1483453780.868,36.133,-7.812,155.273,35.645,422.852,0
1483453780.872,41.992,-0.977,164.551,32.715,437.012,0
1483453780.876,42.480,5.371,159.180,30.762,404.297,0
1483453780.880,34.668,2.930,132.324,36.133,395.020,0
1483453780.884,43.945,4.395,119.629,46.387,400.879,0
1483453780.888,51.270,9.766,123.535,41.992,413.086,0
1483453780.892,43.457,10.254,134.766,36.133,417.480,0
1483453780.895,41.016,11.230,128.418,34.180,416.016,0
1483453780.899,48.340,17.578,116.211,35.645,448.242,0
1483453780.903,48.340,20.020,106.445,37.598,470.215,0
1483453780.907,31.250,16.113,109.375,18.555,446.289,0
1483453780.911,27.344,19.531,103.516,24.414,446.289,0
1483453780.915,35.645,21.484,114.746,33.691,484.375,0
1483453780.919,28.809,16.113,108.398,28.809,482.422,0
1483453780.923,26.367,18.066,85.938,34.668,486.328,0
1483453780.927,30.273,12.695,98.633,29.297,499.023,0
1483453780.931,27.832,3.418,99.609,24.902,500.977,0
1483453780.935,25.879,2.930,77.148,22.461,499.512,0
1483453780.938,38.574,5.859,73.242,31.250,483.398,0
1483453780.942,42.480,6.348,75.684,41.504,481.445,0
1483453780.946,41.504,7.324,69.824,43.457,518.555,0
1483453780.950,52.734,10.742,89.844,43.945,545.410,0
1483453780.954,50.781,2.930,95.215,46.387,494.141,0
1483453780.958,44.922,-5.859,78.613,40.039,479.492,0
1483453780.962,46.387,-4.883,62.988,31.738,513.672,0
1483453780.966,42.480,-3.906,58.594,38.574,511.230,0
1483453780.970,39.062,-10.742,80.078,30.762,493.164,0
1483453780.974,38.086,-15.625,90.820,27.832,487.793,0
1483453780.977,35.156,-17.090,76.660,37.109,508.301,0
1483453780.981,34.180,-14.648,64.941,32.715,498.047,0
1483453780.985,39.062,-14.160,69.824,35.645,472.656,0
1483453780.989,40.527,-13.672,58.105,39.551,479.492,0
1483453780.993,37.109,-14.648,43.457,32.715,474.121,0
1483453780.997,30.762,-17.090,48.828,26.367,447.266,0
1483453781.001,34.668,-11.719,43.457,32.715,406.250,0
1483453781.005,43.945,-7.812,46.387,26.367,411.621,0
1483453781.009,44.434,-7.324,50.293,28.320,403.809,0
1483453781.013,40.527,-6.348,53.223,41.016,356.934,0
1483453781.017,47.852,-5.371,60.059,44.434,336.914,0
1483453781.020,43.457,-6.348,76.172,38.574,360.840,0
1483453781.024,38.574,-5.371,74.707,42.480,340.332,0
1483453781.028,49.316,-3.418,51.758,52.246,312.988,0
1483453781.032,50.293,-3.418,43.945,44.434,312.988,0
1483453781.036,37.598,-2.441,40.039,36.621,314.453,0
1483453781.040,37.598,5.859,48.828,52.246,329.590,0
1483453781.044,45.898,13.184,35.645,53.711,284.180,0
1483453781.048,42.480,16.602,29.297,48.828,265.625,0
1483453781.052,44.434,22.461,70.312,63.965,305.176,0
1483453781.056,51.270,26.855,72.266,61.035,283.691,0
1483453781.060,50.293,29.297,67.383,51.758,276.855,0
1483453781.063,48.340,24.902,72.266,50.293,282.227,0
1483453781.067,45.898,24.902,51.758,54.688,260.254,0
1483453781.071,35.645,23.926,44.434,46.875,225.098,0
1483453781.075,37.109,20.020,68.848,42.480,209.473,0
1483453781.079,41.504,21.973,71.777,54.688,230.469,0
1483453781.083,43.457,27.344,45.410,56.152,202.637,0
1483453781.087,47.852,28.809,45.898,49.316,172.852,0
1483453781.091,42.969,19.531,58.105,40.527,165.527,0
1483453781.095,46.875,16.113,75.195,46.387,218.750,0
1483453781.099,54.688,17.578,73.242,47.852,226.074,0
1483453781.102,49.805,19.531,40.039,41.016,198.242,0
1483453781.106,42.969,20.508,32.227,40.039,191.406,0
1483453781.110,53.223,20.020,44.922,47.363,208.496,0
1483453781.114,54.688,19.043,45.410,52.246,225.098,0
1483453781.118,47.363,16.602,43.457,41.504,214.355,0
1483453781.122,53.223,17.578,47.363,37.598,194.336,0
1483453781.126,57.129,20.020,33.203,40.527,208.008,0
1483453781.130,45.410,12.207,51.270,35.645,235.840,0
1483453781.134,34.668,3.418,75.684,27.344,176.270,0
1483453781.138,36.621,4.395,59.570,33.203,169.922,0
1483453781.142,43.945,8.301,47.363,42.969,221.191,0
1483453781.145,38.574,5.371,44.922,41.992,211.426,0
1483453781.149,32.715,-1.953,42.969,35.156,199.219,0
1483453781.153,48.340,3.906,40.039,44.922,242.188,0
1483453781.157,49.805,3.418,60.547,52.246,255.371,0
1483453781.161,40.039,-1.465,62.500,40.527,232.910,0
1483453781.165,46.387,2.441,44.922,53.711,234.375,0
1483453781.169,45.898,2.441,44.922,57.617,228.027,0
1483453781.173,48.828,3.906,56.641,49.805,229.492,0
1483453781.177,54.688,4.883,55.664,51.270,229.980,0
1483453781.181,39.551,0.000,46.875,43.945,196.777,0
1483453781.185,26.367,-5.371,45.898,35.156,198.242,0
1483453781.188,32.227,-3.906,41.016,43.945,200.684,0
1483453781.192,42.480,0.000,46.387,43.945,182.129,0
1483453781.196,41.992,-2.441,52.246,30.762,193.848,0
1483453781.200,41.016,-4.883,31.250,41.016,224.609,0
1483453781.204,32.227,-7.812,25.879,45.410,208.984,0
1483453781.208,25.879,-10.254,28.320,41.016,174.805,0
1483453781.212,28.320,-9.277,32.715,41.016,163.574,0
1483453781.216,32.715,-8.301,28.320,38.574,176.270,0
1483453781.220,38.574,-4.883,31.738,40.039,186.035,0
1483453781.224,34.180,-1.953,37.598,41.504,172.852,0
1483453781.227,30.762,-1.465,26.855,37.109,156.738,0
1483453781.231,32.227,-1.465,21.973,36.621,182.129,0
1483453781.235,30.273,-0.488,46.387,40.527,161.621,0
1483453781.239,30.273,1.953,55.664,34.668,120.605,0
1483453781.243,29.297,-2.930,42.969,36.133,164.062,0
1483453781.247,28.809,-6.836,41.016,42.480,194.336,0
1483453781.251,36.133,1.465,32.227,41.016,176.758,0
1483453781.255,40.527,1.465,36.621,41.992,176.270,0
1483453781.259,41.016,-2.441,41.016,41.504,196.777,0
1483453781.263,40.527,-5.859,40.039,38.574,197.754,0
1483453781.267,40.039,-12.207,45.898,41.016,176.758,0
1483453781.270,38.086,-14.160,37.109,43.945,191.895,0
1483453781.274,34.180,-13.672,10.254,48.828,194.336,0
1483453781.278,42.969,-17.578,22.949,41.992,214.355,0
1483453781.282,43.457,-20.996,52.734,38.086,179.199,0
1483453781.286,40.527,-16.602,39.551,53.223,142.090,0
1483453781.290,47.363,-12.695,45.898,55.664,163.574,0
1483453781.294,54.199,-11.719,52.734,47.852,175.293,0
1483453781.298,48.828,-14.160,30.762,52.246,194.336,0
1483453781.302,47.852,-16.602,22.461,48.828,171.875,0
1483453781.306,54.688,-18.066,43.945,31.738,176.758,0
1483453781.310,47.852,-19.043,51.758,34.180,173.828,0
1483453781.313,47.363,-14.160,35.156,46.875,164.062,0
1483453781.317,43.945,-17.578,29.297,48.340,208.008,0
1483453781.321,42.969,-23.438,32.227,44.434,201.172,0
1483453781.325,38.574,-20.020,42.480,38.086,171.875,0
1483453781.329,37.598,-12.207,47.852,33.203,176.758,0
1483453781.333,44.922,-11.719,54.199,36.133,203.125,0
1483453781.337,40.527,-15.137,51.270,47.852,236.816,0
1483453781.341,33.691,-18.555,46.875,43.457,206.543,0
1483453781.345,31.738,-17.090,49.316,34.180,203.125,0
1483453781.349,37.109,-14.160,47.852,44.434,248.047,0
1483453781.352,34.668,-15.137,38.086,43.457,247.559,0
1483453781.356,26.855,-13.672,27.344,24.902,231.445,0
1483453781.360,29.297,-11.719,42.969,26.855,222.168,0
1483453781.364,28.809,-13.184,58.105,36.621,220.215,0
1483453781.368,26.367,-11.719,48.828,33.691,216.309,0
1483453781.372,27.832,-7.812,33.691,22.949,193.848,0
1483453781.376,21.973,-5.371,32.715,22.461,176.270,0
1483453781.380,26.855,-8.301,36.133,32.227,203.613,0
1483453781.384,32.715,-8.301,47.363,28.809,182.617,0
1483453781.388,27.344,-8.301,45.898,25.391,137.207,0
1483453781.392,31.738,-7.812,40.039,26.855,171.387,0
1483453781.395,28.809,-8.789,45.410,28.809,214.844,0
1483453781.399,25.879,-11.719,42.480,21.973,206.055,0
1483453781.403,37.109,-5.859,45.410,34.180,192.871,0
1483453781.407,41.992,-2.441,37.109,46.387,203.613,0
1483453781.411,31.250,-7.812,20.508,31.738,212.402,0
1483453781.415,25.879,-6.836,52.246,34.180,188.965,0
1483453781.419,37.109,-3.906,60.547,38.086,173.828,0
1483453781.423,38.574,-4.395,43.945,32.715,189.453,0
1483453781.427,24.414,-7.812,41.016,21.484,216.797,0
1483453781.431,19.531,-7.324,38.086,21.973,243.652,0
1483453781.435,31.738,-2.441,51.270,36.621,231.934,0
1483453781.438,35.645,0.000,57.129,30.762,255.859,0
1483453781.442,34.668,1.465,58.594,28.320,260.254,0
1483453781.446,39.551,-3.418,39.062,23.926,267.578,0
1483453781.450,36.621,-6.348,30.762,29.297,281.738,0
1483453781.454,40.039,1.953,28.809,39.062,278.809,0
1483453781.458,39.062,3.418,28.320,40.527,265.625,0
1483453781.462,37.598,-1.953,45.898,42.480,247.559,0
1483453781.466,42.969,-2.930,41.016,39.551,240.723,0
1483453781.470,49.805,-2.930,30.762,43.457,253.906,0
1483453781.474,43.457,-4.883,33.203,43.457,267.090,0
1483453781.477,37.109,1.465,49.805,44.434,255.859,0
1483453781.481,46.875,0.488,56.152,49.805,249.023,0
1483453781.485,45.898,-7.324,46.875,38.086,244.141,0
1483453781.489,44.434,0.977,36.133,39.062,234.863,0
1483453781.493,54.199,6.836,37.598,55.664,218.262,0
1483453781.497,51.758,1.953,58.105,46.875,232.910,0
1483453781.501,49.805,11.719,38.086,42.480,238.281,0
1483453781.505,41.992,9.766,29.297,41.992,216.309,0
1483453781.509,32.715,-2.930,51.270,37.598,195.312,0
1483453781.513,30.273,-2.441,33.691,38.574,240.723,0
1483453781.517,29.785,0.977,29.785,32.715,289.551,0
1483453781.520,36.621,5.371,26.855,31.250,261.230,0
1483453781.524,30.762,5.859,22.461,38.086,245.117,0
1483453781.528,29.785,2.930,27.344,38.086,257.324,0
1483453781.532,43.457,5.371,35.645,28.809,272.949,0
1483453781.536,43.945,5.371,43.945,34.180,256.348,0
1483453781.540,39.062,3.418,46.387,33.203,245.117,0
1483453781.544,38.086,3.906,46.387,28.320,253.418,0
1483453781.548,37.598,-0.488,25.879,46.875,241.211,0
1483453781.552,36.621,-5.859,24.414,40.039,227.051,0
1483453781.556,42.480,-1.465,34.180,37.598,189.453,0
1483453781.560,41.016,-0.488,33.691,44.434,216.797,0
1483453781.563,39.062,-0.488,49.805,29.785,245.605,0
1483453781.567,42.969,4.883,19.531,34.180,212.891,0
1483453781.571,41.504,-0.977,8.301,42.480,209.473,0
1483453781.575,41.504,-3.906,49.316,37.598,223.633,0
1483453781.579,41.992,4.883,35.156,43.945,233.398,0
1483453781.583,41.016,3.418,25.391,43.945,240.234,0
1483453781.587,42.480,1.465,50.293,45.410,208.496,0
1483453781.591,41.504,7.324,54.688,44.434,202.148,0
1483453781.595,30.273,0.488,32.227,39.551,192.871,0
1483453781.599,34.180,-1.953,13.672,37.598,181.641,0
1483453781.602,42.969,-0.977,31.250,32.715,181.641,0
1483453781.606,34.180,-3.418,41.016,27.344,179.688,0
1483453781.610,35.156,5.371,36.621,42.480,161.133,0
1483453781.614,41.504,10.742,18.066,47.852,102.051,0
1483453781.618,42.480,5.859,8.301,40.039,80.566,0
1483453781.622,49.805,5.859,21.973,40.527,126.465,0
1483453781.626,47.852,3.906,50.293,41.016,100.098,0
1483453781.630,41.504,7.324,42.480,51.270,46.875,0
1483453781.634,34.180,3.418,37.598,45.410,55.176,0
1483453781.638,26.367,-7.324,36.621,26.367,42.480,0
1483453781.642,20.996,-4.883,35.645,30.273,11.230,0
1483453781.645,26.367,0.977,58.594,37.598,-1.465,0
1483453781.649,38.574,7.324,29.297,38.574,-0.488,0
1483453781.653,33.203,4.883,20.020,14.648,1.953,0
1483453781.657,26.367,-0.977,32.715,13.672,-19.531,0
1483453781.661,36.133,4.395,12.695,40.039,-31.738,0
1483453781.665,36.621,8.789,8.301,32.715,-16.113,0
1483453781.669,38.086,9.766,33.203,32.227,-22.461,0
1483453781.673,46.875,2.930,39.551,40.527,-52.734,0
1483453781.677,46.387,-2.930,31.250,33.691,-48.340,0
1483453781.681,47.363,1.953,52.734,31.250,-15.137,0
1483453781.685,40.527,2.441,37.109,29.785,-14.160,0
1483453781.688,43.945,3.906,17.090,38.574,-41.504,0
1483453781.692,50.293,4.883,27.832,45.410,-73.730,0
1483453781.696,41.992,4.395,41.992,41.016,-58.105,0
1483453781.700,36.621,7.324,31.738,46.387,-54.688,0
1483453781.704,31.250,3.906,26.367,34.180,-83.496,0
1483453781.708,31.250,1.465,40.039,30.762,-80.566,0
1483453781.712,38.086,9.766,26.367,56.641,-68.359,0
1483453781.716,37.109,11.719,20.996,53.223,-95.215,0
1483453781.720,35.156,3.906,35.645,37.109,-105.957,0
1483453781.724,44.922,3.418,36.133,48.340,-92.285,0
1483453781.727,50.781,6.836,29.785,54.688,-82.031,0
1483453781.731,41.992,5.371,37.598,38.574,-83.496,0
1483453781.735,30.273,-0.488,40.527,26.855,-106.445,0
1483453781.739,43.457,3.418,15.625,46.875,-104.980,0
1483453781.743,40.527,2.441,2.930,51.758,-84.473,0
1483453781.747,41.016,2.441,11.719,39.062,-87.891,0
1483453781.751,50.293,5.371,20.020,40.527,-116.211,0
1483453781.755,42.969,0.977,35.156,36.621,-114.258,0
1483453781.759,42.480,2.930,46.387,36.621,-108.887,0
1483453781.763,32.227,3.906,22.461,39.062,-103.027,0
1483453781.767,34.668,6.348,15.137,45.410,-102.051,0
1483453781.770,35.156,3.906,31.250,50.293,-88.379,0
1483453781.774,27.344,-1.953,32.715,45.898,-77.148,0
1483453781.778,34.668,4.883,37.109,33.691,-95.703,0
1483453781.782,41.504,7.324,29.297,35.645,-66.895,0
1483453781.786,40.039,5.371,31.250,45.410,-35.645,0
1483453781.790,37.109,8.301,39.551,32.715,-40.039,0
1483453781.794,34.668,6.348,30.273,31.738,-73.242,0
1483453781.798,30.762,3.418,30.273,42.480,-58.105,0
1483453781.802,30.273,1.953,29.297,40.527,-36.133,0
1483453781.806,35.156,4.883,27.832,39.551,-75.684,0
1483453781.810,41.504,9.277,28.809,30.273,-84.961,0
1483453781.813,48.828,8.301,38.574,29.297,-55.664,0
1483453781.817,49.805,10.254,43.457,28.809,-62.988,0
1483453781.821,43.945,10.742,38.574,40.039,-108.887,0
1483453781.825,32.715,5.859,36.621,46.387,-106.934,0
1483453781.829,29.297,3.906,33.691,33.203,-57.129,0
1483453781.833,33.691,3.418,36.621,42.480,-89.355,0
1483453781.837,33.691,6.348,37.598,42.480,-136.719,0
1483453781.841,36.621,11.719,41.016,43.457,-120.605,0
1483453781.845,46.875,11.719,47.852,44.434,-97.656,0
1483453781.849,44.434,10.742,27.832,36.621,-94.238,0
1483453781.852,38.086,10.742,21.973,32.715,-111.816,0
1483453781.856,34.180,13.184,37.598,38.574,-121.094,0
1483453781.860,30.273,16.113,38.086,41.016,-106.934,0
1483453781.864,28.320,14.160,39.062,37.109,-100.586,0
1483453781.868,30.273,10.254,37.598,24.414,-73.730,0
1483453781.872,30.762,6.348,41.016,21.973,-78.613,0
1483453781.876,35.156,8.301,40.527,38.574,-104.492,0
1483453781.880,37.598,11.719,44.434,46.875,-99.121,0
1483453781.884,28.320,8.789,58.105,31.250,-122.559,0
1483453781.888,24.414,5.859,41.992,32.715,-132.812,0
1483453781.892,28.320,4.883,33.203,40.527,-116.211,0
1483453781.895,26.855,6.836,35.156,31.250,-109.375,0
1483453781.899,30.762,15.137,30.273,30.273,-93.750,0
1483453781.903,29.297,18.555,28.320,27.832,-88.379,0
1483453781.907,21.484,14.648,36.621,25.879,-70.312,0
1483453781.911,24.902,13.184,36.133,20.996,-68.848,0
1483453781.915,33.691,13.672,31.250,23.926,-83.984,0
1483453781.919,28.320,15.137,32.715,33.691,-68.848,0
1483453781.923,18.066,17.090,29.297,38.086,-42.480,0
1483453781.927,19.531,16.113,45.410,29.785,-43.945,0
1483453781.931,21.484,16.113,38.574,17.578,-63.477,0
1483453781.935,29.785,17.578,25.391,22.949,-81.055,0
1483453781.938,32.715,17.578,41.504,29.785,-70.312,0
1483453781.942,30.273,16.113,40.039,35.156,-74.219,0
1483453781.946,38.574,19.043,17.090,47.363,-84.961,0
1483453781.950,41.504,23.926,11.230,51.270,-67.383,0
1483453781.954,41.992,21.973,28.809,34.668,-56.641,0
1483453781.958,40.527,17.578,32.227,25.879,-90.820,0
1483453781.962,45.410,19.531,27.344,33.203,-75.195,0
1483453781.966,43.945,20.508,16.113,34.180,-22.461,0
1483453781.970,32.715,17.090,-6.836,29.785,-41.992,0
1483453781.974,22.949,16.113,-27.344,33.691,-69.824,0
1483453781.977,31.738,18.555,-12.207,38.086,-77.148,0
1483453781.981,47.852,20.996,4.395,40.039,-41.504,0
1483453781.985,35.645,19.531,-12.695,38.086,-3.418,0
1483453781.989,29.297,20.996,-14.648,39.062,-47.363,0
1483453781.993,36.621,20.020,3.906,38.574,-32.715,0
1483453781.997,34.668,16.113,0.000,40.527,-4.395,0
1483453782.001,42.969,20.996,6.836,48.828,-4.395,0
1483453782.005,44.922,21.973,3.906,45.410,-0.977,0
1483453782.009,41.016,17.090,-19.043,41.992,-12.695,0
1483453782.013,42.969,18.555,-6.836,42.480,0.488,0
1483453782.017,42.480,18.555,-0.977,49.805,15.625,0
1483453782.020,51.758,19.043,-16.602,52.246,-6.836,0
1483453782.024,49.805,19.043,-11.719,40.527,-0.977,0
1483453782.028,39.551,14.648,-3.418,37.109,58.594,0
1483453782.032,39.551,15.137,-11.719,37.109,62.988,0
1483453782.036,34.180,18.555,-18.066,33.691,71.289,0
1483453782.040,41.016,21.484,-7.812,38.574,106.445,0
1483453782.044,53.711,23.438,2.441,56.152,90.332,0
1483453782.048,42.969,17.090,-5.371,43.457,87.402,0
1483453782.052,39.062,14.648,-4.395,33.203,105.957,0
1483453782.056,47.852,18.066,5.859,53.223,122.559,0
1483453782.060,50.293,18.555,0.000,47.852,125.488,0
1483453782.063,50.781,20.020,-2.930,41.504,116.211,0
1483453782.067,47.363,19.043,-1.953,51.270,100.586,0
1483453782.071,39.551,15.625,2.441,43.945,111.328,0
1483453782.075,38.086,16.113,4.883,49.316,105.469,0
1483453782.079,32.715,18.555,13.672,51.270,91.309,0
1483453782.083,25.879,16.113,11.230,29.297,107.422,0
1483453782.087,34.180,13.184,3.418,28.320,130.371,0
1483453782.091,28.320,9.277,7.324,40.039,120.117,0
1483453782.095,26.855,7.324,-1.465,41.016,98.633,0
1483453782.099,35.156,4.883,12.695,40.527,104.980,0
1483453782.102,29.785,5.371,29.297,35.645,110.352,0
1483453782.106,24.902,8.301,21.973,24.414,107.422,0
1483453782.110,17.090,4.883,14.648,22.461,116.211,0
1483453782.114,26.367,9.277,17.090,36.133,106.445,0
1483453782.118,37.109,13.672,21.484,42.969,115.234,0
1483453782.122,24.414,14.160,27.832,36.621,106.445,0
1483453782.126,29.785,15.137,18.066,37.598,87.402,0
1483453782.130,35.645,15.137,20.996,42.969,114.746,0
1483453782.134,32.227,14.160,39.062,33.203,130.371,0
1483453782.138,43.457,11.230,26.367,34.668,107.422,0
1483453782.142,41.504,9.277,11.719,41.992,106.934,0
1483453782.145,27.832,6.348,23.438,42.480,129.395,0
1483453782.149,35.156,5.859,43.945,38.574,128.418,0
1483453782.153,35.645,4.883,57.129,42.480,103.027,0
1483453782.157,30.273,5.371,39.551,45.898,117.676,0
1483453782.161,41.016,8.789,23.926,54.688,142.578,0
1483453782.165,36.133,5.859,29.785,47.363,170.410,0
1483453782.169,28.320,3.906,21.484,41.504,147.461,0
1483453782.173,26.855,3.906,28.809,46.387,103.027,0
1483453782.177,24.902,2.441,49.805,35.156,148.438,0
1483453782.181,31.250,1.953,52.734,42.480,158.691,0
1483453782.185,34.668,0.977,46.387,41.016,111.328,0
1483453782.188,38.574,-2.441,43.945,37.109,105.957,0
1483453782.192,32.227,-2.441,35.645,55.664,128.906,0
1483453782.196,29.297,0.000,37.109,53.223,111.328,0
1483453782.200,34.668,0.488,38.574,46.875,114.258,0
1483453782.204,35.156,1.465,17.578,52.734,134.277,0
1483453782.208,40.527,1.465,25.879,49.805,129.395,0
1483453782.212,29.785,-2.441,41.504,45.410,105.957,0
1483453782.216,23.438,-4.395,31.250,47.363,55.664,0
1483453782.220,37.598,-0.977,47.363,47.852,74.219,0
1483453782.224,37.598,2.930,65.918,51.270,89.844,0
1483453782.227,41.016,2.930,46.875,55.664,110.840,0
1483453782.231,45.410,3.418,34.180,55.176,141.602,0
1483453782.235,43.945,3.418,33.691,57.129,115.234,0
1483453782.239,42.480,0.000,36.621,57.129,109.375,0
1483453782.243,47.852,-0.488,39.062,56.641,142.090,0
1483453782.247,39.551,-3.418,45.410,52.246,151.855,0
1483453782.251,32.715,-4.883,61.035,44.922,107.422,0
1483453782.255,42.969,-0.977,58.594,46.387,83.496,0
1483453782.259,39.551,-0.977,55.176,46.387,95.215,0
1483453782.263,36.621,-3.906,54.688,45.898,85.449,0
1483453782.267,26.855,-1.953,58.105,47.363,89.844,0
1483453782.270,19.531,0.977,58.594,41.992,67.871,0
1483453782.274,22.949,3.418,54.688,34.180,52.734,0
1483453782.278,19.043,1.953,61.035,29.785,63.477,0
1483453782.282,20.020,4.395,53.223,24.902,62.500,0
1483453782.286,24.414,13.184,36.133,36.133,38.574,0
1483453782.290,24.414,9.766,43.945,43.945,27.344,0
1483453782.294,21.973,0.977,64.453,31.250,22.949,0
1483453782.298,17.578,3.418,81.543,29.785,13.184,0
1483453782.302,18.555,4.883,69.336,32.715,8.789,0
1483453782.306,15.137,2.441,52.246,29.297,-11.230,0
1483453782.310,15.137,8.301,55.176,41.016,0.488,0
1483453782.313,25.879,13.184,54.199,39.551,39.062,0
1483453782.317,32.715,6.348,58.105,39.062,-2.441,0
1483453782.321,29.297,3.906,46.875,32.227,-21.484,0
1483453782.325,25.391,5.371,44.434,31.250,7.812,0
1483453782.329,34.180,0.000,57.617,44.434,-11.719,0
1483453782.333,35.156,-2.441,57.617,48.828,-20.508,0
1483453782.337,27.832,-0.977,56.152,45.410,-20.996,0
1483453782.341,29.785,0.000,49.316,44.922,-12.695,0
1483453782.345,32.715,1.953,43.945,41.992,-8.301,0
1483453782.349,33.203,5.371,32.715,40.527,-17.578,0
1483453782.352,28.320,1.953,38.086,39.062,-11.719,0
1483453782.356,32.227,-1.953,55.664,34.668,10.742,0
1483453782.360,34.668,-0.977,39.062,42.969,-6.348,0
1483453782.364,36.621,2.930,20.508,55.664,-34.668,0
1483453782.368,37.109,-0.977,34.180,47.852,-34.180,0
1483453782.372,37.598,-4.395,38.574,35.645,-33.691,0
1483453782.376,27.832,-5.371,34.180,37.109,-37.109,0
1483453782.380,20.020,-4.395,33.203,34.668,-25.879,0
1483453782.384,26.367,-2.930,34.180,24.902,-12.207,0
1483453782.388,29.785,0.000,34.180,36.621,-20.508,0
1483453782.392,35.156,0.488,29.785,39.551,-6.348,0
1483453782.395,30.273,-3.418,35.156,40.527,12.207,0
1483453782.399,27.832,-2.441,34.180,45.898,39.062,0
1483453782.403,29.297,-2.441,24.414,35.645,44.434,0
1483453782.407,20.020,-7.324,38.574,17.090,3.906,0
1483453782.411,20.508,-5.859,48.828,21.973,-1.953,0
1483453782.415,26.855,-0.977,40.039,33.203,29.785,0
1483453782.419,30.273,1.465,31.738,31.738,49.805,0
1483453782.423,28.320,5.371,30.273,38.086,23.438,0
1483453782.427,25.391,6.348,39.062,38.086,41.016,0
1483453782.431,17.578,3.418,38.574,29.297,92.773,0
1483453782.435,20.996,5.371,29.297,27.832,92.773,0
1483453782.438,38.574,9.277,36.621,39.551,76.660,0
1483453782.442,34.180,8.301,37.109,37.598,68.359,0
1483453782.446,32.227,8.301,33.203,35.156,91.309,0
1483453782.450,33.691,4.883,55.176,29.785,129.395,0
1483453782.454,36.133,4.395,50.781,37.598,113.770,0
1483453782.458,46.875,7.812,31.738,45.898,133.789,0
1483453782.462,47.852,5.859,33.203,36.133,181.641,0
1483453782.466,51.270,7.324,33.691,54.688,175.781,0
1483453782.470,34.668,6.348,38.574,50.293,163.574,0
1483453782.474,24.902,0.488,53.223,27.344,180.664,0
1483453782.477,36.621,1.953,40.039,25.391,203.613,0
1483453782.481,37.109,6.348,38.086,42.969,203.125,0
1483453782.485,34.180,3.906,54.688,53.711,211.426,0
1483453782.489,34.180,3.906,56.641,39.551,221.191,0
1483453782.493,33.203,4.883,44.922,33.691,257.324,0
1483453782.497,45.898,4.883,35.156,44.434,271.973,0
1483453782.501,43.457,6.348,27.832,51.270,264.160,0
1483453782.505,37.598,1.953,18.555,36.133,295.898,0
1483453782.509,41.016,-1.953,27.832,39.062,316.895,0
1483453782.513,41.504,-1.465,38.574,46.875,322.266,0
1483453782.517,40.039,0.977,41.504,39.551,328.125,0
1483453782.520,34.668,-0.488,34.180,38.086,368.164,0
1483453782.524,36.133,3.906,15.625,35.156,395.020,0
1483453782.528,33.691,6.836,12.695,47.363,404.297,0
1483453782.532,32.715,3.906,41.504,50.293,402.344,0
1483453782.536,33.203,2.930,56.641,35.645,393.066,0
1483453782.540,26.367,2.441,43.945,34.180,416.016,0
1483453782.544,15.137,2.930,21.484,37.598,397.949,0
1483453782.548,24.902,3.906,28.320,30.273,400.879,0
1483453782.552,34.180,2.441,21.973,25.391,473.145,0
1483453782.556,22.949,0.488,0.977,30.273,477.539,0
1483453782.560,16.602,-5.371,32.715,30.762,454.590,0
1483453782.563,20.508,-7.324,51.270,16.602,482.422,0
1483453782.567,26.367,-3.906,35.645,18.555,533.203,0
1483453782.571,17.578,0.000,26.855,17.578,546.387,0
1483453782.575,8.789,2.930,17.090,28.320,513.672,0
1483453782.579,8.789,-1.465,22.949,30.762,575.684,0
1483453782.583,15.625,1.953,22.461,27.344,610.840,0
1483453782.587,20.996,2.930,9.766,28.320,578.613,0
1483453782.591,22.949,-0.488,17.090,26.855,624.023,0
1483453782.595,21.484,2.930,31.738,30.762,673.828,0
1483453782.599,26.367,2.930,24.902,31.738,684.082,0
1483453782.602,19.043,-8.789,32.227,23.438,699.219,0
1483453782.606,4.395,-15.625,28.809,16.113,707.520,0
1483453782.610,14.160,-11.230,28.809,25.391,721.680,0
1483453782.614,27.344,-5.371,45.898,27.344,764.160,0
1483453782.618,24.414,-2.441,41.504,19.043,768.066,0
1483453782.622,18.555,-0.488,30.762,27.344,759.277,0
1483453782.626,18.555,0.000,33.203,34.180,794.434,0
1483453782.630,20.508,0.977,12.207,31.250,821.777,0
1483453782.634,22.949,3.906,5.371,28.809,782.227,0
1483453782.638,22.949,-1.465,31.250,26.855,792.480,0
1483453782.642,21.973,-1.953,41.016,29.785,826.660,0
1483453782.645,27.344,-0.977,43.945,31.250,807.617,0
1483453782.649,31.250,-2.930,44.922,21.973,851.562,0
1483453782.653,39.062,0.000,40.039,33.203,882.812,0
1483453782.657,32.227,-1.465,13.672,34.180,857.422,0
1483453782.661,26.855,-3.906,26.855,20.020,844.727,0
1483453782.665,30.762,-1.465,38.574,34.180,843.750,0
1483453782.669,29.785,2.930,23.926,44.922,838.867,0
1483453782.673,33.203,5.371,14.648,39.551,827.148,0
1483453782.677,29.785,3.906,15.137,26.367,791.992,0
1483453782.681,29.785,4.395,25.879,20.996,779.297,0
1483453782.685,25.879,4.395,40.527,26.367,806.641,0
1483453782.688,25.879,5.859,34.668,42.969,809.570,0
1483453782.692,32.715,9.277,24.414,42.969,788.574,0
1483453782.696,25.391,5.859,28.320,30.273,798.340,0
1483453782.700,17.578,0.000,35.156,16.113,815.918,0
1483453782.704,13.184,1.465,28.320,13.184,796.387,0
1483453782.708,22.949,7.324,5.859,33.203,806.152,0
1483453782.712,32.227,10.742,16.602,40.527,837.402,0
1483453782.716,18.555,8.301,31.738,23.438,845.703,0
1483453782.720,9.766,6.836,30.762,15.137,837.402,0
1483453782.724,30.762,11.719,11.230,37.598,842.285,0
1483453782.727,35.156,9.766,6.836,38.086,853.516,0
1483453782.731,21.484,4.395,20.020,23.926,868.164,0
1483453782.735,24.902,9.766,20.020,30.762,861.816,0
1483453782.739,25.879,11.230,24.902,31.250,832.520,0
1483453782.743,27.344,8.301,19.531,28.809,850.098,0
1483453782.747,29.297,9.277,28.320,17.578,862.793,0
1483453782.751,20.996,5.371,28.809,2.441,847.656,0
1483453782.755,32.227,5.371,26.367,24.414,881.836,0
1483453782.759,28.809,5.371,33.691,37.109,878.906,0
1483453782.763,14.648,4.395,38.086,40.527,848.633,0
1483453782.767,20.020,3.906,37.109,41.504,814.941,0
1483453782.770,23.438,0.488,23.926,26.367,787.598,0
1483453782.774,24.902,3.906,19.043,22.949,790.527,0
1483453782.778,18.555,7.324,22.949,22.949,811.035,0
1483453782.782,19.043,7.324,45.898,28.320,773.438,0
1483453782.786,28.320,7.812,40.527,32.227,703.613,0
1483453782.790,18.555,1.465,14.160,26.367,695.801,0
1483453782.794,19.531,4.395,8.301,29.297,695.801,0
1483453782.798,24.414,6.348,25.391,30.273,650.391,0
1483453782.802,23.438,4.883,30.762,35.645,615.723,0
1483453782.806,30.273,7.324,11.230,30.762,598.145,0
1483453782.810,28.809,4.395,22.949,15.137,578.613,0
1483453782.813,22.461,3.906,27.344,17.578,541.992,0
1483453782.817,27.344,6.836,22.461,33.691,486.816,0
1483453782.821,26.367,5.371,35.156,34.668,477.051,0
1483453782.825,24.902,5.859,35.645,34.180,467.285,0
1483453782.829,22.949,5.859,28.809,23.926,414.551,0
1483453782.833,25.879,6.836,10.254,31.250,383.301,0
1483453782.837,19.531,5.371,7.812,25.391,391.602,0
1483453782.841,13.672,2.441,38.086,13.184,362.793,0
1483453782.845,16.602,2.441,57.129,27.344,316.895,0
1483453782.849,18.555,3.418,37.109,30.762,309.082,0
1483453782.852,17.578,9.277,25.391,31.738,264.648,0
1483453782.856,12.695,8.789,28.320,32.227,225.586,0
1483453782.860,12.695,8.301,29.297,31.738,216.309,0
1483453782.864,19.043,8.301,30.273,28.320,152.832,0
1483453782.868,21.484,6.836,21.973,33.691,136.719,0
1483453782.872,18.066,6.836,35.645,18.555,114.258,0
1483453782.876,12.695,3.906,41.992,11.719,70.801,0
1483453782.880,13.184,2.930,47.363,29.297,72.266,0
1483453782.884,29.297,8.301,35.156,32.715,58.105,0
1483453782.888,29.297,6.348,13.672,18.555,0.488,0
1483453782.892,20.996,5.371,16.602,27.832,-41.992,0
1483453782.895,17.090,7.324,20.020,33.691,-48.828,0
1483453782.899,23.438,7.324,28.320,21.973,-73.730,0
1483453782.903,34.180,11.719,25.391,36.621,-99.121,0
1483453782.907,28.320,12.695,21.973,36.621,-100.098,0
