timestamps,TP9,AF7,AF8,TP10,Right AUX,Marker0
1483523502.258,37.598,36.621,33.691,33.691,10.254,0
1483523502.262,33.203,30.762,31.738,28.809,59.570,0
1483523502.266,27.344,20.996,20.508,24.902,66.406,0
1483523502.270,28.320,22.461,20.996,25.879,46.387,0
1483523502.274,35.156,33.691,29.785,32.715,41.992,0
1483523502.278,36.621,38.574,29.297,35.156,8.789,0
1483523502.282,44.434,39.062,30.273,39.062,21.973,0
1483523502.286,51.270,38.086,33.203,44.922,1.953,0
1483523502.290,48.340,36.621,39.551,46.387,-20.996,0
1483523502.294,54.199,41.992,46.387,47.852,8.301,0
1483523502.297,54.199,38.086,39.062,41.016,21.973,0
1483523502.301,47.852,28.809,27.832,36.133,27.832,0
1483523502.305,51.758,32.227,27.344,37.109,18.555,0
1483523502.309,50.293,34.668,26.367,36.133,35.156,0
1483523502.313,48.828,35.156,26.855,44.922,33.691,0
1483523502.317,49.805,38.574,32.227,45.410,3.418,0
1483523502.321,52.246,39.551,37.598,46.875,1.465,0
1483523502.325,51.270,35.645,34.668,51.758,9.277,0
1483523502.329,49.316,31.250,29.785,45.410,26.367,0
1483523502.333,46.387,29.785,27.344,40.039,15.625,0
1483523502.336,39.551,28.809,23.438,35.645,20.508,0
1483523502.340,37.109,29.297,26.855,32.227,60.059,0
1483523502.344,42.480,35.645,40.527,42.969,73.242,0
1483523502.348,40.039,35.156,43.457,45.898,71.289,0
1483523502.352,36.621,34.180,36.621,41.504,72.266,0
1483523502.356,36.621,34.668,34.180,37.598,43.945,0
1483523502.360,32.227,27.344,30.762,24.902,11.719,0
1483523502.364,31.250,24.902,30.762,23.926,40.527,0
1483523502.368,33.203,27.832,32.715,26.367,65.430,0
1483523502.372,32.227,29.297,29.785,27.832,15.625,0
1483523502.376,32.715,31.250,28.809,30.762,-10.254,0
1483523502.379,32.715,25.391,28.809,28.809,-11.719,0
1483523502.383,28.809,22.949,31.738,28.809,23.926,0
1483523502.387,30.273,27.344,34.180,31.738,59.082,0
1483523502.391,40.039,31.738,41.016,37.109,47.363,0
1483523502.395,41.016,31.738,41.992,35.645,16.602,0
1483523502.399,31.250,28.809,34.668,29.297,39.062,0
1483523502.403,33.203,34.668,40.039,32.715,65.918,0
1483523502.407,37.598,35.156,40.039,31.250,14.160,0
1483523502.411,37.109,33.691,42.480,30.273,-6.348,0
1483523502.415,37.598,31.250,45.410,35.645,4.395,0
1483523502.419,45.410,33.691,48.340,43.945,-1.953,0
1483523502.422,44.434,36.133,48.828,43.457,0.977,0
1483523502.426,36.133,28.320,41.504,38.086,-2.930,0
1483523502.430,40.039,29.297,34.180,29.297,6.836,0
1483523502.434,48.340,36.621,37.598,28.809,24.902,0
1483523502.438,47.852,34.668,40.527,33.203,25.391,0
1483523502.442,40.527,29.785,32.715,29.297,3.418,0
1483523502.446,43.457,34.180,31.738,34.180,2.930,0
1483523502.450,49.805,40.039,39.551,41.016,15.137,0
1483523502.454,51.270,41.992,40.527,41.504,11.230,0
1483523502.458,50.781,41.504,37.109,45.410,17.578,0
1483523502.461,48.340,41.992,37.598,49.805,45.410,0
1483523502.465,47.852,43.457,41.992,50.293,53.223,0
1483523502.469,49.316,41.016,42.969,49.805,35.156,0
1483523502.473,51.270,37.598,36.133,47.363,44.922,0
1483523502.477,58.594,47.852,37.598,50.293,39.551,0
1483523502.481,56.641,47.852,40.039,44.434,9.277,0
1483523502.485,49.316,41.016,39.062,41.504,34.668,0
1483523502.489,54.199,43.457,44.434,52.734,53.223,0
1483523502.493,52.734,41.992,40.527,48.828,49.316,0
1483523502.497,47.852,36.621,36.621,42.480,62.988,0
1483523502.501,47.852,40.527,39.551,44.922,50.293,0
1483523502.504,45.898,41.016,37.598,41.504,24.902,0
1483523502.508,44.434,40.527,36.621,35.645,27.344,0
1483523502.512,38.086,41.016,37.109,32.227,44.434,0
1483523502.516,33.203,36.621,34.668,27.832,49.805,0
1483523502.520,31.250,30.762,34.180,20.996,42.969,0
1483523502.524,35.645,33.691,41.016,27.832,21.973,0
1483523502.528,40.039,39.551,45.898,41.016,-11.230,0
1483523502.532,26.855,27.344,35.645,34.180,-40.039,0
1483523502.536,24.902,23.926,31.738,27.832,-10.742,0
1483523502.540,32.227,31.250,33.691,25.391,-6.836,0
1483523502.544,27.344,29.785,32.715,22.949,-25.391,0
1483523502.547,25.879,29.297,35.156,29.297,11.719,0
1483523502.551,31.738,35.645,39.062,34.180,12.207,0
1483523502.555,34.668,38.574,39.062,32.715,-7.812,0
1483523502.559,29.785,28.809,32.227,28.809,-7.324,0
1483523502.563,32.715,28.809,37.598,31.738,-14.160,0
1483523502.567,36.133,34.668,40.527,35.156,-16.113,0
1483523502.571,37.598,36.621,35.645,34.180,-36.621,0
1483523502.575,41.992,37.598,33.691,32.227,-59.082,0
1483523502.579,37.109,33.203,26.367,30.273,-6.836,0
1483523502.583,37.109,36.621,28.320,31.250,22.949,0
1483523502.586,38.574,35.156,33.203,26.367,23.438,0
1483523502.590,39.062,34.180,36.133,29.785,14.648,0
1483523502.594,42.480,34.180,34.668,31.738,17.090,0
1483523502.598,48.828,35.156,36.621,30.273,49.316,0
1483523502.602,51.758,39.062,36.621,37.109,34.668,0
1483523502.606,50.781,40.039,34.668,42.969,-4.395,0
1483523502.610,49.316,37.109,39.062,43.945,-9.766,0
1483523502.614,45.898,37.109,41.504,42.480,11.230,0
1483523502.618,49.316,39.551,44.922,46.875,9.277,0
1483523502.622,58.105,39.062,49.805,52.734,1.953,0
1483523502.626,49.316,31.250,45.410,44.922,39.551,0
1483523502.629,45.410,34.668,45.410,47.363,33.691,0
1483523502.633,48.340,37.598,47.852,53.223,16.113,0
1483523502.637,45.410,34.180,46.875,48.340,48.340,0
1483523502.641,43.457,37.598,46.875,48.340,49.316,0
1483523502.645,40.527,37.109,37.109,43.945,31.250,0
1483523502.649,42.480,35.645,33.691,42.480,20.996,0
1483523502.653,45.898,36.621,35.645,42.969,23.926,0
1483523502.657,46.875,31.738,33.203,39.062,12.207,0
1483523502.661,52.734,37.598,39.551,43.945,8.789,0
1483523502.665,54.199,41.016,47.363,49.316,35.156,0
1483523502.669,48.340,28.320,34.180,40.039,46.387,0
1483523502.672,45.410,24.902,27.832,37.598,31.250,0
1483523502.676,45.410,28.320,37.598,42.480,3.906,0
1483523502.680,48.828,32.227,37.598,42.969,11.719,0
1483523502.684,53.223,34.180,36.133,42.480,40.039,0
1483523502.688,57.129,36.621,40.527,41.992,29.297,0
1483523502.692,60.547,40.527,41.504,41.504,8.789,0
1483523502.696,58.105,43.945,41.016,42.969,11.719,0
1483523502.700,53.223,42.480,40.527,41.504,27.832,0
1483523502.704,54.199,41.016,43.945,43.945,38.574,0
1483523502.708,51.270,41.992,47.852,45.898,32.227,0
1483523502.711,45.898,37.598,40.039,41.016,36.133,0
1483523502.715,42.969,31.738,34.180,34.668,35.156,0
1483523502.719,37.598,27.344,33.691,30.273,39.062,0
1483523502.723,31.738,22.461,30.273,23.926,29.297,0
1483523502.727,35.156,29.785,30.762,21.484,23.926,0
1483523502.731,40.527,31.250,34.180,20.020,19.043,0
1483523502.735,41.504,35.156,40.039,20.996,21.973,0
1483523502.739,40.527,36.133,33.203,20.020,13.672,0
1483523502.743,35.645,28.809,28.320,16.602,45.898,0
1483523502.747,33.203,31.250,32.227,21.973,73.242,0
1483523502.751,30.273,29.297,34.180,23.438,60.547,0
1483523502.754,28.809,29.785,35.645,17.090,25.879,0
1483523502.758,30.273,29.297,32.715,12.207,40.039,0
1483523502.762,26.855,27.344,33.203,12.695,89.844,0
1483523502.766,27.344,32.715,43.457,17.090,82.520,0
1483523502.770,28.320,32.227,45.898,16.113,46.875,0
1483523502.774,29.297,27.344,38.574,18.066,37.109,0
1483523502.778,26.367,22.461,36.621,11.230,65.430,0
1483523502.782,26.855,23.438,43.457,13.184,32.715,0
1483523502.786,29.297,26.855,39.062,22.461,7.324,0
1483523502.790,32.715,28.320,36.133,23.926,45.410,0
1483523502.794,39.551,32.715,39.551,27.344,69.336,0
1483523502.797,44.922,39.551,43.945,31.738,31.250,0
1483523502.801,44.922,32.715,37.598,31.250,20.508,0
1483523502.805,41.016,23.438,27.832,25.879,70.801,0
1483523502.809,41.504,28.320,26.855,24.414,80.078,0
1483523502.813,43.945,35.645,27.832,27.344,85.938,0
1483523502.817,38.574,34.668,28.809,28.809,59.570,0
1483523502.821,43.457,36.621,33.203,30.273,43.945,0
1483523502.825,46.387,41.504,34.180,36.133,13.184,0
1483523502.829,45.410,39.551,37.109,39.551,-5.371,0
1483523502.833,46.875,37.109,37.109,38.086,20.996,0
1483523502.836,46.875,40.527,33.203,37.109,45.898,0
1483523502.840,55.664,48.828,41.504,46.387,24.902,0
1483523502.844,50.293,47.363,38.086,42.480,20.996,0
1483523502.848,39.062,37.598,29.785,29.785,54.199,0
1483523502.852,41.016,30.762,27.832,25.391,43.457,0
1483523502.856,42.969,32.715,26.367,33.691,16.602,0
1483523502.860,52.734,42.480,34.180,44.922,14.160,0
1483523502.864,56.641,45.898,38.574,45.898,34.668,0
1483523502.868,48.340,41.504,32.715,44.434,42.969,0
1483523502.872,52.246,47.363,38.086,47.363,39.062,0
1483523502.876,56.641,42.480,42.480,48.828,34.668,0
1483523502.879,54.688,37.598,35.645,43.945,28.320,0
1483523502.883,54.688,40.039,38.086,40.527,42.969,0
1483523502.887,51.270,34.180,38.086,37.109,51.270,0
1483523502.891,46.387,31.250,32.227,36.621,50.781,0
1483523502.895,45.410,31.738,30.762,40.527,51.758,0
1483523502.899,46.875,33.691,35.156,39.551,33.691,0
1483523502.903,47.852,34.180,36.621,41.504,15.625,0
1483523502.907,51.270,39.551,39.062,52.246,12.695,0
1483523502.911,49.316,42.969,44.922,52.734,51.270,0
1483523502.915,43.945,39.551,43.945,44.922,98.633,0
1483523502.919,40.527,37.109,38.086,43.945,72.754,0
1483523502.922,33.203,32.227,30.762,38.574,46.387,0
1483523502.926,36.621,34.668,36.133,37.109,67.871,0
1483523502.930,39.062,35.156,36.621,37.109,78.613,0
1483523502.934,35.156,29.785,26.855,36.621,45.410,0
1483523502.938,37.109,29.297,31.250,38.086,45.898,0
1483523502.942,38.574,33.203,39.062,42.969,69.336,0
1483523502.946,37.109,35.156,41.504,47.363,18.555,0
1483523502.950,34.668,30.762,37.598,38.574,-7.812,0
1483523502.954,36.133,32.715,33.691,36.133,18.555,0
1483523502.958,35.645,35.645,35.645,40.039,22.949,0
1483523502.961,35.645,36.621,42.969,38.086,24.414,0
1483523502.965,40.039,36.621,43.945,43.457,37.598,0
1483523502.969,41.504,34.668,40.527,43.945,53.223,0
1483523502.973,37.598,33.203,40.039,39.551,86.426,0
1483523502.977,43.945,40.527,44.922,46.387,52.246,0
1483523502.981,42.969,37.598,43.457,44.922,20.020,0
1483523502.985,33.691,25.879,39.062,38.574,57.129,0
1483523502.989,35.156,30.273,41.016,40.039,52.246,0
1483523502.993,38.086,33.203,36.621,40.527,8.301,0
1483523502.997,37.109,33.691,31.738,43.457,25.391,0
1483523503.001,36.133,34.180,32.715,45.410,64.453,0
1483523503.004,38.574,39.062,36.621,45.410,73.730,0
1483523503.008,40.527,39.551,31.250,44.434,32.715,0
1483523503.012,46.387,38.086,33.691,40.039,34.668,0
1483523503.016,48.828,41.016,48.340,43.457,60.547,0
1483523503.020,44.434,37.598,43.457,43.945,59.082,0
1483523503.024,44.922,36.621,32.715,41.016,27.832,0
1483523503.028,48.340,40.527,38.086,41.504,33.203,0
1483523503.032,43.457,35.156,38.574,41.504,31.738,0
1483523503.036,41.992,32.715,37.598,43.945,22.461,0
1483523503.040,40.527,31.738,37.598,42.969,19.043,0
1483523503.044,38.086,31.738,39.551,41.992,29.297,0
1483523503.047,33.691,29.785,33.691,41.016,35.156,0
1483523503.051,33.691,33.203,30.273,47.852,32.715,0
1483523503.055,36.621,39.551,37.109,52.734,67.383,0
1483523503.059,36.133,39.551,35.645,49.805,44.434,0
1483523503.063,35.645,39.551,30.273,48.828,44.434,0
1483523503.067,37.109,40.039,31.738,49.316,64.941,0
1483523503.071,41.504,44.434,33.691,52.246,41.016,0
1483523503.075,47.363,50.781,35.156,51.758,33.203,0
1483523503.079,45.898,48.828,32.715,41.504,48.828,0
1483523503.083,37.598,38.574,28.320,37.109,48.340,0
1483523503.086,41.016,39.062,34.180,46.387,26.367,0
1483523503.090,49.316,46.875,41.504,51.758,37.598,0
1483523503.094,47.363,44.434,38.086,52.246,35.645,0
1483523503.098,41.016,42.969,28.320,50.781,51.758,0
1483523503.102,43.945,45.410,26.855,50.781,60.059,0
1483523503.106,52.734,48.828,33.691,52.734,41.992,0
1483523503.110,57.617,52.734,39.062,54.199,46.387,0
1483523503.114,56.641,53.711,39.062,58.594,42.969,0
1483523503.118,59.082,57.617,48.828,66.406,56.641,0
1483523503.122,61.035,57.617,54.688,69.336,65.918,0
1483523503.126,58.105,50.293,45.898,58.594,46.387,0
1483523503.129,49.316,40.039,42.969,47.363,32.227,0
1483523503.133,45.410,33.203,40.039,45.410,36.133,0
1483523503.137,42.969,34.668,37.598,44.922,60.059,0
1483523503.141,40.527,37.109,36.621,43.457,63.965,0
1483523503.145,40.527,31.250,36.621,39.551,60.547,0
1483523503.149,36.621,27.344,34.180,34.180,66.895,0
1483523503.153,34.180,32.227,31.738,37.598,59.570,0
1483523503.157,34.668,35.645,38.574,40.527,28.320,0
1483523503.161,43.945,43.457,50.293,43.457,-0.488,0
1483523503.165,40.039,35.645,44.922,33.203,16.602,0
1483523503.169,31.738,25.391,33.203,22.461,41.504,0
1483523503.172,33.691,28.809,34.180,29.297,27.344,0
1483523503.176,36.621,32.715,43.945,36.621,34.668,0
1483523503.180,37.598,32.715,44.922,44.434,56.641,0
1483523503.184,33.691,24.902,26.855,38.574,69.824,0
1483523503.188,36.621,21.973,17.090,32.227,29.785,0
1483523503.192,35.645,22.461,19.043,35.645,10.742,0
1483523503.196,34.668,26.367,19.043,39.062,52.246,0
1483523503.200,34.668,28.809,16.113,41.992,32.227,0
1483523503.204,38.086,33.691,23.438,41.016,12.695,0
1483523503.208,40.039,32.227,29.785,34.180,21.484,0
1483523503.211,28.809,22.949,22.461,26.855,4.395,0
1483523503.215,21.484,26.367,12.695,25.391,30.762,0
1483523503.219,28.809,32.227,16.113,28.809,18.066,0
1483523503.223,41.016,33.203,28.320,29.297,25.391,0
1483523503.227,35.156,32.227,27.832,33.691,69.824,0
1483523503.231,27.832,29.297,22.949,32.715,69.336,0
1483523503.235,31.738,33.691,24.414,30.762,81.055,0
1483523503.239,32.715,38.574,26.855,34.668,63.477,0
1483523503.243,38.574,35.645,24.414,33.691,50.293,0
1483523503.247,41.992,35.645,29.297,37.598,45.898,0
1483523503.251,42.480,40.039,38.086,42.969,31.738,0
1483523503.254,40.527,32.715,33.691,39.551,73.730,0
1483523503.258,41.504,31.738,29.785,41.992,86.426,0
1483523503.262,41.992,33.691,26.367,44.434,38.574,0
1483523503.266,40.039,31.250,24.902,43.945,29.785,0
1483523503.270,43.457,34.668,32.715,42.480,48.828,0
1483523503.274,41.992,30.273,32.715,36.621,46.875,0
1483523503.278,38.574,28.320,25.391,38.574,20.508,0
1483523503.282,41.504,33.691,29.297,46.387,-14.160,0
1483523503.286,42.969,33.203,29.297,43.945,-0.488,0
1483523503.290,40.039,29.297,24.902,42.969,29.297,0
1483523503.294,45.898,28.809,31.738,53.223,34.668,0
1483523503.297,47.363,26.855,32.227,52.246,41.504,0
1483523503.301,49.316,27.344,27.344,48.340,63.477,0
1483523503.305,59.082,35.156,38.086,50.781,47.852,0
1483523503.309,58.105,39.551,39.551,53.223,-5.371,0
1483523503.313,56.152,38.086,27.832,49.805,0.977,0
1483523503.317,53.223,38.086,31.738,50.293,32.227,0
1483523503.321,50.781,35.645,33.691,49.805,4.883,0
1483523503.325,52.734,33.691,32.227,49.316,-20.020,0
1483523503.329,52.246,35.156,33.691,48.828,32.227,0
1483523503.333,58.105,44.434,39.551,56.152,51.270,0
1483523503.336,60.059,45.898,38.086,58.594,37.598,0
1483523503.340,59.570,42.969,36.133,52.734,27.832,0
1483523503.344,61.523,41.016,37.109,53.711,43.945,0
1483523503.348,62.500,36.621,32.715,54.688,56.152,0
1483523503.352,65.430,37.598,36.621,61.035,25.391,0
1483523503.356,64.453,40.527,41.016,62.988,8.301,0
1483523503.360,65.918,39.062,35.156,62.500,-5.371,0
1483523503.364,63.965,37.109,31.250,61.523,3.418,0
1483523503.368,64.453,41.016,26.855,57.617,16.113,0
1483523503.372,65.430,41.504,29.297,55.664,-5.859,0
1483523503.376,59.570,43.945,40.527,56.152,1.953,0
1483523503.379,50.781,41.016,32.715,51.270,16.602,0
1483523503.383,43.945,36.133,26.367,40.527,13.184,0
1483523503.387,43.945,40.039,30.762,38.086,28.320,0
1483523503.391,39.551,39.062,27.832,37.109,50.293,0
1483523503.395,34.668,34.668,33.691,31.738,35.156,0
1483523503.399,34.180,34.668,37.598,30.762,23.438,0
1483523503.403,34.180,35.156,29.785,28.809,26.367,0
1483523503.407,36.621,40.039,30.762,34.180,15.625,0
1483523503.411,41.016,44.922,35.156,39.551,25.391,0
1483523503.415,40.527,36.621,30.273,30.273,16.113,0
1483523503.419,38.086,32.227,27.344,25.879,19.043,0
1483523503.422,38.086,31.250,31.250,27.832,53.711,0
1483523503.426,34.668,27.832,33.691,24.902,27.344,0
1483523503.430,36.133,32.715,35.645,29.297,24.414,0
1483523503.434,38.574,36.621,38.086,29.785,54.199,0
1483523503.438,32.715,34.180,34.668,20.996,50.781,0
1483523503.442,31.738,35.645,35.156,25.391,46.387,0
1483523503.446,37.109,40.527,47.363,27.832,35.645,0
1483523503.450,37.598,34.180,43.457,22.949,21.484,0
1483523503.454,34.180,29.785,34.180,17.578,14.648,0
1483523503.458,36.621,34.180,33.691,15.137,-1.953,0
1483523503.461,39.062,36.621,37.598,18.066,-7.812,0
1483523503.465,36.133,36.621,36.133,15.137,49.316,0
1483523503.469,32.227,32.227,29.785,13.672,85.449,0
1483523503.473,34.668,28.320,26.855,14.648,52.734,0
1483523503.477,33.691,25.391,30.273,15.625,27.832,0
1483523503.481,40.527,32.715,37.598,26.367,31.738,0
1483523503.485,51.758,47.363,43.945,36.133,21.973,0
1483523503.489,38.086,33.203,36.133,22.949,33.691,0
1483523503.493,28.320,16.113,28.809,14.648,46.387,0
1483523503.497,33.203,17.578,35.156,19.043,39.062,0
1483523503.501,32.715,19.043,38.086,22.461,72.754,0
1483523503.504,35.645,24.414,37.598,28.320,51.758,0
1483523503.508,38.574,28.809,34.180,32.715,44.434,0
1483523503.512,36.621,25.391,33.691,31.738,90.332,0
1483523503.516,39.551,26.367,41.992,30.273,58.105,0
1483523503.520,40.527,27.344,42.969,23.926,44.922,0
1483523503.524,36.621,22.461,40.039,20.508,67.871,0
1483523503.528,33.691,21.973,49.316,22.461,68.359,0
1483523503.532,36.621,25.879,50.293,25.879,64.453,0
1483523503.536,41.992,31.738,44.922,35.156,23.438,0
1483523503.540,39.551,29.785,43.945,31.250,-2.441,0
1483523503.544,36.133,24.902,39.551,24.414,11.719,0
1483523503.547,36.133,27.832,44.922,29.297,8.789,0
1483523503.551,40.527,34.180,48.340,33.691,22.949,0
1483523503.555,40.527,26.367,40.527,28.320,53.223,0
1483523503.559,37.598,20.020,41.016,19.531,24.414,0
1483523503.563,41.992,26.855,46.875,18.555,-0.488,0
1483523503.567,46.875,31.738,48.340,25.391,9.766,0
1483523503.571,46.387,28.320,50.293,32.227,27.344,0
1483523503.575,43.945,24.902,53.223,35.156,23.926,0
1483523503.579,42.480,29.297,51.758,40.039,-0.977,0
1483523503.583,35.645,26.367,47.852,39.062,6.836,0
1483523503.586,43.945,31.250,61.035,42.480,23.438,0
1483523503.590,46.387,32.227,66.895,43.945,12.207,0
1483523503.594,34.668,20.020,48.828,32.715,3.906,0
1483523503.598,36.133,24.902,44.434,36.133,20.996,0
1483523503.602,36.133,24.902,39.551,37.109,32.715,0
1483523503.606,37.598,26.855,41.016,35.156,0.000,0
1483523503.610,40.039,30.273,50.293,40.527,-30.273,0
1483523503.614,39.062,30.273,50.293,45.410,15.137,0
1483523503.618,40.527,34.668,53.711,48.828,17.578,0
1483523503.622,47.852,40.039,58.105,50.293,11.230,0
1483523503.626,47.363,36.621,53.711,41.992,27.832,0
1483523503.629,48.340,41.016,59.570,45.410,27.344,0
1483523503.633,45.898,40.039,55.664,45.898,21.973,0
1483523503.637,41.504,30.273,46.387,39.062,16.602,0
1483523503.641,46.875,35.156,50.293,43.945,6.348,0
1483523503.645,50.781,41.504,54.688,51.270,2.441,0
1483523503.649,43.457,32.715,51.270,49.316,12.695,0
1483523503.653,39.551,27.832,44.922,44.434,9.277,0
1483523503.657,47.852,33.203,40.527,49.805,0.488,0
1483523503.661,49.316,36.133,42.969,53.223,-4.883,0
1483523503.665,51.270,39.551,50.293,50.293,-1.953,0
1483523503.669,56.152,43.945,56.641,50.781,4.883,0
1483523503.672,51.270,38.574,54.199,46.875,0.000,0
1483523503.676,50.293,36.621,47.363,45.410,19.043,0
1483523503.680,48.340,41.992,48.340,50.293,28.809,0
1483523503.684,44.434,41.504,45.898,44.922,23.926,0
1483523503.688,48.340,41.992,46.387,44.434,28.320,0
1483523503.692,52.246,45.410,49.805,48.828,35.156,0
1483523503.696,49.805,42.480,45.410,43.457,8.789,0
1483523503.700,42.969,36.133,40.039,34.180,-12.207,0
1483523503.704,46.387,36.621,47.852,37.598,32.227,0
1483523503.708,53.711,40.527,53.223,42.480,26.855,0
1483523503.711,49.805,37.109,42.969,38.574,19.043,0
1483523503.715,48.828,33.691,44.434,43.457,25.879,0
1483523503.719,51.270,33.691,50.781,48.828,21.484,0
1483523503.723,47.852,32.715,44.922,47.363,28.320,0
1483523503.727,44.434,33.203,43.945,47.363,29.297,0
1483523503.731,43.457,34.180,45.898,47.363,41.504,0
1483523503.735,41.992,31.738,48.340,40.039,38.574,0
1483523503.739,40.039,31.738,51.758,37.109,48.828,0
1483523503.743,42.480,31.738,44.922,35.156,27.344,0
1483523503.747,37.109,27.832,38.086,30.273,-0.488,0
1483523503.751,32.715,29.297,45.898,30.762,38.574,0
1483523503.754,31.250,27.344,50.293,33.203,65.430,0
1483523503.758,33.203,26.855,47.363,36.133,46.387,0
1483523503.762,35.156,28.809,48.340,34.180,24.902,0
1483523503.766,36.133,30.273,49.805,33.691,67.871,0
1483523503.770,41.016,33.691,52.246,42.480,86.914,0
1483523503.774,42.480,34.668,49.316,50.293,38.086,0
1483523503.778,41.016,34.180,47.852,43.457,0.488,0
1483523503.782,41.016,33.203,44.922,36.133,9.277,0
1483523503.786,41.504,24.902,41.992,42.969,22.949,0
1483523503.790,44.922,24.414,49.805,53.711,9.277,0
1483523503.794,45.410,26.367,54.199,58.594,34.180,0
1483523503.797,41.016,22.461,52.734,61.035,68.848,0
1483523503.801,38.086,21.973,42.969,55.664,40.527,0
1483523503.805,43.945,29.785,40.527,58.594,27.832,0
1483523503.809,49.316,35.645,48.340,64.453,41.504,0
1483523503.813,45.898,33.691,41.992,57.129,31.250,0
1483523503.817,42.969,34.668,36.621,50.781,18.066,0
1483523503.821,44.434,33.691,33.691,41.992,9.277,0
1483523503.825,41.992,30.273,32.227,41.992,-4.883,0
1483523503.829,40.527,32.227,40.039,52.734,9.766,0
1483523503.833,43.457,32.715,41.016,48.828,-0.488,0
1483523503.836,41.016,25.879,37.109,37.109,-12.207,0
1483523503.840,43.945,27.832,40.527,41.016,15.137,0
1483523503.844,56.641,40.527,41.016,54.199,18.555,0
1483523503.848,47.363,34.180,34.668,51.758,21.484,0
1483523503.852,37.598,29.785,30.273,41.504,34.668,0
1483523503.856,40.527,31.250,35.645,42.480,51.758,0
1483523503.860,39.551,26.855,38.086,39.551,18.555,0
1483523503.864,38.086,26.855,33.691,34.180,0.488,0
1483523503.868,44.434,30.762,42.969,38.574,14.160,0
1483523503.872,43.457,29.297,45.898,41.504,14.160,0
1483523503.876,35.645,24.902,39.062,38.574,20.020,0
1483523503.879,39.551,30.273,44.922,41.016,24.414,0
1483523503.883,43.945,35.156,45.898,43.945,32.227,0
1483523503.887,43.945,33.691,44.922,42.969,30.273,0
1483523503.891,40.039,31.738,42.969,38.574,26.367,0
1483523503.895,35.156,26.367,37.109,29.785,41.016,0
1483523503.899,33.203,29.297,33.691,25.391,34.668,0
1483523503.903,42.480,41.016,32.715,28.809,9.766,0
1483523503.907,47.852,44.434,41.504,34.180,4.395,0
1483523503.911,41.016,41.504,43.457,32.227,21.973,0
1483523503.915,36.133,34.668,38.086,29.785,20.020,0
1483523503.919,37.109,30.273,39.551,29.785,11.230,0
1483523503.922,41.504,34.180,45.410,35.156,0.000,0
1483523503.926,43.945,34.180,44.434,40.527,-13.184,0
1483523503.930,42.969,30.273,39.062,33.691,35.645,0
1483523503.934,46.875,33.691,38.086,31.738,51.758,0
1483523503.938,43.457,31.250,37.109,35.156,38.574,0
1483523503.942,33.691,26.367,40.039,29.785,39.062,0
1483523503.946,35.645,31.738,42.969,28.320,45.410,0
1483523503.950,36.133,34.180,32.227,32.227,33.203,0
1483523503.954,39.551,37.598,31.738,31.738,26.855,0
1483523503.958,45.898,41.992,43.457,37.109,35.156,0
1483523503.961,34.180,33.203,41.504,32.715,30.273,0
1483523503.965,32.227,29.297,37.109,31.738,55.664,0
1483523503.969,39.551,36.621,40.039,36.133,57.617,0
1483523503.973,34.180,34.668,43.945,28.809,23.926,0
1483523503.977,34.668,32.227,40.039,33.203,51.758,0
1483523503.981,44.922,39.551,47.852,45.898,56.641,0
1483523503.985,47.852,38.574,53.711,39.062,46.875,0
1483523503.989,44.922,36.133,44.434,31.738,69.336,0
1483523503.993,46.875,34.668,39.062,39.062,72.754,0
1483523503.997,41.992,27.832,35.645,41.504,69.824,0
1483523504.001,41.992,33.691,33.203,42.480,55.176,0
1483523504.004,44.922,34.180,25.879,39.062,65.430,0
1483523504.008,46.387,31.250,29.297,36.621,62.012,0
1483523504.012,49.805,32.227,42.480,41.016,28.320,0
1483523504.016,45.410,30.762,46.875,40.527,27.344,0
1483523504.020,48.828,33.691,49.316,41.992,43.457,0
1483523504.024,52.734,33.691,51.270,47.363,34.668,0
1483523504.028,46.875,29.297,47.363,43.457,3.418,0
1483523504.032,42.480,26.367,39.551,41.504,-4.395,0
1483523504.036,38.086,27.344,38.086,40.039,15.137,0
1483523504.040,37.598,28.320,37.109,33.691,11.719,1
1483523504.044,38.574,29.297,38.574,30.762,6.348,0
1483523504.047,34.180,29.785,37.598,29.785,30.273,0
1483523504.051,38.086,33.203,34.180,37.109,44.922,0
1483523504.055,46.875,33.203,42.480,44.434,29.297,0
1483523504.059,43.945,30.762,47.852,40.527,-3.906,0
1483523504.063,41.016,35.156,43.945,40.527,-7.324,0
1483523504.067,41.016,36.621,40.527,42.969,18.066,0
1483523504.071,44.434,36.621,42.480,42.969,5.371,0
1483523504.075,48.828,39.062,43.457,37.109,-40.527,0
1483523504.079,41.992,33.691,35.645,31.738,-19.043,0
1483523504.083,42.969,33.203,41.504,32.715,30.273,0
1483523504.086,43.945,36.133,51.270,39.551,23.926,0
1483523504.090,35.156,33.203,40.527,39.551,5.859,0
1483523504.094,33.203,32.227,35.156,37.598,24.902,0
1483523504.098,30.762,31.250,40.527,33.203,46.875,0
1483523504.102,31.738,30.762,47.852,29.297,26.855,0
1483523504.106,36.621,29.297,49.316,28.320,4.395,0
1483523504.110,30.273,27.832,39.551,21.484,19.531,0
1483523504.114,30.762,29.785,35.156,22.949,38.574,0
1483523504.118,40.527,35.645,41.504,32.227,-7.324,0
1483523504.122,38.574,37.109,38.086,31.250,-26.367,0
1483523504.126,33.691,28.320,33.691,29.785,23.926,0
1483523504.129,34.668,26.367,36.621,31.738,24.414,0
1483523504.133,42.969,37.109,42.480,35.156,22.461,0
1483523504.137,47.852,38.574,50.781,40.527,37.598,0
1483523504.141,46.875,35.645,52.246,44.434,49.316,0
1483523504.145,43.945,32.227,52.734,41.992,23.926,0
1483523504.149,45.410,29.785,48.828,35.156,7.324,0
1483523504.153,47.363,33.691,41.992,33.691,14.160,0
1483523504.157,37.109,33.203,37.598,31.250,26.855,0
1483523504.161,29.785,30.273,38.086,27.344,24.414,0
1483523504.165,38.086,35.645,41.504,31.738,8.789,0
1483523504.169,35.156,34.180,42.969,29.785,28.809,0
1483523504.172,27.832,28.320,37.598,21.484,3.418,0
1483523504.176,31.250,30.273,35.156,22.461,-1.465,0
1483523504.180,31.250,34.180,40.039,28.809,32.715,0
1483523504.184,34.668,39.551,42.480,31.738,34.668,0
1483523504.188,40.039,40.039,35.645,21.973,28.320,0
1483523504.192,39.062,33.691,36.133,19.531,2.441,0
1483523504.196,34.668,26.855,34.668,29.785,12.207,0
1483523504.200,36.621,28.809,34.180,32.715,28.809,0
1483523504.204,37.598,30.762,33.203,30.762,11.230,0
1483523504.208,37.598,33.203,33.203,34.180,5.859,0
1483523504.211,46.875,39.062,47.852,38.574,19.043,0
1483523504.215,44.434,37.598,44.434,30.762,36.133,0
1483523504.219,35.156,33.203,36.621,20.020,49.316,0
1483523504.223,35.156,30.273,35.645,18.066,25.879,0
1483523504.227,33.203,27.832,30.762,19.531,25.879,0
1483523504.231,34.668,34.668,30.762,24.902,83.984,0
1483523504.235,36.133,36.133,33.203,28.809,45.898,0
1483523504.239,40.527,34.668,33.203,33.691,18.555,0
1483523504.243,46.875,41.504,36.133,35.645,21.484,0
1483523504.247,45.410,40.039,42.969,35.156,5.859,0
1483523504.251,40.527,34.668,39.551,37.109,22.949,0
1483523504.254,41.016,39.062,37.598,38.086,17.090,0
1483523504.258,42.969,41.016,44.434,37.109,20.508,0
1483523504.262,38.086,35.156,37.598,26.367,62.012,0
1483523504.266,34.180,36.133,32.715,27.344,33.691,0
1483523504.270,38.086,37.109,37.598,33.203,9.277,0
1483523504.274,36.133,34.180,31.250,22.949,40.527,0
1483523504.278,31.738,35.156,32.227,21.484,53.223,0
1483523504.282,41.016,41.504,48.340,34.668,55.664,0
1483523504.286,41.992,39.062,46.387,34.180,55.664,0
1483523504.290,38.574,32.715,44.434,27.832,54.199,0
1483523504.294,36.133,23.926,41.016,25.391,22.949,0
1483523504.297,38.574,33.691,33.203,30.273,3.418,0
1483523504.301,39.062,42.969,30.762,26.855,12.207,0
1483523504.305,36.133,35.645,31.250,21.484,36.133,0
1483523504.309,39.551,34.668,33.203,27.832,19.043,0
1483523504.313,38.086,32.715,29.297,30.273,22.949,0
1483523504.317,42.480,34.180,36.133,33.203,20.020,0
1483523504.321,50.781,38.086,41.016,38.086,-4.395,0
1483523504.325,55.664,42.480,41.504,39.551,-22.949,0
1483523504.329,54.199,41.992,45.898,41.016,-17.578,0
1483523504.333,52.734,39.062,48.340,49.316,5.859,0
1483523504.336,49.805,35.156,46.387,50.293,28.320,0
1483523504.340,53.223,40.039,48.340,47.852,11.719,0
1483523504.344,53.711,38.574,48.828,41.504,-21.484,0
1483523504.348,44.922,28.320,39.062,33.203,9.766,0
1483523504.352,42.480,30.273,32.715,38.086,41.504,0
1483523504.356,46.875,33.203,36.133,41.992,11.719,0
1483523504.360,46.875,31.738,40.527,39.551,-16.602,0
1483523504.364,44.922,33.203,43.945,38.574,-15.625,0
1483523504.368,46.875,37.109,43.457,39.062,-7.812,0
1483523504.372,48.340,37.598,42.969,41.016,-18.066,0
1483523504.376,56.641,42.480,47.363,47.363,-32.715,0
1483523504.379,56.641,40.039,45.898,45.410,9.277,0
1483523504.383,47.852,31.738,38.086,36.133,41.504,0
1483523504.387,49.316,30.273,40.039,40.527,33.691,0
1483523504.391,45.410,31.250,43.945,40.527,22.949,0
1483523504.395,33.203,25.391,36.133,30.273,33.691,0
1483523504.399,30.762,22.949,35.156,28.320,48.340,0
1483523504.403,31.250,28.809,41.016,28.809,19.531,0
1483523504.407,31.738,30.762,38.086,24.902,-10.254,0
1483523504.411,29.785,29.297,31.738,25.391,17.090,0
1483523504.415,31.250,31.250,35.645,26.367,17.578,0
1483523504.419,29.297,26.855,36.621,22.949,32.227,0
1483523504.422,27.344,23.438,33.203,16.602,31.250,0
1483523504.426,35.156,28.809,31.738,15.137,26.367,0
1483523504.430,36.621,34.180,30.762,21.973,34.180,0
1483523504.434,28.320,27.832,29.297,19.043,26.855,0
1483523504.438,28.809,23.926,28.809,13.672,34.668,0
1483523504.442,36.621,27.344,33.691,20.508,20.020,0
1483523504.446,38.574,26.855,34.180,27.344,4.395,0
1483523504.450,34.180,25.391,31.250,26.367,-21.973,0
1483523504.454,39.062,27.832,36.621,22.949,17.090,0
1483523504.458,40.039,27.344,42.480,20.996,58.105,0
1483523504.461,37.109,24.414,41.504,21.973,34.668,0
1483523504.465,38.086,23.438,36.621,27.344,21.484,0
1483523504.469,38.574,21.973,33.691,30.273,39.062,0
1483523504.473,39.062,23.438,37.109,31.250,39.551,0
1483523504.477,42.480,29.785,43.945,34.668,49.316,0
1483523504.481,46.875,32.715,40.527,36.621,60.059,0
1483523504.485,40.039,24.414,30.273,29.297,33.691,0
1483523504.489,36.133,21.973,27.832,30.762,41.992,0
1483523504.493,41.016,28.320,37.598,40.527,-1.465,0
1483523504.497,47.363,34.180,43.457,43.945,-31.738,0
1483523504.501,50.293,34.180,38.086,38.574,29.785,0
1483523504.504,55.664,32.715,42.480,41.992,36.133,0
1483523504.508,62.500,36.133,48.340,49.316,1.953,0
1483523504.512,62.012,37.598,42.480,47.852,18.066,0
1483523504.516,62.988,34.180,41.016,49.805,54.199,0
1483523504.520,63.477,31.250,38.574,51.758,51.270,0
1483523504.524,66.406,39.062,41.504,55.176,33.691,0
1483523504.528,59.082,41.016,43.457,52.734,26.855,0
1483523504.532,45.898,36.621,37.598,47.852,35.645,0
1483523504.536,44.922,37.598,37.598,44.434,23.926,0
1483523504.540,42.969,36.621,35.156,44.434,-27.344,0
1483523504.544,39.551,34.180,35.156,45.898,15.137,0
1483523504.547,40.039,38.086,42.480,41.992,67.871,0
1483523504.551,40.039,38.574,43.945,41.992,20.996,0
1483523504.555,44.434,37.598,42.969,45.410,7.324,0
1483523504.559,51.758,43.457,50.293,46.875,41.504,0
1483523504.563,49.316,42.969,50.293,41.016,46.387,0
1483523504.567,43.457,40.527,46.387,36.621,20.508,0
1483523504.571,40.527,35.645,45.410,35.156,-4.395,0
1483523504.575,38.086,32.715,41.992,33.203,24.414,0
1483523504.579,39.062,37.598,41.016,35.156,46.875,0
1483523504.583,36.133,32.227,35.156,32.227,32.227,0
1483523504.586,35.156,31.250,39.062,33.203,28.809,0
1483523504.590,43.945,42.480,53.223,40.039,18.066,0
1483523504.594,43.457,41.504,49.316,32.715,-16.602,0
1483523504.598,30.762,33.203,33.203,18.555,1.953,0
1483523504.602,25.391,30.273,31.738,19.531,17.578,0
1483523504.606,27.832,29.297,35.156,21.484,34.180,0
1483523504.610,35.156,33.203,38.574,21.484,25.879,0
1483523504.614,36.133,33.691,41.504,23.926,3.906,0
1483523504.618,25.879,26.855,39.062,20.996,27.832,0
1483523504.622,29.785,27.344,42.969,27.832,21.973,0
1483523504.626,33.691,25.879,40.039,26.855,20.508,0
1483523504.629,31.738,27.344,41.504,21.973,27.832,0
1483523504.633,36.133,33.203,45.898,23.926,42.969,0
1483523504.637,36.133,33.691,43.457,21.484,50.293,0
1483523504.641,37.109,38.574,43.457,23.438,49.316,0
1483523504.645,39.062,40.039,38.574,21.484,34.668,0
1483523504.649,35.156,34.668,29.297,16.602,21.973,0
1483523504.653,40.039,40.039,28.809,24.902,61.523,0
1483523504.657,46.875,43.457,36.133,33.203,34.668,0
1483523504.661,44.922,40.527,42.969,30.273,-9.277,0
1483523504.665,41.016,41.504,41.992,26.855,21.973,0
1483523504.669,40.039,39.551,37.598,31.250,6.836,0
1483523504.672,41.504,31.738,37.598,35.156,-12.207,0
1483523504.676,38.574,26.367,33.691,24.414,15.625,0
1483523504.680,41.504,28.809,36.133,24.414,19.531,0
1483523504.684,42.480,32.715,42.480,34.668,19.043,0
1483523504.688,36.133,28.320,35.645,26.367,11.230,0
1483523504.692,35.156,26.367,31.738,23.438,14.160,0
1483523504.696,35.156,26.855,34.668,32.227,49.316,0
1483523504.700,38.086,28.320,35.645,32.715,41.016,0
1483523504.704,41.504,28.809,39.551,33.203,40.527,0
1483523504.708,40.527,30.762,43.945,35.645,42.969,0
1483523504.711,42.480,35.645,38.086,38.574,53.711,0
1483523504.715,42.480,35.645,32.715,37.109,33.203,0
1483523504.719,46.387,35.156,31.738,37.598,13.184,0
1483523504.723,56.641,37.109,33.691,47.852,48.828,0
1483523504.727,51.758,36.133,38.574,50.293,51.758,0
1483523504.731,40.527,28.809,34.180,42.480,32.227,0
1483523504.735,38.574,21.484,28.809,40.527,26.855,0
1483523504.739,45.410,21.973,35.645,41.016,14.160,0
1483523504.743,48.828,24.414,41.016,37.109,-7.812,0
1483523504.747,45.898,22.949,40.039,40.039,-17.578,0
1483523504.751,42.969,24.414,36.621,47.363,11.230,0
1483523504.754,49.316,32.715,41.992,56.152,44.922,0
1483523504.758,51.270,32.715,41.992,52.734,17.090,0
1483523504.762,53.223,29.785,38.574,47.852,7.812,0
1483523504.766,54.199,27.344,41.504,43.945,20.996,0
1483523504.770,51.758,21.484,39.062,35.645,30.273,0
1483523504.774,55.176,22.461,39.062,38.574,49.316,0
1483523504.778,54.688,23.926,41.504,40.527,4.395,0
1483523504.782,50.781,18.555,35.645,37.109,-23.926,0
1483523504.786,53.223,19.043,33.691,42.480,3.418,0
1483523504.790,57.129,27.344,43.457,47.852,-3.906,0
1483523504.794,57.617,30.762,52.734,46.875,0.977,0
1483523504.797,50.293,25.879,42.969,39.551,27.344,0
1483523504.801,49.316,28.809,39.551,40.039,37.109,0
1483523504.805,51.758,30.273,43.457,40.527,24.902,0
1483523504.809,47.852,22.461,37.598,31.738,-0.488,0
1483523504.813,47.852,24.414,36.621,35.156,-0.488,0
1483523504.817,44.922,25.391,33.203,33.691,18.555,0
1483523504.821,50.781,33.203,44.434,37.598,-21.484,0
1483523504.825,56.641,36.621,45.410,46.875,-38.086,0
1483523504.829,46.875,24.902,32.715,40.527,29.785,0
1483523504.833,46.387,24.902,37.598,36.621,26.367,0
1483523504.836,54.199,33.691,48.340,45.898,6.836,0
1483523504.840,56.641,38.086,50.293,49.316,28.809,0
1483523504.844,50.293,33.203,39.062,42.969,37.598,0
1483523504.848,42.969,25.391,31.738,40.039,39.551,0
1483523504.852,41.504,25.391,36.621,36.133,35.156,0
1483523504.856,43.945,27.832,41.016,37.598,27.344,0
1483523504.860,41.992,26.367,37.109,38.574,19.531,0
1483523504.864,38.574,30.273,39.062,39.062,28.320,0
1483523504.868,36.621,32.227,38.574,42.480,30.273,0
1483523504.872,41.016,31.738,41.016,39.551,11.230,0
1483523504.876,45.898,34.180,41.504,32.715,35.645,0
1483523504.879,44.922,37.598,38.574,34.180,43.457,0
1483523504.883,46.387,38.574,48.828,42.969,16.113,0
1483523504.887,43.945,33.691,41.016,41.016,51.758,0
1483523504.891,41.992,34.668,31.250,36.621,78.125,0
1483523504.895,40.039,39.551,35.156,35.645,47.363,0
1483523504.899,41.016,37.598,33.691,32.227,12.207,0
1483523504.903,41.016,33.203,28.320,31.250,18.555,0
1483523504.907,37.109,30.762,31.250,27.344,12.207,0
1483523504.911,41.016,32.715,41.016,35.645,-17.578,0
1483523504.915,40.039,32.715,34.668,35.645,-48.828,0
1483523504.919,38.086,34.668,35.645,33.203,-19.531,0
1483523504.922,39.551,39.062,41.016,39.551,8.301,0
1483523504.926,34.668,32.227,30.762,32.715,-7.812,0
1483523504.930,35.156,34.668,30.762,36.621,12.207,0
1483523504.934,34.668,34.180,29.785,33.203,42.969,0
1483523504.938,32.227,32.715,27.344,25.879,39.062,0
1483523504.942,36.133,37.109,29.297,32.227,15.625,0
1483523504.946,34.668,32.227,27.344,30.273,22.949,0
1483523504.950,34.180,29.297,32.715,29.297,33.691,0
1483523504.954,35.645,34.180,35.645,30.273,24.414,0
1483523504.958,35.156,37.598,34.180,29.297,-18.066,0
1483523504.961,38.086,42.969,41.016,34.668,-13.184,0
1483523504.965,42.480,41.016,41.992,37.598,61.523,0
1483523504.969,41.992,34.668,34.180,34.180,62.012,0
1483523504.973,41.016,27.832,27.344,29.785,32.227,0
1483523504.977,48.340,31.250,32.227,34.180,24.902,0
1483523504.981,49.805,34.180,35.156,37.598,30.762,0
1483523504.985,41.504,27.344,28.320,29.297,36.133,0
1483523504.989,42.480,30.273,28.809,26.367,40.527,0
1483523504.993,47.363,37.598,33.691,30.762,34.668,0
1483523504.997,46.387,41.992,32.715,36.621,16.113,0
1483523505.001,46.387,35.645,35.156,34.668,13.672,0
1483523505.004,50.293,31.738,43.945,36.133,-2.930,0
1483523505.008,45.898,38.574,43.457,39.062,9.766,0
1483523505.012,41.016,39.062,38.086,34.180,23.926,0
1483523505.016,41.504,36.621,41.016,34.668,9.277,0
1483523505.020,39.551,39.551,37.598,35.156,26.367,0
1483523505.024,49.316,43.945,40.527,34.668,50.293,0
1483523505.028,53.223,41.504,45.898,35.156,27.832,0
1483523505.032,41.016,32.715,35.645,28.320,23.438,0
1483523505.036,40.527,35.645,39.551,23.438,11.230,0
1483523505.040,42.480,36.133,41.016,21.484,-14.648,0
1483523505.044,39.062,32.715,37.598,19.531,11.719,0
1483523505.047,40.527,36.621,44.434,25.391,5.371,0
1483523505.051,39.551,39.551,42.969,32.715,-13.184,0
1483523505.055,41.016,41.992,35.645,31.250,25.391,0
1483523505.059,44.434,41.016,34.668,26.367,7.324,0
1483523505.063,36.133,35.156,24.414,22.949,-23.438,0
1483523505.067,36.133,37.109,28.809,28.809,-10.742,0
1483523505.071,39.062,40.527,42.480,30.273,20.020,0
1483523505.075,36.621,33.203,34.668,24.414,34.668,0
1483523505.079,36.133,25.391,25.391,26.367,6.836,0
1483523505.083,36.621,28.809,32.227,29.297,-14.648,0
1483523505.086,38.574,34.668,35.645,25.879,29.785,0
1483523505.090,43.945,40.527,42.969,29.297,16.602,0
1483523505.094,43.945,45.410,49.316,32.227,-17.090,0
1483523505.098,33.203,35.156,33.691,25.879,23.438,0
1483523505.102,32.715,33.691,28.320,25.879,41.504,0
1483523505.106,33.203,35.156,27.344,23.438,11.230,0
1483523505.110,33.691,39.551,27.832,25.391,5.371,0
1483523505.114,35.645,39.551,29.785,28.320,24.414,0
1483523505.118,34.668,32.227,23.438,23.438,27.832,0
1483523505.122,35.156,40.527,23.926,23.438,17.090,0
1483523505.126,42.969,42.969,31.738,29.297,9.766,0
1483523505.129,48.828,38.574,35.645,33.691,29.785,0
1483523505.133,41.504,34.180,37.109,26.855,10.254,0
1483523505.137,34.668,30.273,36.133,22.461,-8.789,0
1483523505.141,31.250,29.785,28.809,20.508,-8.789,0
1483523505.145,28.809,24.902,25.391,16.602,-3.906,0
1483523505.149,35.645,28.809,31.250,25.391,0.000,0
1483523505.153,40.527,32.715,32.715,29.785,-30.273,0
1483523505.157,36.133,30.273,33.691,24.902,-20.508,0
1483523505.161,31.738,29.785,35.156,24.414,26.855,0
1483523505.165,29.785,29.785,29.785,27.344,3.418,0
1483523505.169,36.621,33.691,31.738,33.691,9.766,0
1483523505.172,43.457,37.598,35.645,34.180,22.461,0
1483523505.176,41.016,37.598,36.133,31.250,-14.160,0
1483523505.180,37.598,36.133,34.668,31.250,-5.371,0
1483523505.184,36.133,36.621,25.391,35.645,25.879,0
1483523505.188,39.062,39.551,32.227,40.039,9.277,0
1483523505.192,49.805,46.387,51.758,42.969,7.324,0
1483523505.196,42.480,37.598,40.039,39.062,-1.465,0
1483523505.200,29.297,25.391,27.832,30.762,-22.949,0
1483523505.204,36.133,30.273,29.785,27.832,9.277,0
1483523505.208,39.062,26.367,22.949,25.879,33.691,0
1483523505.211,35.645,23.438,25.879,23.438,-1.465,0
1483523505.215,38.086,29.297,35.645,24.902,6.348,0
1483523505.219,41.504,32.715,39.062,32.227,37.598,0
1483523505.223,42.969,38.086,41.016,39.062,10.254,0
1483523505.227,34.668,30.273,30.762,31.738,-6.836,0
1483523505.231,31.250,28.320,25.391,31.738,6.348,0
1483523505.235,35.156,29.297,25.879,30.762,-0.488,0
1483523505.239,34.180,21.973,27.344,24.414,5.371,0
1483523505.243,31.738,30.762,30.762,28.320,-17.090,0
1483523505.247,34.180,36.621,28.809,30.273,-31.738,0
1483523505.251,35.645,29.785,29.785,25.879,-8.301,0
1483523505.254,36.133,25.879,33.203,27.832,10.254,0
1483523505.258,44.922,32.715,35.645,35.645,17.578,0
1483523505.262,47.852,36.621,34.180,35.156,13.184,0
1483523505.266,53.223,42.969,35.645,39.551,41.504,0
1483523505.270,53.711,40.039,31.250,41.504,55.176,0
1483523505.274,42.969,27.832,24.902,38.574,41.992,0
1483523505.278,41.992,28.320,32.715,39.062,37.598,0
1483523505.282,44.922,34.668,41.992,43.945,42.969,0
1483523505.286,47.363,40.039,43.945,49.316,30.273,0
1483523505.290,43.945,32.227,34.668,38.086,-22.461,0
1483523505.294,44.922,29.785,36.621,37.598,-1.953,0
1483523505.297,45.410,32.715,37.109,44.434,41.016,0
1483523505.301,39.551,31.738,36.133,40.039,27.344,0
1483523505.305,42.480,35.156,44.434,41.016,31.250,0
1483523505.309,38.086,33.203,37.109,40.039,34.180,0
1483523505.313,30.273,28.320,29.297,35.645,17.578,2
1483523505.317,36.621,34.668,36.133,40.039,9.277,0
1483523505.321,39.062,33.691,36.621,40.039,3.906,0
1483523505.325,35.156,23.926,36.621,37.109,4.883,0
1483523505.329,37.598,22.949,39.551,43.945,20.508,0
1483523505.333,37.109,23.926,37.598,49.316,-28.320,0
1483523505.336,41.992,26.855,42.480,47.852,-48.340,0
1483523505.340,44.922,30.762,41.016,42.480,9.277,0
1483523505.344,40.039,32.227,31.738,34.180,20.020,0
1483523505.348,41.992,33.691,38.086,39.551,25.391,0
1483523505.352,42.969,33.203,43.457,44.922,38.574,0
1483523505.356,33.691,26.855,31.738,32.715,21.973,0
1483523505.360,35.156,27.344,31.250,31.250,18.066,0
1483523505.364,35.156,26.855,35.156,30.273,36.133,0
1483523505.368,37.598,28.809,40.527,28.320,31.250,0
1483523505.372,45.410,32.715,43.457,34.180,-3.906,0
1483523505.376,46.387,32.227,39.062,36.133,-5.371,0
1483523505.379,50.293,30.762,35.645,36.133,-27.832,0
1483523505.383,50.781,31.738,37.598,32.715,-20.020,0
1483523505.387,49.805,33.691,42.480,32.715,49.805,0
1483523505.391,39.551,24.414,28.809,28.320,23.926,0
1483523505.395,33.691,22.461,17.578,29.785,-14.648,0
1483523505.399,37.109,23.926,26.367,35.645,20.996,0
1483523505.403,40.039,24.902,29.785,36.621,28.320,0
1483523505.407,41.992,31.250,32.715,36.621,9.277,0
1483523505.411,52.246,37.598,45.898,45.898,2.441,0
1483523505.415,50.293,35.645,45.898,50.293,31.250,0
1483523505.419,38.574,24.902,30.762,40.527,30.273,0
1483523505.422,43.457,29.785,31.738,44.434,-11.230,0
1483523505.426,51.270,39.551,39.062,50.293,-15.137,0
1483523505.430,46.387,38.574,34.180,39.062,12.695,0
1483523505.434,42.969,34.180,24.902,35.645,39.551,0
1483523505.438,44.922,30.762,19.043,41.992,18.066,0
1483523505.442,41.992,26.367,24.414,43.457,9.766,0
1483523505.446,45.410,28.809,32.227,45.898,20.996,0
1483523505.450,52.246,36.621,39.062,46.387,26.855,0
1483523505.454,46.875,35.156,40.527,42.480,26.855,0
1483523505.458,41.504,34.180,38.574,42.969,16.602,0
1483523505.461,46.875,36.621,38.086,47.363,34.180,0
1483523505.465,43.457,32.715,34.668,41.504,35.156,0
1483523505.469,38.574,27.832,31.738,35.645,17.578,0
1483523505.473,46.875,34.668,41.016,40.527,41.504,0
1483523505.477,53.711,42.480,49.805,48.340,43.945,0
1483523505.481,49.316,37.598,43.457,43.457,2.441,0
1483523505.485,42.969,28.320,33.691,37.109,-4.883,0
1483523505.489,45.410,24.902,28.809,38.574,16.602,0
1483523505.493,42.480,21.973,30.273,32.715,19.531,0
1483523505.497,46.387,35.645,44.434,40.527,-9.277,0
1483523505.501,50.781,42.480,37.598,45.410,1.953,0
1483523505.504,39.551,25.879,10.742,33.203,16.113,0
1483523505.508,45.898,29.297,16.113,35.156,-9.277,0
1483523505.512,54.688,35.645,27.832,42.480,-16.113,0
1483523505.516,46.875,29.297,21.484,35.156,-21.484,0
1483523505.520,43.945,29.785,17.578,27.832,-35.645,0
1483523505.524,46.387,29.785,20.508,30.273,-10.254,0
1483523505.528,42.480,23.438,14.160,30.762,-34.668,0
1483523505.532,40.527,24.902,19.531,33.691,-51.758,0
1483523505.536,45.410,32.715,35.156,37.109,-37.598,0
1483523505.540,48.828,36.133,38.086,35.156,-57.129,0
1483523505.544,52.246,37.598,46.875,38.574,-38.574,0
1483523505.547,48.340,41.504,47.363,39.062,-13.184,0
1483523505.551,41.504,40.527,38.086,35.156,-12.695,0
1483523505.555,44.922,41.504,36.133,32.715,15.625,0
1483523505.559,43.945,40.527,34.668,32.715,10.254,0
1483523505.563,48.340,40.039,34.180,40.527,-22.461,0
1483523505.567,46.387,40.527,33.691,38.574,-23.926,0
1483523505.571,40.039,45.410,32.715,37.109,-6.836,0
1483523505.575,48.828,50.781,34.180,43.945,-29.297,0
1483523505.579,51.758,46.875,34.668,41.504,-50.781,0
1483523505.583,41.016,37.598,28.809,36.133,16.113,0
1483523505.586,41.504,35.156,33.691,39.551,3.906,0
1483523505.590,43.457,35.156,35.645,41.016,-30.273,0
1483523505.594,41.504,33.203,33.691,39.551,-15.625,0
1483523505.598,44.434,39.062,35.645,41.504,28.320,0
1483523505.602,46.387,42.969,37.598,43.457,14.160,0
1483523505.606,44.922,33.203,35.645,37.109,-15.137,0
1483523505.610,49.805,36.621,33.691,42.480,6.836,0
1483523505.614,43.945,42.480,26.855,42.969,-13.184,0
1483523505.618,33.203,34.668,26.855,34.180,-46.387,0
1483523505.622,40.527,36.133,32.227,41.016,-6.836,0
1483523505.626,37.598,31.250,23.926,38.574,18.066,0
1483523505.629,31.738,30.273,21.973,28.809,-0.488,0
1483523505.633,40.039,35.156,29.785,30.762,23.438,0
1483523505.637,40.039,33.691,34.180,31.250,37.109,0
1483523505.641,40.039,40.039,34.668,30.762,19.531,0
1483523505.645,44.434,45.898,39.551,38.086,27.344,0
1483523505.649,40.527,37.598,37.598,32.715,23.438,0
1483523505.653,38.574,34.180,29.785,25.879,-16.113,0
1483523505.657,42.480,35.645,26.855,21.484,-0.488,0
1483523505.661,48.828,44.922,36.133,24.414,20.020,0
1483523505.665,45.410,47.363,37.109,25.391,-30.273,0
1483523505.669,37.109,40.527,30.762,16.602,-22.949,0
1483523505.672,38.574,42.480,29.297,25.391,13.672,0
1483523505.676,41.992,44.434,34.180,32.715,-5.859,0
1483523505.680,39.062,37.109,36.133,30.273,0.977,0
1483523505.684,36.133,30.762,29.297,27.832,6.836,0
1483523505.688,37.109,33.203,30.762,29.785,34.180,0
1483523505.692,32.715,35.645,31.250,28.320,34.668,0
1483523505.696,28.320,32.227,25.391,30.273,18.066,0
1483523505.700,37.598,38.574,37.109,35.645,30.762,0
1483523505.704,41.992,41.992,40.527,32.715,14.648,0
1483523505.708,36.133,37.109,27.832,24.902,-5.371,0
1483523505.711,38.574,34.180,34.180,28.320,0.488,0
1483523505.715,39.062,31.738,37.598,29.297,29.297,0
1483523505.719,33.203,32.715,32.227,24.902,33.203,0
1483523505.723,32.227,33.691,29.785,25.879,36.133,0
1483523505.727,32.227,35.156,29.297,27.344,20.020,0
1483523505.731,26.855,35.645,25.391,22.949,0.000,0
1483523505.735,30.762,36.621,29.785,27.344,-27.344,0
1483523505.739,37.109,36.133,35.645,31.250,-31.738,0
1483523505.743,37.598,36.133,33.691,33.203,0.977,0
1483523505.747,39.062,37.109,40.527,41.504,-10.254,0
1483523505.751,36.621,32.715,35.645,34.180,-16.113,0
1483523505.754,33.203,27.344,26.367,27.832,1.953,0
1483523505.758,34.180,25.391,29.785,32.715,12.207,0
1483523505.762,36.133,26.855,34.180,32.227,8.301,0
1483523505.766,36.621,29.785,31.738,29.785,-17.090,0
1483523505.770,38.086,28.809,25.391,29.785,-25.391,0
1483523505.774,47.363,36.133,30.762,38.086,28.809,0
1483523505.778,46.387,38.086,28.809,37.109,1.953,0
1483523505.782,44.434,36.133,28.320,34.668,-63.965,0
1483523505.786,47.363,38.574,31.738,33.203,-26.855,0
1483523505.790,46.387,34.668,26.855,31.738,-7.812,0
1483523505.794,42.969,26.367,27.832,31.738,-7.324,0
1483523505.797,38.086,27.344,27.344,24.414,23.438,0
1483523505.801,40.527,32.227,28.809,24.414,38.086,0
1483523505.805,44.922,28.809,29.297,26.855,3.418,0
1483523505.809,46.387,32.715,27.832,29.785,-22.461,0
1483523505.813,39.062,32.227,23.438,27.344,-7.324,3
1483523505.817,35.156,29.785,21.484,25.879,14.160,0
1483523505.821,37.109,29.785,20.508,27.832,12.695,0
1483523505.825,41.992,31.250,25.879,30.762,24.902,0
1483523505.829,50.293,39.551,35.645,38.574,30.273,0
1483523505.833,47.363,39.551,37.598,37.109,6.836,0
1483523505.836,38.086,30.273,31.738,25.879,3.418,0
1483523505.840,40.527,31.250,29.297,31.250,14.648,0
1483523505.844,45.898,35.645,37.598,43.945,26.855,0
1483523505.848,47.852,35.645,36.133,44.434,28.809,0
1483523505.852,42.969,29.785,26.855,30.762,73.242,0
1483523505.856,43.945,30.762,29.297,27.832,70.312,0
1483523505.860,43.457,31.250,31.250,35.156,31.250,0
1483523505.864,43.457,31.738,27.832,36.133,20.020,0
1483523505.868,43.945,33.691,26.855,35.645,24.902,0
1483523505.872,45.898,34.180,32.715,39.062,47.852,0
1483523505.876,50.293,36.133,36.133,41.016,-18.066,0
1483523505.879,41.504,32.715,29.297,32.227,-30.762,0
1483523505.883,41.016,39.551,32.227,32.715,33.203,0
1483523505.887,45.898,41.992,35.645,37.598,1.953,0
1483523505.891,39.551,34.180,35.156,33.691,-8.301,0
1483523505.895,34.668,30.762,34.180,28.320,76.172,0
1483523505.899,37.598,33.203,32.715,32.715,46.875,0
1483523505.903,37.109,36.133,39.062,36.621,-19.531,0
1483523505.907,37.109,39.062,40.039,31.738,-0.488,0
1483523505.911,33.203,39.062,33.691,23.438,16.113,0
1483523505.915,28.809,35.156,31.738,22.461,-23.926,0
1483523505.919,34.180,36.133,32.715,25.391,-29.297,0
1483523505.922,45.898,46.387,43.457,32.227,-33.691,0
1483523505.926,40.527,40.039,45.410,32.715,-62.500,0
1483523505.930,26.855,26.855,31.738,20.020,-51.270,0
1483523505.934,29.297,30.273,31.738,22.461,54.688,0
1483523505.938,34.180,33.691,34.668,31.738,45.410,0
1483523505.942,38.086,36.621,34.180,31.738,-0.488,0
1483523505.946,38.574,33.691,37.109,32.227,23.438,0
1483523505.950,37.109,30.273,38.574,37.598,-3.906,0
1483523505.954,39.062,33.203,45.410,41.992,12.207,0
1483523505.958,42.480,37.598,42.969,41.504,10.254,0
1483523505.961,39.551,36.621,35.156,39.551,36.621,0
1483523505.965,40.039,33.203,35.645,40.527,50.781,0
1483523505.969,39.062,33.203,31.738,39.062,39.062,0
1483523505.973,41.992,35.645,33.691,42.969,-23.926,0
1483523505.977,47.852,31.738,31.738,45.410,-44.922,0
1483523505.981,42.969,29.297,26.367,44.434,-7.812,0
1483523505.985,42.969,27.832,31.250,47.852,12.207,0
1483523505.989,47.852,22.461,30.762,47.363,-0.488,0
1483523505.993,51.758,27.832,32.715,51.758,-11.719,0
1483523505.997,57.129,34.668,44.922,59.082,-25.879,0
1483523506.001,53.223,29.785,45.898,52.246,-43.945,0
1483523506.004,49.316,27.344,44.922,44.922,-11.719,0
1483523506.008,54.199,31.250,47.852,45.898,-8.789,0
1483523506.012,51.270,28.320,44.922,47.363,-17.090,0
1483523506.016,46.387,24.414,44.922,47.363,-3.418,0
1483523506.020,45.410,26.367,48.828,45.898,-22.461,0
1483523506.024,46.875,31.738,51.758,49.316,-32.227,0
1483523506.028,41.504,26.855,46.875,47.363,-48.340,0
1483523506.032,36.621,24.414,41.504,42.969,-16.113,0
1483523506.036,38.086,26.855,36.133,40.527,18.555,0
1483523506.040,35.645,24.902,41.992,36.133,-6.836,0
1483523506.044,39.062,30.273,46.387,34.180,-29.297,0
1483523506.047,43.457,36.133,46.387,37.598,-33.203,0
1483523506.051,46.875,41.504,51.758,42.480,1.465,0
1483523506.055,47.852,40.527,43.945,40.039,7.812,0
1483523506.059,50.781,36.621,41.504,41.016,-36.621,0
1483523506.063,48.340,32.715,51.758,44.434,-65.918,0
1483523506.067,44.434,31.738,49.805,45.898,-41.992,0
1483523506.071,47.852,36.621,45.410,47.852,29.785,0
1483523506.075,48.340,40.039,48.340,49.805,47.852,0
1483523506.079,41.504,34.668,43.945,43.945,-7.812,0
1483523506.083,36.621,28.320,38.574,41.504,-31.738,0
1483523506.086,36.621,27.832,39.551,43.945,-13.184,0
1483523506.090,39.551,30.762,46.875,47.852,25.879,0
1483523506.094,42.969,32.227,51.758,49.805,38.086,0
1483523506.098,38.574,29.297,48.828,49.316,-13.672,0
1483523506.102,36.621,28.320,50.781,52.734,-30.762,0
1483523506.106,39.062,26.367,52.246,57.129,-23.926,0
1483523506.110,41.016,23.438,44.434,55.664,-25.879,0
1483523506.114,49.316,31.250,45.898,56.641,3.418,0
1483523506.118,55.176,37.598,50.293,59.570,30.273,0
1483523506.122,45.898,26.855,41.504,53.711,15.625,0
1483523506.126,42.969,20.996,37.598,49.316,-37.109,0
1483523506.129,45.898,26.855,44.434,52.734,-80.078,0
1483523506.133,43.945,28.809,47.852,52.734,1.953,0
1483523506.137,48.340,28.809,49.805,55.664,65.430,0
1483523506.141,54.199,34.180,51.758,61.035,50.293,0
1483523506.145,51.758,31.738,48.340,56.152,56.641,0
1483523506.149,51.758,28.320,42.969,54.688,-10.254,0
1483523506.153,53.223,36.133,41.016,54.688,-41.992,0
1483523506.157,55.176,38.574,40.039,56.152,-29.785,0
1483523506.161,54.199,31.250,34.180,58.594,-37.109,0
1483523506.165,55.176,28.320,38.086,59.082,-1.465,0
1483523506.169,61.523,32.227,44.922,66.895,25.879,0
1483523506.172,58.105,25.391,37.109,65.430,49.316,0
1483523506.176,52.246,20.020,33.691,59.570,40.527,0
1483523506.180,52.734,23.926,41.504,58.105,33.691,0
1483523506.184,51.270,23.926,45.898,55.176,24.902,0
1483523506.188,54.688,26.367,48.340,55.176,4.883,0
1483523506.192,60.547,28.320,50.293,57.129,1.953,0
1483523506.196,56.152,23.926,47.363,58.105,41.504,0
1483523506.200,51.270,17.090,43.457,54.688,41.992,0
1483523506.204,52.734,17.578,45.410,62.012,9.277,0
1483523506.208,57.129,22.461,48.340,65.918,19.531,0
1483523506.211,58.105,25.879,46.875,62.988,33.691,0
1483523506.215,54.199,24.902,44.434,57.129,-3.906,0
1483523506.219,59.570,32.715,47.363,52.734,-13.184,0
1483523506.223,62.012,37.598,44.922,55.176,-3.418,0
1483523506.227,55.176,31.250,38.086,51.758,-23.438,0
1483523506.231,53.711,32.715,43.457,52.734,-14.160,0
1483523506.235,54.688,32.715,44.922,58.105,0.488,0
1483523506.239,54.688,30.273,41.504,54.688,9.766,0
1483523506.243,57.617,33.691,39.551,53.711,20.020,0
1483523506.247,57.129,36.621,41.016,58.594,-8.789,0
1483523506.251,51.758,36.621,45.410,60.059,-32.715,0
1483523506.254,50.781,38.086,41.992,59.570,-6.348,0
1483523506.258,53.223,37.598,38.086,56.641,26.855,0
1483523506.262,51.270,35.156,36.133,50.781,19.531,0
1483523506.266,51.758,37.109,37.109,50.293,7.812,0
1483523506.270,49.316,37.109,34.668,48.340,12.207,0
1483523506.274,48.828,38.086,34.668,48.340,25.879,0
1483523506.278,49.805,40.039,38.574,50.293,-19.043,0
1483523506.282,39.551,32.227,31.250,42.480,36.621,0
1483523506.286,38.086,31.738,35.156,44.922,64.941,0
1483523506.290,43.457,34.180,41.504,49.805,24.414,0
1483523506.294,42.969,34.180,38.574,49.316,23.926,0
1483523506.297,41.992,34.180,36.133,51.270,-9.766,0
1483523506.301,45.410,39.062,42.480,61.035,-11.719,0
1483523506.305,46.875,39.551,44.922,65.918,-22.949,0
1483523506.309,43.457,38.086,40.527,59.082,18.066,0
1483523506.313,41.992,45.898,39.062,52.246,19.043,0
1483523506.317,37.598,48.340,38.574,53.223,-36.621,4
1483523506.321,41.504,46.875,41.016,57.617,6.836,0
1483523506.325,46.875,46.875,39.062,58.105,-0.977,0
1483523506.329,38.574,39.551,28.320,45.410,-23.926,0
1483523506.333,41.992,40.527,36.133,44.922,3.906,0
1483523506.336,41.992,42.480,43.457,44.922,0.977,0
1483523506.340,34.180,38.574,38.574,38.574,16.113,0
1483523506.344,33.691,41.016,40.039,45.410,44.922,0
1483523506.348,38.086,47.363,44.434,54.199,36.621,0
1483523506.352,41.504,49.805,46.875,58.105,-17.090,0
1483523506.356,41.504,46.875,48.340,59.082,-3.418,0
1483523506.360,43.457,50.781,51.270,67.383,53.711,0
1483523506.364,35.645,45.898,36.621,67.383,14.648,0
1483523506.368,36.621,47.363,38.086,69.824,40.039,0
1483523506.372,42.480,50.781,52.246,76.172,14.160,0
1483523506.376,36.133,39.062,45.410,72.754,-3.906,0
1483523506.379,35.645,37.598,42.969,73.242,-30.273,0
1483523506.383,34.180,44.922,44.434,74.219,-5.859,0
1483523506.387,37.598,48.340,41.992,74.707,69.336,0
1483523506.391,39.551,41.992,38.574,69.824,12.207,0
1483523506.395,38.574,40.039,37.109,62.988,1.465,0
1483523506.399,45.410,42.480,45.410,64.941,28.809,0
1483523506.403,41.992,37.109,42.480,60.059,-44.434,0
1483523506.407,38.086,30.762,28.320,57.129,-41.504,0
1483523506.411,41.016,23.926,27.832,54.199,16.113,0
1483523506.415,41.016,33.691,39.062,50.781,-19.531,0
1483523506.419,42.969,46.387,44.922,54.199,-8.301,0
1483523506.422,44.434,40.039,46.387,51.758,10.254,0
1483523506.426,42.480,34.180,39.551,43.457,39.551,0
1483523506.430,46.875,42.969,38.574,53.223,37.598,0
1483523506.434,44.434,39.062,37.109,53.223,-20.508,0
1483523506.438,34.180,20.020,33.691,41.504,-9.277,0
1483523506.442,35.156,24.414,42.480,50.781,-10.254,0
1483523506.446,39.551,40.527,41.992,60.059,16.602,0
1483523506.450,38.574,38.574,24.414,52.734,44.922,0
1483523506.454,35.156,34.668,14.160,41.504,38.574,0
1483523506.458,35.645,36.621,25.879,41.504,7.812,0
1483523506.461,36.133,37.109,36.621,46.875,0.000,0
1483523506.465,45.410,45.898,44.434,55.176,-31.250,0
1483523506.469,41.992,41.504,38.574,44.922,5.859,0
1483523506.473,32.715,31.250,27.344,26.367,65.430,0
1483523506.477,37.598,34.668,31.250,26.855,14.160,0
1483523506.481,44.434,39.551,37.598,36.621,0.977,0
1483523506.485,47.852,42.969,38.574,44.434,43.457,0
1483523506.489,49.316,40.039,32.715,36.133,38.574,0
1483523506.493,58.105,43.945,32.715,31.738,-37.598,0
1483523506.497,66.406,50.293,40.039,40.039,-65.430,0
1483523506.501,65.918,47.852,42.480,44.922,-53.711,0
1483523506.504,60.547,45.410,37.598,41.992,-7.324,0
1483523506.508,56.152,39.062,29.785,35.645,41.016,0
1483523506.512,57.129,39.062,35.645,39.062,2.441,0
1483523506.516,64.453,40.039,50.293,41.016,7.324,0
1483523506.520,72.266,43.457,55.176,44.922,28.320,0
1483523506.524,69.824,44.434,48.828,42.969,39.551,0
1483523506.528,68.359,41.016,43.945,40.039,68.848,0
1483523506.532,68.848,42.480,43.457,41.016,38.086,0
1483523506.536,64.453,41.504,41.016,36.133,19.043,0
1483523506.540,62.988,39.551,39.062,30.273,42.480,0
1483523506.544,66.406,45.898,41.016,37.598,16.602,0
1483523506.547,62.012,44.434,36.621,34.180,-36.621,0
1483523506.551,59.570,39.062,34.668,28.320,-34.180,0
1483523506.555,56.641,41.504,41.504,27.832,17.090,0
1483523506.559,52.246,47.852,49.316,25.879,54.199,0
1483523506.563,48.828,46.387,43.457,22.949,-19.531,0
1483523506.567,44.434,37.598,37.598,16.602,-12.207,0
1483523506.571,47.363,38.574,37.109,19.531,40.039,0
1483523506.575,51.270,40.039,39.551,30.273,16.602,0
1483523506.579,49.805,34.668,42.969,32.715,-24.414,0
1483523506.583,42.969,28.320,34.180,24.902,-4.395,0
1483523506.586,48.828,30.762,34.668,25.879,40.527,0
1483523506.590,56.641,36.133,43.457,33.691,45.410,0
1483523506.594,52.246,35.156,40.039,33.203,67.871,0
1483523506.598,48.340,30.273,34.668,27.832,53.711,0
1483523506.602,48.828,33.203,33.203,26.367,14.648,0
1483523506.606,51.270,34.180,35.156,29.297,11.719,0
1483523506.610,53.223,35.645,41.504,29.785,52.246,0
1483523506.614,48.828,36.133,43.945,26.367,15.625,0
1483523506.618,53.223,39.551,50.293,33.203,-21.973,0
1483523506.622,55.664,41.016,50.781,34.180,9.766,0
1483523506.626,48.828,34.180,41.504,31.250,44.434,0
1483523506.629,48.340,35.645,44.922,37.598,17.090,0
1483523506.633,51.758,34.668,51.270,41.016,-29.785,0
1483523506.637,52.734,28.320,49.805,38.574,-38.086,0
1483523506.641,53.711,30.273,49.316,38.574,-25.391,0
1483523506.645,54.688,33.691,53.711,40.039,-38.574,0
1483523506.649,52.246,27.344,48.828,39.062,9.766,0
1483523506.653,53.711,26.855,44.434,48.828,3.906,0
1483523506.657,63.477,38.086,58.105,60.059,-31.250,0
1483523506.661,64.453,36.621,53.223,57.129,-19.531,0
1483523506.665,54.688,24.414,38.086,47.363,-25.879,0
1483523506.669,55.176,29.297,42.480,52.246,-61.035,0
1483523506.672,62.500,40.039,48.340,58.105,-11.230,0
1483523506.676,62.500,37.109,47.852,55.176,50.293,0
1483523506.680,58.594,30.762,45.898,58.594,44.922,0
1483523506.684,59.570,33.203,44.922,63.477,60.547,0
1483523506.688,62.500,41.016,46.875,62.988,38.086,0
1483523506.692,64.941,46.875,41.016,61.035,41.016,0
1483523506.696,60.059,42.969,38.086,54.199,-17.090,0
1483523506.700,50.293,33.203,40.039,48.828,16.602,0
1483523506.704,51.270,27.344,34.180,47.363,1.953,0
1483523506.708,56.641,36.133,31.738,51.270,-26.855,0
1483523506.711,62.012,46.387,39.551,62.500,46.875,0
1483523506.715,63.965,39.551,45.898,64.453,34.668,0
1483523506.719,71.777,38.574,52.246,71.289,5.371,0
1483523506.723,82.520,42.969,56.152,77.148,-13.184,0
1483523506.727,79.102,39.551,42.480,69.336,9.766,0
1483523506.731,78.125,40.527,38.086,69.336,34.668,0
1483523506.735,83.984,41.504,48.340,70.312,6.836,0
1483523506.739,73.730,33.203,41.992,61.035,13.672,0
1483523506.743,70.801,30.762,40.039,62.988,59.570,0
1483523506.747,73.730,35.156,43.945,69.824,14.160,0
1483523506.751,69.336,36.621,41.992,66.895,-31.250,0
1483523506.754,69.824,43.457,46.387,66.895,7.324,0
1483523506.758,69.824,50.781,57.129,65.430,16.113,0
1483523506.762,62.500,42.480,53.223,62.988,-14.648,0
1483523506.766,61.523,37.109,51.270,65.918,12.207,0
1483523506.770,64.453,40.039,55.664,65.918,49.805,0
1483523506.774,56.152,33.691,51.270,60.059,20.020,0
1483523506.778,49.805,24.902,45.410,56.641,-30.762,0
1483523506.782,53.223,25.391,41.992,56.152,-59.570,0
1483523506.786,54.199,22.949,44.434,54.199,-37.598,0
1483523506.790,58.105,22.949,54.688,62.012,16.602,0
1483523506.794,63.477,27.832,62.500,71.777,24.902,0
1483523506.797,61.035,21.973,55.176,64.453,-9.766,0
1483523506.801,59.570,20.508,53.711,62.500,-2.441,0
1483523506.805,62.500,28.320,61.523,67.871,30.273,0
1483523506.809,62.500,29.785,59.082,66.895,61.523,0
1483523506.813,55.176,20.996,47.852,56.641,54.199,0
1483523506.817,53.711,23.438,49.316,57.129,30.762,5
1483523506.821,58.105,28.809,53.223,57.617,-6.836,0
1483523506.825,60.059,30.762,51.758,54.688,-38.086,0
1483523506.829,60.059,29.785,49.805,59.082,-31.738,0
1483523506.833,59.570,25.879,49.805,60.547,-12.695,0
1483523506.836,59.570,25.879,52.734,56.152,19.531,0
1483523506.840,61.523,28.809,48.340,55.664,-6.836,0
1483523506.844,60.059,22.949,45.410,56.641,-48.828,0
1483523506.848,61.035,25.391,57.129,61.523,-39.551,0
1483523506.852,58.594,22.949,52.246,56.641,26.367,0
1483523506.856,60.547,20.996,45.898,54.688,32.227,0
1483523506.860,64.453,25.391,45.898,60.059,11.230,0
1483523506.864,60.059,20.996,40.527,57.129,0.000,0
1483523506.868,53.223,17.578,40.039,53.711,-14.648,0
1483523506.872,51.758,17.090,43.457,51.270,-41.992,0
1483523506.876,51.270,16.602,41.504,47.363,-0.977,0
1483523506.879,48.828,19.531,40.527,43.945,60.059,0
1483523506.883,44.434,15.625,34.668,39.062,30.273,0
1483523506.887,50.293,16.113,38.086,48.828,37.109,0
1483523506.891,53.711,15.137,48.340,52.246,-7.324,0
1483523506.895,44.434,-0.977,44.434,40.039,-36.133,0
1483523506.899,45.410,0.977,41.504,41.016,17.578,0
1483523506.903,48.828,8.301,45.410,46.387,5.859,0
1483523506.907,48.828,9.277,42.480,41.992,-9.277,0
1483523506.911,50.293,14.160,42.969,40.527,25.391,0
1483523506.915,55.664,15.625,51.270,47.363,9.766,0
1483523506.919,53.223,13.184,48.828,47.852,-20.508,0
1483523506.922,51.270,13.184,41.992,45.410,41.016,0
1483523506.926,53.711,15.137,39.062,45.898,106.445,0
1483523506.930,56.152,14.648,39.062,52.734,73.730,0
1483523506.934,56.641,13.672,40.039,52.734,34.180,0
1483523506.938,47.363,9.766,39.551,42.480,27.344,0
1483523506.942,43.457,9.277,34.180,38.574,-11.230,0
1483523506.946,42.969,12.207,34.180,42.480,22.461,0
1483523506.950,43.945,15.625,41.016,41.504,57.129,0
1483523506.954,43.945,17.090,41.504,37.109,14.648,0
1483523506.958,40.527,23.438,46.875,41.016,-14.648,0
1483523506.961,42.969,32.715,51.758,41.992,-52.246,0
1483523506.965,39.551,20.020,41.504,32.227,-16.113,0
1483523506.969,33.203,14.160,37.598,29.297,18.555,0
1483523506.973,32.227,18.066,35.156,32.227,9.277,0
1483523506.977,31.250,16.602,32.715,33.203,26.367,0
1483523506.981,34.668,22.949,35.156,36.133,52.734,0
1483523506.985,37.109,24.902,34.180,40.039,5.371,0
1483523506.989,35.156,21.484,39.062,38.086,-2.441,0
1483523506.993,42.480,28.809,48.828,42.480,30.273,0
1483523506.997,52.246,43.945,48.340,54.199,30.762,0
1483523507.001,46.387,39.062,37.598,53.711,68.359,0
1483523507.004,42.480,32.715,36.133,49.805,11.230,0
1483523507.008,44.922,35.645,39.062,52.246,-41.016,0
1483523507.012,52.734,40.527,37.598,57.617,-11.230,0
1483523507.016,49.805,37.109,32.715,51.758,-17.578,0
1483523507.020,38.086,24.414,30.762,35.645,-18.555,0
1483523507.024,44.434,32.227,33.691,37.109,-38.086,0
1483523507.028,47.363,38.086,42.969,44.922,-0.488,0
1483523507.032,31.738,27.344,41.016,37.598,12.207,0
1483523507.036,27.344,23.438,35.156,30.762,-20.508,0
1483523507.040,30.762,24.414,39.062,28.809,-13.184,0
1483523507.044,32.715,29.297,33.691,32.227,35.156,0
1483523507.047,42.480,36.621,27.832,44.434,-31.738,0
1483523507.051,34.180,30.762,26.367,42.480,-73.730,0
1483523507.055,28.320,26.855,27.344,40.039,-57.129,0
1483523507.059,36.621,34.180,38.574,45.410,-14.648,0
1483523507.063,30.762,21.973,32.715,37.109,16.113,0
1483523507.067,32.715,21.484,30.273,36.133,-47.852,0
1483523507.071,40.039,26.367,39.062,43.945,-20.508,0
1483523507.075,41.016,20.996,39.062,43.945,52.734,0
1483523507.079,41.504,21.973,41.992,44.434,22.949,0
1483523507.083,41.504,25.391,41.504,41.504,0.488,0
1483523507.086,43.945,34.180,45.410,43.457,-10.742,0
1483523507.090,42.969,34.668,46.387,47.363,-24.414,0
1483523507.094,41.992,31.738,41.992,45.410,-17.578,0
1483523507.098,36.621,34.668,36.621,44.922,15.137,0
1483523507.102,32.715,35.156,30.273,35.645,19.531,0
1483523507.106,40.039,40.039,43.457,36.133,-16.113,0
1483523507.110,39.062,37.109,45.410,34.180,22.949,0
1483523507.114,34.180,29.785,35.645,28.809,50.293,0
1483523507.118,36.621,29.297,26.855,36.621,36.621,0
1483523507.122,42.969,32.715,18.555,46.875,19.531,0
1483523507.126,56.152,43.457,36.133,57.617,52.246,0
1483523507.129,58.105,41.992,52.246,57.617,44.922,0
1483523507.133,46.875,29.785,42.969,47.852,0.000,0
1483523507.137,43.457,27.344,38.086,47.363,-2.441,0
1483523507.141,46.875,32.227,43.945,54.199,-23.438,0
1483523507.145,49.316,27.344,41.504,57.617,-9.766,0
1483523507.149,48.340,22.949,33.203,51.758,4.395,0
1483523507.153,50.781,27.344,38.086,49.316,-33.203,0
1483523507.157,50.293,32.227,45.898,48.340,-16.602,0
1483523507.161,44.922,33.691,43.945,48.340,-25.391,0
1483523507.165,35.645,25.391,33.203,41.016,-61.523,0
1483523507.169,40.039,29.785,38.086,34.668,-28.320,0
1483523507.172,41.504,26.855,32.715,35.645,-27.344,0
1483523507.176,37.598,19.043,30.762,37.598,-40.527,0
1483523507.180,43.945,25.879,39.551,49.805,-17.578,0
1483523507.184,41.992,23.926,36.133,50.781,-31.250,0
1483523507.188,39.062,24.414,36.621,45.410,-6.836,0
1483523507.192,43.945,31.250,35.156,50.781,10.254,0
1483523507.196,49.316,32.715,36.621,58.105,-23.438,0
1483523507.200,53.711,31.250,46.875,59.082,-53.711,0
1483523507.204,54.688,35.645,56.641,60.547,-47.852,0
1483523507.208,49.316,31.250,41.992,54.688,-41.992,0
1483523507.211,45.898,25.391,26.367,48.828,-11.719,0
1483523507.215,44.434,24.902,35.645,52.246,6.348,0
1483523507.219,42.480,22.949,35.156,57.129,47.363,0
1483523507.223,49.316,30.273,37.598,67.383,16.602,0
1483523507.227,48.340,32.715,43.945,66.895,-62.988,0
1483523507.231,39.062,28.809,40.527,56.152,-13.672,0
1483523507.235,34.180,30.273,38.086,53.223,61.523,0
1483523507.239,29.297,29.785,30.273,49.316,9.277,0
1483523507.243,37.598,39.551,30.762,49.805,-38.574,0
1483523507.247,45.410,46.875,32.715,56.152,-32.715,0
1483523507.251,33.691,36.621,22.461,50.293,-33.203,0
1483523507.254,30.273,30.273,30.273,45.898,0.000,0
1483523507.258,41.992,35.156,44.434,49.805,33.203,0
1483523507.262,44.922,30.273,42.480,44.434,3.906,0
1483523507.266,41.016,20.996,33.203,38.574,3.906,0
1483523507.270,38.574,20.508,25.391,34.668,29.785,0
1483523507.274,40.039,22.949,23.926,33.691,59.082,0
1483523507.278,41.504,27.832,26.855,36.621,41.992,0
1483523507.282,40.039,28.809,28.320,33.691,-8.301,0
1483523507.286,38.574,26.855,25.391,37.598,18.555,0
1483523507.290,40.527,32.227,29.297,53.711,4.395,0
1483523507.294,38.574,32.715,28.809,53.711,-30.273,0
1483523507.297,33.203,30.762,18.066,46.875,0.977,0
1483523507.301,31.738,29.785,23.926,41.504,-22.949,0
1483523507.305,33.203,27.832,39.062,38.574,-55.176,0
1483523507.309,36.133,30.762,37.598,38.086,-7.812,0
1483523507.313,37.598,28.809,29.297,36.621,-8.301,0
1483523507.317,39.062,24.902,26.855,42.480,-2.441,0
1483523507.321,46.387,28.320,28.809,51.270,-24.414,0
1483523507.325,41.016,26.367,25.391,48.340,-54.199,0
1483523507.329,34.180,21.484,25.391,45.410,-31.738,0
1483523507.333,34.668,21.973,30.273,45.410,31.250,0
1483523507.336,35.156,25.879,33.691,50.293,32.715,0
1483523507.340,33.203,28.809,34.668,53.711,20.996,0
1483523507.344,33.203,30.273,28.809,54.199,-4.883,0
1483523507.348,36.621,27.344,21.973,48.340,-60.059,0
1483523507.352,34.180,23.438,25.391,39.062,-35.156,0
1483523507.356,31.738,23.926,32.227,39.551,-32.715,0
1483523507.360,35.645,28.809,41.016,46.387,33.203,0
1483523507.364,33.691,21.973,20.508,41.992,34.180,0
1483523507.368,31.250,20.996,20.020,44.922,-12.695,0
1483523507.372,34.180,25.391,33.203,51.758,-35.156,0
1483523507.376,34.668,21.973,11.719,45.410,-49.805,0
1483523507.379,33.203,19.531,9.766,37.109,-28.809,0
1483523507.383,36.133,21.484,33.691,32.715,11.230,0
1483523507.387,34.668,20.020,41.992,32.227,72.754,0
1483523507.391,42.480,25.879,44.434,46.387,76.172,0
1483523507.395,45.410,29.785,41.016,50.781,42.969,0
1483523507.399,34.668,21.484,26.367,41.504,11.230,0
1483523507.403,32.227,16.113,26.367,41.504,2.441,0
1483523507.407,30.273,15.625,31.738,41.992,-34.668,0
1483523507.411,24.902,19.531,30.762,51.758,-39.062,0
1483523507.415,24.902,23.438,31.250,58.594,-3.906,0
1483523507.419,32.227,32.715,36.133,59.570,-18.555,0
1483523507.422,36.133,38.086,45.898,61.523,-2.441,0
1483523507.426,33.691,32.715,33.691,55.664,-40.527,0
1483523507.430,30.762,28.320,22.949,51.270,-21.484,0
1483523507.434,27.832,25.879,28.809,48.828,31.250,0
1483523507.438,25.879,21.973,33.203,48.340,-14.648,0
1483523507.442,29.297,25.391,36.621,53.223,-54.199,0
1483523507.446,27.832,34.180,38.574,58.105,-37.109,0
1483523507.450,24.414,35.645,35.156,60.059,-26.855,0
1483523507.454,31.250,35.156,31.250,68.359,-6.348,0
1483523507.458,32.715,27.832,37.598,64.453,14.648,0
1483523507.461,22.461,19.531,39.551,50.293,22.461,0
1483523507.465,20.996,21.484,36.621,52.734,19.531,0
1483523507.469,27.832,22.949,30.273,54.199,38.086,0
1483523507.473,35.645,26.855,30.762,60.059,15.137,0
1483523507.477,40.039,31.738,41.016,70.312,-54.199,0
1483523507.481,38.086,30.273,41.016,71.777,-67.383,0
1483523507.485,42.480,34.180,40.527,78.613,-14.160,0
1483523507.489,49.805,41.992,45.898,93.262,2.930,0
1483523507.493,45.410,35.156,37.598,92.285,1.953,0
1483523507.497,40.039,28.809,35.156,83.984,34.668,0
1483523507.501,46.875,33.691,24.902,84.961,-1.465,0
1483523507.504,50.781,34.668,22.461,87.891,-41.992,0
1483523507.508,45.898,30.762,46.875,88.867,-28.320,0
1483523507.512,47.852,34.668,53.223,92.773,3.418,0
1483523507.516,43.457,36.133,47.852,92.285,3.906,0
1483523507.520,39.551,29.785,33.691,92.285,12.695,0
1483523507.524,41.992,29.785,9.766,97.168,22.949,0
1483523507.528,34.180,25.879,1.465,87.891,18.555,0
1483523507.532,33.203,20.996,17.578,79.102,56.152,0
1483523507.536,39.062,26.855,37.109,79.590,17.090,0
1483523507.540,37.109,27.344,42.969,80.078,-19.531,0
1483523507.544,38.086,28.320,34.180,80.566,-5.859,0
1483523507.547,47.363,39.062,42.969,84.961,-35.156,0
1483523507.551,44.922,38.086,52.734,86.426,-51.270,0
1483523507.555,38.574,35.645,37.598,86.914,-19.531,0
1483523507.559,38.086,38.574,24.902,90.332,49.805,0
1483523507.563,30.273,31.738,22.461,78.125,45.898,0
1483523507.567,30.762,25.879,26.855,67.871,-32.227,0
1483523507.571,36.621,27.832,36.133,69.336,-18.555,0
1483523507.575,37.109,30.762,38.574,68.848,-14.160,0
1483523507.579,33.691,29.785,32.715,71.777,-68.848,0
1483523507.583,32.715,32.227,24.414,79.590,-1.465,0
1483523507.586,35.645,40.039,29.297,84.473,23.926,0
1483523507.590,28.320,41.016,35.156,80.078,23.438,0
1483523507.594,24.902,42.480,34.668,76.660,58.594,0
1483523507.598,24.414,33.691,38.574,70.801,20.020,0
1483523507.602,19.531,24.902,36.133,63.965,13.184,0
1483523507.606,30.762,28.809,26.367,64.941,62.988,0
1483523507.610,42.969,29.297,21.484,65.918,32.715,0
1483523507.614,45.898,32.227,26.367,70.312,-12.695,0
1483523507.618,55.176,40.039,40.527,81.543,17.090,0
1483523507.622,53.223,35.645,49.316,79.590,-0.977,0
1483523507.626,50.781,31.738,52.246,70.801,-6.836,0
1483523507.629,55.176,38.086,51.270,71.777,30.762,0
1483523507.633,47.363,34.668,41.504,65.430,-1.465,0
1483523507.637,39.551,28.320,40.527,56.641,2.930,0
1483523507.641,39.551,28.809,41.504,58.594,-5.371,0
1483523507.645,46.875,35.156,48.828,62.500,12.695,0
1483523507.649,45.898,34.668,49.316,62.500,36.621,0
1483523507.653,41.016,26.367,38.574,58.105,12.207,0
1483523507.657,35.156,20.508,25.391,53.223,78.613,0
1483523507.661,34.668,24.414,33.203,57.617,78.613,0
1483523507.665,38.086,28.809,47.363,60.547,43.945,0
1483523507.669,32.227,24.414,35.156,55.664,15.625,0
1483523507.672,27.832,17.090,30.273,53.223,-20.508,0
1483523507.676,24.902,12.695,48.828,57.129,26.367,0
1483523507.680,23.926,14.160,47.852,59.570,49.805,0
1483523507.684,25.391,19.043,35.645,67.871,28.320,0
1483523507.688,28.809,24.902,50.781,71.289,44.922,0
1483523507.692,26.367,20.996,50.781,59.570,48.828,0
1483523507.696,23.438,17.090,30.273,54.688,-5.371,0
1483523507.700,27.832,21.484,27.344,62.988,14.648,0
1483523507.704,26.367,18.555,27.344,58.105,41.016,0
1483523507.708,24.902,13.184,43.945,52.246,15.625,0
1483523507.711,28.320,18.066,51.270,56.152,36.621,0
1483523507.715,27.832,18.555,34.180,53.711,57.129,0
1483523507.719,28.809,19.043,23.438,52.734,57.617,0
1483523507.723,29.785,20.508,27.344,52.734,54.688,0
1483523507.727,25.391,19.043,32.227,45.898,79.590,0
1483523507.731,32.227,28.320,39.551,48.828,47.363,0
1483523507.735,36.621,26.855,33.203,54.688,17.578,0
1483523507.739,26.855,13.184,10.742,43.945,6.836,0
1483523507.743,29.297,14.648,25.391,45.898,26.855,0
1483523507.747,40.527,15.137,43.945,58.105,63.965,0
1483523507.751,40.527,1.953,38.574,55.664,93.262,0
1483523507.754,31.738,-8.301,36.621,47.852,80.566,0
1483523507.758,32.715,-3.906,39.551,54.199,57.617,0
1483523507.762,38.574,-2.930,27.832,56.641,53.711,0
1483523507.766,43.457,0.977,26.855,53.223,95.703,0
1483523507.770,39.062,4.395,29.785,52.246,123.535,0
1483523507.774,32.715,3.418,27.344,45.898,81.543,0
1483523507.778,34.668,8.789,42.480,47.852,55.176,0
1483523507.782,32.715,10.254,45.898,52.246,60.547,0
1483523507.786,32.227,15.137,33.691,57.617,68.359,0
1483523507.790,25.391,14.648,27.832,60.059,50.293,0
1483523507.794,22.949,13.184,38.086,58.105,21.484,0
1483523507.797,25.879,16.602,39.551,55.664,11.719,0
1483523507.801,22.461,18.066,38.574,61.523,57.129,0
1483523507.805,20.508,17.090,41.016,64.453,20.508,0
1483523507.809,25.391,17.090,29.297,54.199,5.371,0
1483523507.813,26.855,17.578,13.672,42.480,39.551,0
1483523507.817,21.484,10.254,14.648,36.621,16.602,0
1483523507.821,23.926,9.766,24.414,39.551,7.812,0
1483523507.825,26.855,17.090,20.996,42.969,-1.465,0
1483523507.829,25.879,20.996,17.090,46.387,-3.418,0
1483523507.833,26.855,20.996,22.949,50.781,2.930,0
1483523507.836,30.762,24.902,37.109,58.105,29.785,0
1483523507.840,32.715,25.879,41.016,60.547,55.664,0
1483523507.844,31.250,22.461,26.367,46.387,51.270,0
1483523507.848,36.621,32.227,33.691,47.852,103.516,0
1483523507.852,36.133,34.668,35.156,49.316,128.906,0
1483523507.856,27.832,23.438,16.602,41.016,76.172,0
1483523507.860,30.762,25.879,22.949,45.898,94.238,0
1483523507.864,37.598,33.203,24.902,53.223,96.191,0
1483523507.868,36.621,34.668,28.809,59.570,19.531,0
1483523507.872,38.574,38.574,41.504,65.918,38.086,0
1483523507.876,43.457,40.527,46.387,70.312,62.012,0
1483523507.879,37.598,28.809,36.133,69.336,58.105,0
1483523507.883,34.668,25.879,22.461,67.871,32.227,0
1483523507.887,39.062,31.250,26.367,70.801,36.621,0
1483523507.891,40.039,29.785,49.316,74.219,104.004,0
1483523507.895,43.457,29.297,57.129,71.777,123.047,0
1483523507.899,44.434,29.785,46.387,72.754,131.836,0
1483523507.903,41.016,34.180,44.434,67.871,87.891,0
1483523507.907,38.574,34.668,43.945,59.082,17.090,0
1483523507.911,36.621,34.668,41.992,64.941,54.688,0
1483523507.915,32.715,31.250,36.133,69.336,79.102,0
1483523507.919,29.785,29.785,35.156,63.477,35.156,0
1483523507.922,32.227,29.297,49.805,61.523,62.988,0
1483523507.926,35.156,23.926,59.082,64.453,104.492,0
1483523507.930,36.621,24.414,50.293,67.383,64.941,0
1483523507.934,38.574,29.785,48.828,68.359,42.969,0
1483523507.938,39.062,28.320,51.270,66.406,20.508,0
1483523507.942,38.574,31.250,38.086,67.871,53.711,0
1483523507.946,39.062,39.062,34.180,69.336,83.008,0
1483523507.950,34.668,35.156,44.434,63.965,44.434,0
1483523507.954,32.715,37.109,39.551,59.570,60.547,0
1483523507.958,38.086,41.016,24.414,63.965,74.707,0
1483523507.961,37.598,36.621,32.227,60.059,62.500,0
1483523507.965,31.250,30.762,31.250,47.852,58.594,0
1483523507.969,25.391,29.785,38.574,45.898,29.297,0
1483523507.973,23.438,29.785,43.945,50.781,44.922,0
1483523507.977,35.645,34.668,6.836,54.199,71.289,0
1483523507.981,45.898,40.527,25.391,59.570,62.500,0
1483523507.985,41.504,36.133,64.453,58.105,109.863,0
1483523507.989,33.203,29.297,57.617,55.176,69.824,0
1483523507.993,36.621,30.273,47.363,59.082,76.660,0
1483523507.997,46.387,36.133,12.207,74.219,107.910,0
1483523508.001,48.828,37.598,3.906,81.055,89.844,0
1483523508.004,44.922,37.598,52.246,66.895,73.242,0
1483523508.008,43.945,40.039,72.754,64.941,41.504,0
1483523508.012,49.316,42.480,41.016,72.754,55.176,0
1483523508.016,36.621,31.738,20.508,60.059,102.539,0
1483523508.020,27.832,26.855,36.621,51.270,84.473,0
1483523508.024,36.133,35.645,41.504,59.082,91.797,0
1483523508.028,42.480,39.551,27.832,67.383,115.234,0
1483523508.032,39.062,35.156,31.250,63.965,86.426,0
1483523508.036,36.621,31.738,21.973,61.523,51.270,0
1483523508.040,34.668,26.367,0.488,65.430,75.684,0
1483523508.044,39.062,31.250,19.531,75.195,99.121,0
1483523508.047,40.527,36.621,32.715,74.219,37.109,0
1483523508.051,42.969,31.738,28.320,66.406,41.992,0
1483523508.055,49.805,37.598,24.414,68.359,65.918,0
1483523508.059,45.898,33.203,19.531,59.082,18.555,0
1483523508.063,45.898,24.902,29.297,55.176,38.574,0
1483523508.067,52.246,29.785,29.297,62.500,40.039,0
1483523508.071,58.105,40.527,9.766,70.801,49.805,0
1483523508.075,55.176,40.527,13.184,68.359,104.004,0
1483523508.079,41.992,33.203,12.207,59.082,120.605,0
1483523508.083,43.945,36.621,10.742,69.336,128.418,0
1483523508.086,52.246,43.945,23.438,79.590,97.168,0
1483523508.090,51.758,46.875,38.086,82.520,79.102,0
1483523508.094,51.758,40.527,20.996,83.496,113.770,0
1483523508.098,51.270,36.621,9.766,79.102,108.887,0
1483523508.102,48.340,34.668,25.391,74.707,127.930,0
1483523508.106,56.152,43.945,24.902,88.379,115.723,0
1483523508.110,57.129,46.875,23.926,89.844,120.605,0
1483523508.114,46.387,33.691,30.762,74.707,135.254,0
1483523508.118,36.621,29.785,-8.789,71.289,103.516,0
1483523508.122,32.715,39.551,-14.648,70.801,84.961,0
1483523508.126,39.062,49.805,39.551,63.965,94.727,0
1483523508.129,40.039,43.945,45.898,51.758,119.141,0
1483523508.133,34.668,33.691,45.410,48.828,115.723,0
1483523508.137,44.922,41.016,14.160,61.523,107.910,0
1483523508.141,50.781,43.945,-5.371,69.824,124.512,0
1483523508.145,32.227,23.438,30.273,49.316,137.207,0
1483523508.149,28.809,20.020,41.016,47.852,152.344,0
1483523508.153,41.016,30.762,36.133,67.383,126.953,0
1483523508.157,43.945,31.250,21.484,71.777,101.074,0
1483523508.161,38.574,22.949,13.184,65.430,137.695,0
1483523508.165,44.434,29.785,-1.953,68.848,118.164,0
1483523508.169,55.176,39.551,-30.273,81.055,51.758,0
1483523508.172,48.340,37.109,12.695,79.102,64.941,0
1483523508.176,36.133,29.785,76.660,64.941,73.242,0
1483523508.180,37.109,30.762,70.312,57.129,95.215,0
1483523508.184,33.203,25.879,48.340,53.711,100.586,0
1483523508.188,25.391,21.973,38.086,47.852,54.199,0
1483523508.192,24.902,24.414,16.602,46.387,47.852,0
1483523508.196,29.785,29.785,12.207,51.758,83.496,0
1483523508.200,32.715,34.180,24.414,60.547,102.051,0
1483523508.204,27.832,28.809,39.551,58.105,116.211,0
1483523508.208,32.227,25.879,39.062,58.594,108.398,0
1483523508.211,42.969,31.250,34.180,67.383,64.941,0
1483523508.215,47.363,38.574,50.781,73.730,75.684,0
1483523508.219,45.410,35.645,36.621,73.242,121.582,0
1483523508.223,48.340,31.738,9.766,73.242,108.398,0
1483523508.227,56.152,36.133,27.832,73.730,77.148,0
1483523508.231,54.199,34.668,43.945,69.336,110.352,0
1483523508.235,48.828,31.250,35.156,68.359,162.598,0
1483523508.239,49.316,34.668,28.320,71.289,135.742,0
1483523508.243,45.898,26.367,27.344,70.312,161.621,0
1483523508.247,57.617,34.668,25.391,84.961,134.277,0
1483523508.251,66.895,45.410,41.504,95.703,63.477,0
1483523508.254,62.012,40.039,44.922,94.727,54.688,0
1483523508.258,66.406,40.527,34.668,99.609,102.539,0
1483523508.262,58.594,33.691,40.039,88.379,120.605,0
1483523508.266,54.199,31.738,12.695,80.566,85.938,0
1483523508.270,54.199,38.086,-12.695,83.984,54.199,0
1483523508.274,52.246,44.434,28.320,83.496,56.641,0
1483523508.278,54.688,48.340,45.898,80.566,98.145,0
1483523508.282,41.016,37.598,42.969,69.824,122.559,0
1483523508.286,32.715,27.344,32.227,62.988,107.910,0
1483523508.290,38.574,31.738,23.926,67.871,90.820,0
1483523508.294,44.434,36.133,25.391,78.125,78.125,0
1483523508.297,48.340,39.062,24.902,84.961,57.129,0
1483523508.301,56.641,43.457,31.250,94.727,-2.930,0
1483523508.305,59.570,40.039,9.766,93.262,-4.395,0
1483523508.309,65.430,46.387,8.301,91.309,69.336,0
1483523508.313,73.730,57.129,37.598,93.750,75.684,0
1483523508.317,67.383,46.387,2.930,84.473,88.867,0
1483523508.321,62.012,38.086,-2.441,80.566,95.215,0
1483523508.325,59.082,42.480,38.086,87.402,84.961,0
1483523508.329,57.617,42.969,51.758,87.402,51.758,0
1483523508.333,65.430,48.340,44.922,80.078,83.984,0
1483523508.336,66.895,51.758,39.062,79.102,73.730,0
1483523508.340,59.082,49.316,41.992,78.613,83.984,0
1483523508.344,62.012,50.781,45.410,80.078,98.633,0
1483523508.348,71.289,53.711,42.480,87.402,74.707,0
1483523508.352,74.707,59.570,34.180,91.309,75.684,0
1483523508.356,65.918,51.270,40.527,83.496,87.402,0
1483523508.360,59.082,40.527,38.086,79.102,100.586,0
1483523508.364,63.965,43.457,37.109,89.355,111.328,0
1483523508.368,65.430,45.898,43.457,95.703,93.750,0
1483523508.372,63.965,49.805,48.340,96.680,87.402,0
1483523508.376,69.824,51.270,49.316,99.609,87.891,0
1483523508.379,84.961,56.152,47.852,112.793,93.262,0
1483523508.383,76.660,46.875,30.273,106.445,99.121,0
1483523508.387,65.918,38.086,25.879,94.238,114.258,0
1483523508.391,70.312,41.504,43.945,95.215,75.684,0
1483523508.395,62.988,35.156,49.805,87.891,65.918,0
1483523508.399,61.035,36.621,48.828,88.867,127.930,0
1483523508.403,65.430,39.551,45.898,86.914,90.332,0
1483523508.407,60.547,38.574,32.715,80.566,70.801,0
1483523508.411,62.500,45.898,36.621,86.914,70.801,0
1483523508.415,65.918,51.758,49.316,88.379,50.781,0
1483523508.419,60.059,48.828,44.434,86.914,74.219,0
1483523508.422,57.617,46.387,36.133,86.426,163.574,0
1483523508.426,54.688,41.992,48.340,73.242,140.625,0
1483523508.430,54.688,44.922,52.734,62.012,29.785,0
1483523508.434,54.199,47.852,9.277,51.758,29.785,0
1483523508.438,48.828,42.969,14.160,41.992,89.844,0
1483523508.442,46.387,41.016,57.617,43.945,81.543,0
1483523508.446,57.617,51.270,51.270,57.129,72.266,0
1483523508.450,60.059,56.641,42.480,62.500,119.141,0
1483523508.454,47.363,48.340,35.645,47.852,109.375,0
1483523508.458,36.133,40.527,30.273,30.273,47.852,0
1483523508.461,34.668,36.133,43.945,35.645,25.879,0
1483523508.465,39.062,37.109,46.387,45.898,87.402,0
1483523508.469,33.691,29.785,27.832,36.133,73.242,0
1483523508.473,33.691,32.227,30.273,25.391,43.945,0
1483523508.477,47.363,42.480,49.316,37.109,113.770,0
1483523508.481,51.758,42.969,47.852,42.480,153.320,0
1483523508.485,38.574,33.203,35.645,28.320,124.512,0
1483523508.489,38.086,33.691,23.926,27.832,135.254,0
1483523508.493,47.363,38.086,-0.488,30.762,125.977,0
1483523508.497,51.758,43.457,13.672,34.180,97.168,0
1483523508.501,47.363,45.410,36.133,23.438,135.254,0
1483523508.504,41.992,41.992,34.668,16.113,115.723,0
1483523508.508,46.387,41.016,44.434,23.926,23.926,0
1483523508.512,48.828,46.387,51.270,27.344,62.012,0
1483523508.516,51.270,45.898,49.805,24.414,110.352,0
1483523508.520,45.898,36.621,19.043,14.648,106.934,0
1483523508.524,41.016,36.133,13.184,15.137,72.266,0
1483523508.528,41.992,30.762,32.715,8.789,61.035,0
1483523508.532,41.016,30.273,29.785,3.906,118.164,0
1483523508.536,39.551,28.809,22.949,1.465,93.750,0
1483523508.540,40.527,26.855,14.160,-2.441,80.566,0
1483523508.544,39.062,30.273,12.695,-8.301,47.852,0
1483523508.547,50.293,39.062,16.602,-3.906,43.945,0
1483523508.551,63.477,45.410,5.859,10.254,55.176,0
1483523508.555,56.152,38.574,4.883,5.371,60.547,0
1483523508.559,53.223,37.109,20.020,-0.488,51.758,0
1483523508.563,53.223,38.574,30.273,-0.488,84.961,0
1483523508.567,53.223,38.086,34.668,2.441,132.812,0
1483523508.571,50.781,37.109,37.598,5.859,90.332,0
1483523508.575,48.340,40.527,32.715,12.695,85.938,0
1483523508.579,53.711,47.363,30.273,23.438,123.535,0
1483523508.583,57.617,53.223,38.574,28.809,81.055,0
1483523508.586,42.969,42.480,20.508,14.648,83.984,0
1483523508.590,40.527,38.574,0.488,8.789,94.727,0
1483523508.594,54.199,46.875,14.160,20.996,29.785,0
1483523508.598,59.570,52.246,49.805,29.785,30.273,0
1483523508.602,52.734,49.805,53.223,32.227,53.711,0
1483523508.606,53.223,44.922,39.062,34.668,72.266,0
1483523508.610,58.105,43.945,49.805,41.016,101.074,0
1483523508.614,64.941,52.246,59.570,55.664,104.004,0
1483523508.618,65.430,46.875,37.598,61.523,75.684,0
1483523508.622,60.547,36.133,30.273,57.617,51.270,0
1483523508.626,64.453,42.480,56.641,58.105,90.332,0
1483523508.629,64.453,44.434,52.246,62.500,76.172,0
1483523508.633,69.824,50.781,29.297,74.707,21.973,0
1483523508.637,67.871,51.758,40.527,78.125,67.383,0
1483523508.641,56.152,39.062,50.293,72.754,64.941,0
1483523508.645,55.176,36.621,55.176,77.148,27.344,0
1483523508.649,47.852,29.785,48.828,83.496,95.215,0
1483523508.653,51.758,33.203,41.504,96.191,80.078,0
1483523508.657,56.641,44.434,49.316,115.723,60.547,0
1483523508.661,51.270,36.621,54.688,136.719,44.434,0
1483523508.665,51.270,30.762,47.852,152.832,59.570,0
1483523508.669,61.523,45.410,45.898,183.105,85.938,0
1483523508.672,59.570,47.852,30.273,215.820,40.039,0
1483523508.676,50.293,33.203,19.531,233.887,59.082,0
1483523508.680,51.270,31.738,34.668,251.953,103.516,0
1483523508.684,53.711,40.039,42.969,264.648,85.938,0
1483523508.688,59.082,43.457,39.551,271.973,47.363,0
1483523508.692,69.824,47.363,-7.812,280.273,49.805,0
1483523508.696,67.383,46.875,14.648,270.508,52.734,0
1483523508.700,48.340,29.297,68.848,243.652,57.129,0
1483523508.704,51.270,29.297,77.148,238.770,66.895,0
1483523508.708,52.734,34.180,68.848,240.234,87.891,0
1483523508.711,46.387,32.227,53.223,229.492,131.348,0
1483523508.715,45.410,34.180,19.531,224.609,116.699,0
1483523508.719,50.293,37.109,16.113,214.355,67.383,0
1483523508.723,52.734,38.086,52.734,196.777,82.031,0
1483523508.727,46.387,34.668,58.594,191.406,52.734,0
1483523508.731,46.875,38.086,40.039,192.383,51.758,0
1483523508.735,51.270,45.410,15.625,188.477,82.520,0
1483523508.739,49.316,39.062,20.508,179.199,69.336,0
1483523508.743,43.945,28.809,31.738,170.898,100.586,0
1483523508.747,44.922,34.668,37.598,166.016,64.941,0
1483523508.751,42.969,41.504,46.875,160.645,37.598,0
1483523508.754,47.363,45.898,48.828,165.039,107.422,0
1483523508.758,48.828,44.922,49.805,159.180,106.445,0
1483523508.762,34.180,33.203,31.250,137.207,76.172,0
1483523508.766,35.156,33.691,22.461,137.695,84.961,0
1483523508.770,35.156,36.621,35.645,128.418,41.016,0
1483523508.774,36.133,35.156,43.945,119.629,20.996,0
1483523508.778,40.527,37.109,43.945,126.953,34.668,0
1483523508.782,41.992,41.016,25.391,128.418,57.129,0
1483523508.786,50.781,47.852,18.555,136.719,124.512,0
1483523508.790,42.480,40.527,37.598,128.418,119.629,0
1483523508.794,29.785,27.832,42.969,109.863,74.219,0
1483523508.797,35.156,30.273,44.434,112.305,38.086,0
1483523508.801,37.598,29.785,46.387,109.863,63.477,0
1483523508.805,37.109,30.273,43.457,103.027,76.172,0
1483523508.809,41.016,35.156,34.180,104.492,107.910,0
1483523508.813,51.270,39.062,41.992,107.422,144.043,0
1483523508.817,53.711,40.039,46.387,105.957,82.031,0
1483523508.821,48.340,35.645,21.484,102.539,51.270,0
1483523508.825,47.363,34.180,31.738,97.656,45.898,0
1483523508.829,45.410,35.645,43.945,94.238,100.586,0
1483523508.833,45.410,33.691,30.273,94.238,101.562,0
1483523508.836,44.434,30.273,14.160,88.867,101.074,0
1483523508.840,41.504,30.762,27.832,85.449,103.027,0
1483523508.844,43.945,35.645,48.828,91.797,91.309,0
1483523508.848,48.340,42.480,41.016,99.609,82.520,0
1483523508.852,41.992,41.016,14.160,93.262,56.641,0
1483523508.856,42.480,40.039,12.695,93.262,87.402,0
1483523508.860,38.086,32.227,39.551,83.008,93.262,0
1483523508.864,29.297,22.461,54.688,76.172,43.457,0
1483523508.868,32.227,28.320,51.758,85.938,34.180,0
1483523508.872,37.598,30.273,39.551,82.031,61.035,0
1483523508.876,45.898,34.180,38.574,76.660,94.727,0
1483523508.879,46.387,37.109,27.344,80.078,71.777,0
1483523508.883,47.363,36.621,-0.488,83.984,71.777,0
1483523508.887,46.875,37.109,20.020,86.914,51.758,0
1483523508.891,41.016,35.156,40.039,75.684,79.102,0
1483523508.895,41.992,32.227,23.926,63.477,74.219,0
1483523508.899,45.898,28.320,11.719,62.988,-28.809,0
1483523508.903,50.293,31.250,25.391,70.312,44.434,0
1483523508.907,52.734,30.273,31.738,73.242,94.727,0
1483523508.911,45.898,22.949,44.434,65.918,15.625,0
1483523508.915,46.875,29.785,62.988,66.895,-16.113,0
1483523508.919,50.293,33.203,59.570,69.336,28.809,0
1483523508.922,48.828,31.250,41.016,69.336,20.996,0
1483523508.926,47.852,37.109,23.926,67.871,4.395,0
1483523508.930,44.434,40.039,37.109,58.594,61.035,0
1483523508.934,54.688,43.945,16.602,63.965,73.242,0
1483523508.938,60.059,48.828,-18.066,68.359,47.363,0
1483523508.942,33.203,31.738,27.344,40.039,41.504,0
1483523508.946,21.484,27.832,67.383,24.414,28.320,0
1483523508.950,31.250,37.109,60.547,33.203,29.297,0
1483523508.954,36.621,31.250,51.270,42.969,50.781,0
1483523508.958,37.598,30.762,51.758,45.410,71.777,0
1483523508.961,32.227,31.738,29.785,40.527,9.277,0
1483523508.965,35.645,40.039,17.090,50.293,53.223,0
1483523508.969,46.387,48.340,49.316,64.941,96.680,0
1483523508.973,34.180,34.668,40.039,52.246,50.293,0
1483523508.977,28.320,27.344,3.906,36.621,51.270,0
1483523508.981,27.832,27.344,6.836,33.691,60.059,0
1483523508.985,20.508,24.902,17.578,26.855,82.031,0
1483523508.989,29.785,33.203,24.414,35.645,67.383,0
1483523508.993,43.945,44.434,34.668,48.828,81.055,0
1483523508.997,44.434,47.852,18.066,44.434,76.172,0
1483523509.001,35.156,40.039,-8.789,28.320,59.082,0
1483523509.004,31.250,31.250,16.602,28.809,92.773,0
1483523509.008,29.297,29.297,34.180,33.203,85.449,0
1483523509.012,33.203,41.016,11.230,35.156,62.012,0
1483523509.016,30.762,37.109,-34.180,35.156,74.219,0
1483523509.020,24.414,25.879,-4.395,31.250,83.496,0
1483523509.024,28.809,35.156,74.707,32.715,48.828,0
1483523509.028,33.203,36.621,72.266,31.738,56.641,0
1483523509.032,27.832,25.879,48.340,24.414,49.316,0
1483523509.036,32.227,25.879,39.062,27.344,67.383,0
1483523509.040,35.156,26.855,9.766,35.156,55.664,0
1483523509.044,31.738,22.949,3.906,32.715,38.086,0
1483523509.047,33.691,24.414,15.625,27.344,31.250,0
1483523509.051,38.086,35.156,34.180,28.320,42.480,0
1483523509.055,35.645,33.691,49.805,23.926,88.379,0
1483523509.059,24.414,20.020,21.484,8.789,87.891,0
1483523509.063,19.531,20.020,0.977,6.836,84.473,0
1483523509.067,16.113,19.043,8.301,4.883,41.016,0
1483523509.071,11.230,13.184,10.742,5.371,27.344,0
1483523509.075,5.859,13.184,23.438,3.906,61.523,0
1483523509.079,8.301,18.066,12.695,7.812,75.684,0
1483523509.083,16.602,24.414,-8.301,16.113,50.293,0
1483523509.086,18.066,23.926,25.391,13.184,57.129,0
1483523509.090,12.695,15.625,35.645,8.789,81.543,0
1483523509.094,8.301,8.301,27.344,0.977,59.570,0
1483523509.098,14.648,5.371,32.715,7.812,99.121,0
1483523509.102,27.832,12.695,29.297,24.414,148.926,0
1483523509.106,29.297,16.602,11.719,28.809,92.285,0
1483523509.110,17.578,7.324,12.207,18.555,6.836,0
1483523509.114,6.836,-3.418,32.715,11.230,61.523,0
1483523509.118,19.531,4.395,51.270,20.996,98.145,0
1483523509.122,34.180,20.508,46.875,32.227,85.449,0
1483523509.126,20.996,12.207,28.320,23.438,101.074,0
1483523509.129,10.742,5.371,16.602,13.184,57.129,0
1483523509.133,13.672,5.859,25.391,12.695,67.871,0
1483523509.137,14.648,7.812,31.250,10.254,77.148,0
1483523509.141,18.555,9.277,30.762,11.230,30.762,0
1483523509.145,23.926,8.789,36.621,20.020,76.172,0
1483523509.149,31.250,17.090,48.828,22.949,118.164,0
1483523509.153,33.691,18.555,50.293,20.996,59.570,0
1483523509.157,21.973,9.766,23.438,15.137,63.965,0
1483523509.161,17.090,10.254,27.344,16.602,94.727,0
1483523509.165,23.438,16.113,39.062,26.855,90.332,0
1483523509.169,22.461,6.836,20.508,22.949,107.910,0
1483523509.172,21.484,3.906,33.691,21.973,139.648,0
1483523509.176,21.484,6.348,40.527,25.879,109.863,0
1483523509.180,28.809,10.254,34.668,29.297,67.383,0
1483523509.184,36.621,22.949,36.133,43.945,20.508,0
1483523509.188,28.809,20.020,38.086,39.551,50.781,0
1483523509.192,28.809,14.160,50.781,37.598,87.891,0
1483523509.196,29.785,18.066,44.434,48.340,59.082,0
1483523509.200,21.973,12.695,31.250,39.062,38.574,0
1483523509.204,23.926,12.207,41.992,35.156,32.227,0
1483523509.208,20.508,10.742,48.828,32.227,82.520,0
1483523509.211,24.902,9.766,30.762,37.109,76.660,0
1483523509.215,42.969,22.949,30.273,54.688,31.250,0
1483523509.219,39.551,21.973,45.898,49.316,58.594,0
1483523509.223,32.715,19.043,48.340,39.551,88.867,0
1483523509.227,32.715,17.090,44.922,39.062,94.727,0
1483523509.231,41.016,19.531,42.969,51.270,74.707,0
1483523509.235,43.945,27.832,53.223,53.223,54.688,0
1483523509.239,41.504,25.879,35.156,49.316,56.641,0
1483523509.243,50.293,34.180,16.602,61.035,74.707,0
1483523509.247,50.781,32.715,46.387,60.059,78.125,0
1483523509.251,46.387,31.250,55.664,53.223,126.465,0
1483523509.254,41.016,25.391,28.320,46.875,100.586,0
1483523509.258,42.480,24.414,14.160,53.223,80.566,0
1483523509.262,46.875,30.273,38.574,64.453,101.562,0
1483523509.266,50.781,33.691,56.641,62.988,45.898,0
1483523509.270,47.363,29.785,49.805,58.594,22.949,0
1483523509.274,46.875,28.809,51.270,63.477,17.090,0
1483523509.278,47.363,33.203,53.711,66.406,70.312,0
1483523509.282,51.270,41.016,40.527,63.477,63.477,0
1483523509.286,44.434,37.109,20.020,61.523,-14.648,0
1483523509.290,40.039,32.227,24.414,62.012,47.363,0
1483523509.294,42.969,33.691,39.062,58.594,66.895,0
1483523509.297,41.504,29.785,33.691,55.176,4.395,0
1483523509.301,48.340,33.203,14.648,62.012,20.020,0
1483523509.305,55.176,33.691,-2.930,67.871,35.645,0
1483523509.309,56.641,35.645,39.062,67.871,18.066,0
1483523509.313,52.246,31.738,65.430,61.523,3.906,0
1483523509.317,50.293,27.344,46.875,65.918,17.090,0
1483523509.321,45.898,30.762,23.438,68.848,40.527,0
1483523509.325,54.199,38.574,21.484,61.523,43.945,0
1483523509.329,54.688,31.250,4.883,56.152,15.137,0
1483523509.333,47.852,26.855,15.137,55.176,11.230,0
1483523509.336,50.781,34.668,20.508,58.594,44.922,0
1483523509.340,60.059,41.992,-9.277,70.801,23.438,0
1483523509.344,61.523,45.410,30.762,67.871,30.762,0
1483523509.348,52.734,40.039,49.316,57.129,3.906,0
1483523509.352,52.734,36.621,44.922,64.941,9.277,0
1483523509.356,57.129,37.598,50.781,72.754,68.359,0
1483523509.360,60.547,42.969,58.594,70.801,35.645,0
1483523509.364,56.152,38.574,48.828,60.059,52.734,0
1483523509.368,45.410,30.762,22.949,59.082,75.684,0
1483523509.372,46.387,36.621,20.996,64.453,84.473,0
1483523509.376,48.828,38.574,-11.719,64.941,112.305,0
1483523509.379,46.387,35.645,-19.531,60.059,37.598,0
1483523509.383,41.504,29.785,20.020,54.199,-2.441,0
1483523509.387,41.016,28.320,13.184,56.152,6.836,0
1483523509.391,48.828,39.551,47.363,60.547,5.371,0
1483523509.395,44.922,29.785,80.078,55.664,43.945,0
1483523509.399,29.297,8.789,42.969,42.480,60.547,0
1483523509.403,31.738,19.531,37.598,46.387,70.801,0
1483523509.407,31.250,22.949,39.062,43.457,52.246,0
1483523509.411,21.484,13.672,7.812,34.668,107.422,0
1483523509.415,24.414,16.113,10.742,33.691,153.809,0
1483523509.419,23.438,21.973,28.320,36.133,82.520,0
1483523509.422,31.250,32.715,28.809,44.922,101.074,0
1483523509.426,31.250,31.738,-6.348,48.340,88.379,0
1483523509.430,33.691,30.762,-29.297,53.711,63.965,0
1483523509.434,36.621,32.227,11.230,47.852,53.223,0
1483523509.438,22.949,21.484,54.688,31.250,11.230,0
1483523509.442,22.461,20.508,75.684,24.414,42.480,0
1483523509.446,25.879,19.531,65.430,32.715,82.031,0
1483523509.450,22.949,20.020,49.805,39.062,-7.324,0
1483523509.454,27.832,31.250,31.738,43.945,-21.973,0
1483523509.458,37.109,41.016,36.133,53.711,32.227,0
1483523509.461,35.645,36.621,50.293,45.898,66.895,0
1483523509.465,27.344,24.414,14.160,38.086,72.754,0
1483523509.469,26.367,18.066,24.902,35.156,48.340,0
1483523509.473,23.926,21.973,65.918,30.273,31.250,0
1483523509.477,27.344,24.902,59.570,35.645,22.461,0
1483523509.481,34.668,23.926,47.852,41.992,42.969,0
1483523509.485,39.062,31.738,27.344,48.340,38.086,0
1483523509.489,35.645,30.273,31.738,41.992,41.992,0
1483523509.493,30.762,27.344,41.992,40.039,86.914,0
1483523509.497,31.738,29.297,31.738,48.340,68.359,0
1483523509.501,35.156,32.715,56.152,53.711,42.480,0
1483523509.504,32.715,33.691,34.668,48.828,74.219,0
1483523509.508,27.832,27.832,31.738,35.156,77.148,0
1483523509.512,34.180,31.250,50.293,37.109,91.797,0
1483523509.516,37.598,30.762,29.297,44.434,96.191,0
1483523509.520,46.387,43.945,45.410,53.223,111.816,0
1483523509.524,51.270,49.316,66.406,56.641,72.266,0
1483523509.528,34.180,32.227,27.832,41.016,38.086,0
1483523509.532,34.668,33.203,22.949,43.945,62.988,0
1483523509.536,51.758,43.457,72.754,61.523,67.383,0
1483523509.540,42.480,35.156,77.148,52.246,42.480,0
1483523509.544,33.203,24.414,35.156,48.340,45.410,0
1483523509.547,55.664,44.434,10.742,72.266,31.250,0
1483523509.551,56.641,47.363,49.316,69.336,16.602,0
1483523509.555,36.621,23.438,95.703,49.316,76.172,0
1483523509.559,39.551,25.391,64.453,59.570,73.242,0
1483523509.563,48.340,29.785,39.062,60.547,60.547,0
1483523509.567,49.316,33.203,61.523,57.617,70.801,0
1483523509.571,47.363,35.156,59.082,65.430,60.547,0
1483523509.575,48.340,33.203,31.250,65.918,85.938,0
1483523509.579,55.176,41.992,23.926,73.730,104.492,0
1483523509.583,46.875,33.203,32.227,66.406,60.059,0
1483523509.586,38.086,24.414,61.035,55.176,77.148,0
1483523509.590,40.039,27.832,59.082,60.059,39.551,0
1483523509.594,48.340,32.227,44.922,64.453,6.348,0
1483523509.598,48.828,39.062,57.129,63.965,72.754,0
1483523509.602,40.039,31.250,56.641,56.641,62.500,0
1483523509.606,46.387,31.738,66.406,61.523,67.383,0
1483523509.610,52.246,38.086,73.242,66.406,95.215,0
1483523509.614,37.109,27.832,50.781,55.664,104.980,0
1483523509.618,43.457,36.621,30.762,58.594,78.125,0
1483523509.622,50.293,42.969,43.457,60.059,25.879,0
1483523509.626,42.480,40.039,50.781,57.617,35.645,0
1483523509.629,38.574,38.574,63.965,53.711,48.340,0
1483523509.633,37.598,39.062,26.855,51.270,56.152,0
1483523509.637,38.574,38.574,19.043,45.410,45.898,0
1483523509.641,34.668,34.668,79.590,30.273,65.918,0
1483523509.645,41.016,45.898,90.820,40.527,108.887,0
1483523509.649,43.945,50.781,45.410,44.922,114.258,0
1483523509.653,33.203,32.227,20.020,26.367,63.965,0
1483523509.657,32.227,27.832,56.641,27.832,53.711,0
1483523509.661,44.434,40.527,72.754,40.039,84.961,0
1483523509.665,35.156,32.227,55.664,27.832,55.176,0
1483523509.669,30.762,25.879,28.809,24.414,76.660,0
1483523509.672,41.016,33.691,9.766,27.832,91.797,0
1483523509.676,40.527,39.062,38.574,22.461,74.219,0
1483523509.680,41.016,44.922,44.434,29.785,92.285,0
1483523509.684,54.688,56.641,39.062,46.387,48.828,0
1483523509.688,52.734,55.176,55.176,46.387,44.922,0
1483523509.692,23.438,32.715,56.152,29.297,97.168,0
1483523509.696,14.648,24.414,55.176,28.809,72.266,0
1483523509.700,27.344,35.156,57.129,41.016,62.988,0
1483523509.704,22.949,30.762,46.875,34.668,103.516,0
1483523509.708,21.973,29.297,40.527,32.227,88.867,0
1483523509.711,32.227,41.016,55.176,44.922,48.340,0
1483523509.715,33.691,35.645,32.227,46.875,66.895,0
1483523509.719,34.180,33.691,30.273,47.363,91.309,0
1483523509.723,37.109,34.180,64.453,52.734,80.078,0
1483523509.727,38.574,28.809,55.664,48.828,56.152,0
1483523509.731,32.227,23.438,37.109,45.898,18.555,0
1483523509.735,29.297,23.926,36.621,46.387,42.969,0
1483523509.739,42.969,35.156,34.180,53.223,92.285,0
1483523509.743,46.875,34.668,50.293,62.012,90.332,0
1483523509.747,38.574,29.297,64.941,58.594,60.059,0
1483523509.751,36.621,26.367,66.406,44.922,55.176,0
1483523509.754,40.039,30.762,78.613,50.293,35.156,0
1483523509.758,41.016,32.715,74.707,57.129,42.480,0
1483523509.762,34.668,22.949,54.688,48.340,25.391,0
1483523509.766,42.969,31.250,57.129,62.012,43.945,0
1483523509.770,57.617,41.016,64.453,69.336,72.266,0
1483523509.774,53.223,34.668,67.383,61.035,73.242,0
1483523509.778,49.805,32.715,52.246,64.941,45.410,0
1483523509.782,55.664,36.621,41.992,67.383,44.434,0
1483523509.786,58.105,36.133,60.547,63.965,74.219,0
1483523509.790,59.570,35.156,56.152,72.754,50.293,0
1483523509.794,62.500,34.668,45.898,72.754,11.719,0
1483523509.797,65.430,34.668,50.781,68.359,30.762,0
1483523509.801,76.172,43.457,69.336,80.566,37.109,0
1483523509.805,76.172,41.016,68.848,77.148,14.648,0
1483523509.809,73.242,38.086,75.684,73.242,32.227,0
1483523509.813,72.266,38.574,69.336,71.777,9.766,0
1483523509.817,66.895,33.203,42.969,63.965,10.254,0
1483523509.821,70.312,34.668,46.875,71.777,41.016,0
1483523509.825,71.777,36.621,40.039,69.336,9.277,0
1483523509.829,78.613,42.969,41.992,70.312,3.906,0
1483523509.833,82.520,45.898,36.133,76.660,-5.859,0
1483523509.836,82.031,44.922,4.395,80.566,-12.207,0
1483523509.840,85.449,50.781,29.297,84.961,18.555,0
1483523509.844,82.520,48.828,62.988,77.148,11.230,0
1483523509.848,69.336,38.086,53.711,65.430,6.348,0
1483523509.852,70.312,41.992,48.340,71.289,21.484,0
1483523509.856,84.473,52.246,64.941,84.473,12.207,0
1483523509.860,81.055,50.293,67.871,80.078,31.250,0
1483523509.864,75.684,44.434,54.688,79.590,39.062,0
1483523509.868,83.984,48.340,54.199,84.473,38.086,0
1483523509.872,78.125,49.805,37.109,74.219,40.039,0
1483523509.876,80.566,52.734,27.344,75.195,7.324,0
1483523509.879,84.961,55.176,41.992,82.031,3.418,0
1483523509.883,76.660,51.270,45.898,84.961,45.898,0
1483523509.887,64.941,41.992,51.270,72.754,74.707,0
1483523509.891,61.523,42.480,55.176,60.547,61.035,0
1483523509.895,64.453,49.316,52.246,59.082,68.359,0
1483523509.899,70.312,50.293,53.711,64.941,102.051,0
1483523509.903,70.801,52.734,52.734,76.660,86.426,0
1483523509.907,72.754,60.547,43.457,77.637,46.875,0
1483523509.911,72.754,53.711,59.570,73.242,52.246,0
1483523509.915,60.547,38.574,68.359,63.477,84.961,0
1483523509.919,51.270,39.551,63.965,55.664,79.590,0
1483523509.922,58.594,50.293,40.039,62.988,100.586,0
1483523509.926,61.035,47.852,29.785,63.477,114.746,0
1483523509.930,56.152,41.016,59.570,55.176,85.938,0
1483523509.934,64.941,50.293,67.871,68.848,61.523,0
1483523509.938,64.453,53.223,54.199,68.359,38.574,0
1483523509.942,53.711,47.852,48.340,52.246,41.504,0
1483523509.946,61.523,51.270,41.992,59.570,45.898,0
1483523509.950,69.336,52.734,22.461,67.383,53.223,0
1483523509.954,63.477,45.410,41.504,63.477,38.086,0
1483523509.958,55.176,37.598,69.336,56.152,83.496,0
1483523509.961,55.664,35.156,72.266,57.129,103.516,0
1483523509.965,70.312,48.340,50.293,71.777,53.223,0
1483523509.969,75.684,54.688,49.805,77.148,39.062,0
1483523509.973,63.965,39.551,65.918,63.477,76.172,0
1483523509.977,59.570,42.480,57.617,59.570,99.609,0
1483523509.981,53.223,42.480,56.641,54.688,65.918,0
1483523509.985,52.734,39.062,62.012,52.246,70.801,0
1483523509.989,52.734,42.969,37.598,56.152,74.219,0
1483523509.993,47.852,41.992,26.367,54.688,71.777,0
1483523509.997,49.805,43.945,70.801,55.176,48.340,0
1483523510.001,46.875,42.969,85.449,53.223,60.059,0
1483523510.004,47.363,40.039,64.453,51.270,86.426,0
1483523510.008,49.316,38.574,27.344,48.828,58.594,0
1483523510.012,42.480,40.039,13.184,37.109,16.602,0
1483523510.016,40.527,41.992,34.668,33.691,34.668,0
1483523510.020,42.969,39.551,70.312,42.969,74.219,0
1483523510.024,41.504,30.762,81.543,36.621,83.984,0
1483523510.028,37.109,28.809,74.219,31.250,61.035,0
1483523510.032,37.109,33.691,55.176,35.645,42.969,0
1483523510.036,38.574,28.320,42.969,32.715,70.801,0
1483523510.040,37.109,24.414,39.551,30.273,73.242,0
1483523510.044,37.598,29.785,22.949,31.738,54.688,0
1483523510.047,42.480,33.203,30.762,40.527,48.340,0
1483523510.051,48.340,34.180,20.020,42.480,42.480,0
1483523510.055,44.922,32.227,40.039,36.133,57.129,0
1483523510.059,39.551,27.832,93.750,35.156,70.801,0
1483523510.063,42.480,28.809,86.426,39.062,64.941,0
1483523510.067,40.039,27.344,49.805,37.109,84.473,0
1483523510.071,30.273,23.926,40.527,26.855,67.383,0
1483523510.075,34.668,27.344,23.926,27.344,51.270,0
1483523510.079,41.504,33.203,17.578,31.250,58.594,0
1483523510.083,31.250,34.668,53.223,29.785,63.965,0
1483523510.086,25.879,25.879,65.430,24.902,61.523,0
1483523510.090,37.109,26.367,56.152,31.738,54.688,0
1483523510.094,42.480,37.598,55.176,33.691,58.594,0
1483523510.098,32.715,30.273,52.734,25.391,43.945,0
1483523510.102,28.809,20.508,39.062,21.973,11.719,0
1483523510.106,34.180,24.414,17.578,25.879,20.020,0
1483523510.110,43.457,34.668,-19.043,40.527,17.090,0
1483523510.114,43.945,36.133,12.207,34.668,10.254,0
1483523510.118,36.621,28.320,44.922,26.855,20.508,0
1483523510.122,38.574,27.832,60.547,29.785,16.602,0
1483523510.126,33.203,20.020,78.613,24.414,37.598,0
1483523510.129,35.156,22.461,53.711,30.273,47.363,0
1483523510.133,42.969,34.668,28.809,31.738,27.344,0
1483523510.137,30.273,26.367,42.480,20.508,47.852,0
1483523510.141,27.832,21.973,49.316,18.066,45.410,0
1483523510.145,37.109,27.832,32.227,18.066,37.598,0
1483523510.149,36.133,35.156,31.250,19.531,27.832,0
1483523510.153,37.109,36.621,47.363,17.578,27.344,0
1483523510.157,35.156,25.879,39.062,14.648,76.172,0
1483523510.161,41.016,29.785,20.996,21.973,55.176,0
1483523510.165,46.387,33.203,5.371,31.250,31.738,0
1483523510.169,34.668,30.273,15.137,27.344,59.570,0
1483523510.172,21.973,19.043,44.434,20.508,66.895,0
1483523510.176,25.879,18.066,51.270,29.785,62.500,0
1483523510.180,32.227,25.391,42.480,28.320,77.148,0
1483523510.184,32.715,24.902,37.109,20.020,85.938,0
1483523510.188,41.992,29.297,57.129,24.414,75.684,0
1483523510.192,46.387,28.320,65.918,24.414,53.711,0
1483523510.196,44.922,26.855,45.898,19.531,61.523,0
1483523510.200,40.527,25.391,17.090,14.160,64.453,0
1483523510.204,37.598,23.926,14.648,11.230,47.852,0
1483523510.208,35.645,22.949,4.395,14.648,21.973,0
1483523510.211,43.457,31.250,-18.555,26.367,36.621,0
1483523510.215,42.480,31.250,23.926,20.020,58.105,0
1483523510.219,20.508,12.695,49.316,0.488,32.227,0
1483523510.223,25.391,15.137,49.316,4.395,52.246,0
1483523510.227,30.762,20.996,48.828,6.348,64.453,0
1483523510.231,27.344,22.949,38.574,9.277,37.109,0
1483523510.235,31.250,26.367,60.547,12.695,22.461,0
1483523510.239,32.227,30.273,28.320,14.160,37.109,0
1483523510.243,29.785,33.203,-17.578,17.578,40.527,0
1483523510.247,25.879,27.344,36.133,12.695,50.781,0
1483523510.251,27.344,28.320,67.871,18.066,62.012,0
1483523510.254,39.551,34.668,42.969,29.785,47.363,0
1483523510.258,48.340,41.016,30.273,40.527,40.527,0
1483523510.262,42.969,39.062,37.109,39.062,28.320,0
1483523510.266,33.203,29.785,45.898,22.461,29.785,0
1483523510.270,29.297,22.461,42.969,15.625,52.246,0
1483523510.274,27.832,22.461,50.781,17.090,88.379,0
1483523510.278,25.879,28.809,49.805,19.043,96.191,0
1483523510.282,38.574,36.621,32.227,30.273,76.660,0
1483523510.286,38.086,35.645,16.113,30.273,66.895,0
1483523510.290,35.156,39.551,24.902,25.391,93.750,0
1483523510.294,46.875,54.688,26.855,35.645,94.238,0
1483523510.297,34.668,38.574,35.156,29.785,59.082,0
1483523510.301,28.320,27.832,41.992,20.996,71.777,0
1483523510.305,34.180,36.133,29.297,26.367,136.230,0
1483523510.309,32.227,33.691,27.344,17.578,142.090,0
1483523510.313,32.227,34.668,38.574,12.695,126.465,0
1483523510.317,38.574,41.504,67.383,24.414,123.535,0
1483523510.321,39.062,41.504,74.219,32.715,130.371,0
1483523510.325,32.227,32.715,46.387,27.344,122.559,0
1483523510.329,37.598,35.156,59.570,27.344,111.816,0
1483523510.333,30.762,36.621,58.105,20.508,93.750,0
1483523510.336,26.367,32.227,33.691,22.461,63.477,0
1483523510.340,32.715,35.645,42.480,22.461,73.242,0
1483523510.344,40.039,40.527,63.477,19.043,73.242,0
1483523510.348,46.387,48.828,63.965,25.879,71.289,0
1483523510.352,39.551,55.664,54.199,21.484,113.770,0
1483523510.356,27.344,43.945,28.809,10.254,107.422,0
1483523510.360,24.414,34.668,2.930,6.836,57.129,0
1483523510.364,26.367,38.086,39.551,11.719,43.945,0
1483523510.368,27.344,40.039,70.801,16.602,45.410,0
1483523510.372,31.250,42.969,58.105,17.090,83.496,0
1483523510.376,29.297,39.551,43.457,14.160,84.473,0
1483523510.379,33.203,44.922,52.246,23.926,56.641,0
1483523510.383,37.598,46.875,56.152,29.785,69.824,0
1483523510.387,29.785,37.109,41.016,14.648,46.875,0
1483523510.391,33.203,40.527,5.859,24.414,59.570,0
1483523510.395,38.086,44.922,27.832,35.156,74.219,0
1483523510.399,33.203,34.668,69.336,30.762,38.086,0
1483523510.403,31.738,30.762,61.035,27.832,26.855,0
1483523510.407,29.785,35.156,58.105,25.391,35.645,0
1483523510.411,41.504,44.922,57.617,35.645,41.504,0
1483523510.415,43.457,45.898,53.223,37.598,24.902,0
1483523510.419,43.457,41.992,45.898,43.945,19.043,0
1483523510.422,40.527,42.480,28.809,43.457,39.551,0
1483523510.426,36.133,38.574,9.766,35.645,41.992,0
1483523510.430,44.434,40.527,36.133,36.133,23.926,0
1483523510.434,44.922,40.527,53.711,27.832,15.137,0
1483523510.438,42.969,38.086,33.691,22.949,-1.953,0
1483523510.442,45.898,42.969,28.809,25.879,12.695,0
1483523510.446,47.852,43.457,41.504,31.250,-2.930,0
1483523510.450,49.316,41.504,52.734,33.691,-29.785,0
1483523510.454,53.223,46.387,32.715,40.039,8.789,0
1483523510.458,46.875,40.527,51.270,30.762,15.625,0
1483523510.461,49.805,43.457,56.152,37.109,-12.207,0
1483523510.465,59.570,55.664,27.832,56.641,-3.906,0
1483523510.469,57.129,56.152,64.941,53.711,39.062,0
1483523510.473,57.617,51.758,103.516,54.199,53.711,0
1483523510.477,52.734,50.293,97.168,47.363,22.461,0
1483523510.481,48.828,51.270,62.500,41.504,-15.625,0
1483523510.485,52.734,54.688,48.340,53.711,12.207,0
1483523510.489,48.340,51.270,52.246,44.434,36.621,0
1483523510.493,46.875,47.852,42.480,35.645,-25.879,0
1483523510.497,44.922,43.945,19.043,39.062,-41.504,0
1483523510.501,53.223,50.781,19.531,46.387,29.785,0
1483523510.504,59.082,58.594,55.176,45.410,39.062,0
1483523510.508,59.082,61.035,85.938,41.016,34.180,0
1483523510.512,62.012,62.500,74.219,47.363,8.301,0
1483523510.516,53.711,52.246,29.785,44.434,-2.930,0
1483523510.520,45.898,47.852,41.016,35.645,18.066,0
1483523510.524,43.457,43.945,62.988,37.109,10.742,0
1483523510.528,47.363,41.016,42.480,42.480,7.812,0
1483523510.532,62.500,51.758,52.734,52.246,1.953,0
1483523510.536,54.688,49.805,65.918,49.805,-21.973,0
1483523510.540,47.363,50.293,44.434,43.945,-50.781,0
1483523510.544,52.246,51.758,40.039,42.480,-27.344,0
1483523510.547,39.551,34.668,51.270,27.832,-3.418,0
1483523510.551,32.715,34.180,56.641,24.414,-4.395,0
1483523510.555,36.621,36.133,56.641,34.180,9.766,0
1483523510.559,41.016,34.180,28.809,37.109,15.137,0
1483523510.563,43.945,35.645,-11.230,37.109,-2.930,0
1483523510.567,46.875,41.504,14.160,40.039,14.160,0
1483523510.571,45.410,42.480,74.219,39.551,30.273,0
1483523510.575,43.945,38.574,91.797,35.156,5.859,0
1483523510.579,38.574,32.715,61.523,25.879,31.738,0
1483523510.583,41.504,36.133,37.598,38.574,27.832,0
1483523510.586,49.316,42.480,39.062,48.340,-32.715,0
1483523510.590,39.551,32.715,41.016,26.367,0.000,0
1483523510.594,40.039,31.738,59.082,20.020,15.625,0
1483523510.598,45.898,35.645,67.871,26.367,9.277,0
1483523510.602,46.387,36.133,47.852,29.297,18.066,0
1483523510.606,48.828,37.598,29.785,38.086,45.410,0
1483523510.610,43.945,31.738,22.949,33.691,23.926,0
1483523510.614,47.363,32.227,34.180,27.832,-29.297,0
1483523510.618,51.758,31.250,29.785,34.668,-12.207,0
1483523510.622,51.270,25.391,18.066,36.133,20.996,0
1483523510.626,54.199,32.227,53.711,40.039,18.066,0
1483523510.629,57.129,40.527,66.895,43.945,-1.953,0
1483523510.633,43.457,28.320,48.828,30.762,18.066,0
1483523510.637,45.898,24.414,51.758,37.109,43.945,0
1483523510.641,54.688,34.668,34.180,44.434,52.246,0
1483523510.645,45.898,32.715,29.785,35.645,53.223,0
1483523510.649,38.574,27.832,56.641,31.250,55.176,0
1483523510.653,30.762,21.484,47.852,29.785,73.730,0
1483523510.657,37.598,31.738,31.738,38.574,62.012,0
1483523510.661,40.527,36.621,34.668,41.992,44.922,0
1483523510.665,28.320,28.320,48.828,31.738,36.621,0
1483523510.669,22.949,29.785,54.688,24.414,15.137,0
1483523510.672,20.508,29.785,19.043,22.949,6.836,0
1483523510.676,25.879,39.062,0.977,22.949,15.625,0
1483523510.680,35.156,42.480,48.340,22.949,44.922,0
1483523510.684,24.902,26.855,60.547,11.230,58.594,0
1483523510.688,29.297,28.320,41.504,20.020,72.754,0
1483523510.692,43.457,38.086,34.668,28.320,51.270,0
1483523510.696,49.316,42.969,39.551,28.809,50.293,0
1483523510.700,54.199,42.480,40.039,31.250,59.082,0
1483523510.704,46.875,33.691,42.480,25.879,39.551,0
1483523510.708,40.527,29.785,41.992,14.648,46.875,0
1483523510.711,47.852,40.039,35.156,16.602,52.246,0
1483523510.715,52.246,44.434,-6.348,26.367,65.430,0
1483523510.719,41.016,31.738,-9.766,15.625,74.219,0
1483523510.723,33.691,29.785,42.969,7.812,80.566,0
1483523510.727,35.645,43.457,66.895,16.113,89.355,0
1483523510.731,33.691,42.969,53.711,23.926,80.078,0
1483523510.735,31.738,37.109,36.621,21.973,62.500,0
1483523510.739,34.180,36.621,42.969,26.855,102.051,0
1483523510.743,45.410,38.574,40.527,41.992,80.078,0
1483523510.747,38.086,31.738,43.945,35.156,49.316,0
1483523510.751,22.949,19.043,49.805,28.320,62.012,0
1483523510.754,33.691,25.879,36.133,41.016,62.988,0
1483523510.758,33.691,28.320,20.508,37.109,92.773,0
1483523510.762,23.438,20.508,30.273,28.809,74.219,0
1483523510.766,24.902,16.602,47.852,31.250,55.176,0
1483523510.770,34.180,21.973,45.898,35.645,67.871,0
1483523510.774,40.039,30.762,14.160,41.504,61.523,0
1483523510.778,21.973,17.578,14.648,21.484,25.391,0
1483523510.782,18.066,16.602,56.641,17.578,36.621,0
1483523510.786,24.902,25.391,64.453,27.832,44.922,0
1483523510.790,16.602,21.973,50.781,16.602,55.176,0
1483523510.794,8.789,18.555,36.133,11.719,62.988,0
1483523510.797,9.766,23.438,20.020,13.184,42.969,0
1483523510.801,10.254,28.320,20.020,11.230,43.457,0
1483523510.805,7.324,22.461,23.926,6.836,53.223,0
1483523510.809,-2.441,10.742,40.527,-3.418,59.082,0
1483523510.813,-9.277,8.789,56.641,-2.930,47.363,0
1483523510.817,-9.766,11.719,44.922,2.441,56.152,0
1483523510.821,-9.277,10.742,43.457,0.488,52.246,0
1483523510.825,-3.906,12.695,28.320,1.953,16.113,0
1483523510.829,-2.441,6.836,-5.859,-2.441,20.020,0
1483523510.833,-1.465,3.418,22.949,-3.906,33.203,0
1483523510.836,-2.930,-1.953,63.477,-5.859,37.598,0
1483523510.840,5.371,4.395,74.707,2.441,33.691,0
1483523510.844,15.137,13.672,67.871,9.766,47.363,0
1483523510.848,14.160,8.789,57.129,6.348,21.973,0
1483523510.852,14.160,10.742,58.594,9.766,9.766,0
1483523510.856,18.555,9.766,53.711,14.160,12.695,0
1483523510.860,20.996,5.859,48.828,10.742,3.906,0
1483523510.864,20.020,6.836,33.691,9.766,18.555,0
1483523510.868,27.344,11.719,13.184,19.043,10.742,0
1483523510.872,42.969,21.973,29.297,30.273,-11.719,0
1483523510.876,42.480,21.973,43.457,26.855,10.742,0
1483523510.879,30.273,13.184,64.941,19.531,20.996,0
1483523510.883,25.879,5.859,79.590,16.602,-15.137,0
1483523510.887,37.598,15.625,41.504,27.832,-18.555,0
1483523510.891,34.180,17.090,60.059,30.273,-6.836,0
1483523510.895,24.414,3.906,71.289,31.738,-34.180,0
1483523510.899,30.273,11.719,46.875,33.691,-41.504,0
1483523510.903,30.273,19.043,56.152,30.273,-12.695,0
1483523510.907,39.551,28.809,64.941,44.434,-35.645,0
1483523510.911,37.109,23.926,53.711,43.457,-69.824,0
1483523510.915,21.484,8.789,41.504,32.227,-95.215,0
1483523510.919,21.973,14.648,36.133,24.414,-78.613,0
1483523510.922,27.832,22.461,31.250,26.855,-35.156,0
1483523510.926,22.949,20.020,36.133,32.227,-68.848,0
1483523510.930,22.949,20.508,40.527,36.621,-68.848,0
1483523510.934,24.414,23.926,41.016,39.551,-43.945,0
1483523510.938,21.973,24.414,42.969,30.273,-66.406,0
1483523510.942,22.949,25.391,45.410,27.344,-78.613,0
1483523510.946,23.438,24.902,43.945,34.668,-80.078,0
1483523510.950,27.832,26.367,41.504,37.598,-89.355,0
1483523510.954,25.879,28.320,36.621,32.715,-82.520,0
1483523510.958,19.531,20.508,23.926,26.855,-82.031,0
1483523510.961,25.391,21.484,40.039,30.273,-113.770,0
1483523510.965,32.227,25.879,58.105,42.969,-85.938,0
1483523510.969,25.879,22.949,26.855,41.016,-70.312,0
1483523510.973,35.645,31.738,15.625,40.527,-57.617,0
1483523510.977,42.480,37.109,51.758,46.387,-36.133,0
1483523510.981,28.320,26.367,60.059,32.227,-20.996,0
1483523510.985,26.855,23.926,39.062,33.691,-23.926,0
1483523510.989,38.086,29.297,20.508,45.898,-76.172,0
1483523510.993,44.922,34.180,30.273,46.875,-118.652,0
1483523510.997,38.574,30.762,25.391,39.551,-108.398,0
1483523511.001,42.969,31.738,38.086,43.945,-68.848,0
1483523511.004,53.223,40.527,60.059,55.664,-58.105,0
1483523511.008,50.781,45.898,6.836,51.758,-49.805,0
1483523511.012,39.062,31.738,-30.273,37.109,-39.062,0
1483523511.016,31.250,23.438,36.133,32.227,-61.035,0
1483523511.020,34.180,28.320,85.449,38.574,-42.480,0
1483523511.024,28.809,24.902,66.895,31.250,-20.508,0
1483523511.028,29.785,24.902,45.410,29.297,-29.297,0
1483523511.032,36.621,27.832,37.109,39.062,-48.828,0
1483523511.036,38.574,35.645,29.785,34.180,-63.965,0
1483523511.040,35.156,41.016,37.598,29.785,-58.105,0
1483523511.044,34.668,33.203,39.551,35.156,-64.941,0
1483523511.047,36.133,28.320,32.227,35.156,-78.125,0
1483523511.051,38.086,28.809,39.551,41.016,-73.242,0
1483523511.055,47.363,29.785,46.387,44.922,-30.273,0
1483523511.059,50.293,24.414,34.180,43.457,-20.020,0
1483523511.063,45.898,21.484,41.016,44.434,-66.406,0
1483523511.067,43.945,19.531,51.270,42.480,-62.500,0
1483523511.071,44.922,15.137,29.785,47.852,-35.156,0
1483523511.075,46.387,18.555,29.297,47.363,-45.410,0
1483523511.079,40.527,15.625,34.180,41.504,-50.293,0
1483523511.083,42.969,21.973,34.180,45.410,-37.109,0
1483523511.086,49.316,27.832,41.016,47.852,-10.742,0
1483523511.090,42.969,22.461,42.480,38.574,-6.836,0
1483523511.094,40.039,22.949,35.156,40.039,-62.012,0
1483523511.098,43.457,28.809,18.066,40.039,-77.637,0
1483523511.102,46.387,31.738,32.715,40.527,-40.039,0
1483523511.106,39.551,22.461,52.246,40.527,-17.578,0
1483523511.110,32.227,18.066,45.410,26.855,-56.641,0
1483523511.114,35.156,23.438,46.387,25.879,-66.895,0
1483523511.118,36.133,22.949,46.387,37.109,-28.320,0
1483523511.122,32.715,17.578,47.852,39.551,-24.902,0
1483523511.126,35.645,22.461,54.199,44.434,-48.828,0
1483523511.129,34.668,26.855,42.969,40.527,-52.734,0
1483523511.133,37.598,34.180,42.480,43.457,-49.316,0
1483523511.137,40.039,34.180,49.805,52.734,-55.176,0
1483523511.141,34.180,23.438,45.410,42.480,-11.230,0
1483523511.145,34.180,23.438,37.598,36.133,-28.809,0
1483523511.149,41.504,29.297,26.367,42.969,-43.457,0
1483523511.153,48.828,31.738,29.785,49.316,-27.832,0
1483523511.157,55.176,36.621,51.270,54.199,-64.941,0
1483523511.161,52.246,32.227,62.988,58.105,-61.523,0
1483523511.165,50.293,28.809,51.270,54.688,-64.453,0
1483523511.169,57.617,36.133,45.410,56.641,-70.801,0
1483523511.172,47.363,28.320,45.410,55.664,-51.758,0
1483523511.176,44.922,27.832,19.531,51.270,-50.781,0
1483523511.180,49.316,30.273,16.602,48.340,-9.766,0
1483523511.184,42.480,25.879,50.293,39.551,14.160,0
1483523511.188,44.922,31.250,63.477,39.062,-28.809,0
1483523511.192,54.688,37.109,59.570,46.387,-28.809,0
1483523511.196,52.734,37.598,44.922,44.922,-31.250,0
1483523511.200,53.223,38.574,37.598,44.434,-42.480,0
1483523511.204,45.898,31.738,45.898,37.109,-23.438,0
1483523511.208,36.133,28.809,39.062,35.156,-16.113,0
1483523511.211,41.504,38.086,36.621,43.457,-44.434,0
1483523511.215,45.898,41.504,29.297,45.898,-42.969,0
1483523511.219,41.016,36.621,-0.488,46.387,-29.297,0
1483523511.223,41.016,34.668,21.973,50.293,-19.531,0
1483523511.227,31.738,26.367,63.477,44.434,-9.766,0
1483523511.231,26.367,18.555,63.965,30.273,-26.855,0
1483523511.235,38.086,23.926,61.035,41.504,-29.785,0
1483523511.239,42.480,24.414,31.250,49.316,-11.230,0
1483523511.243,53.711,33.203,-17.090,54.688,-45.898,0
1483523511.247,62.012,38.086,27.832,58.594,-32.715,0
