timestamps,TP9,AF7,AF8,TP10,Right AUX,Marker0
1506385215.974,65.430,35.645,44.434,57.617,23.926,0
1506385215.977,62.500,33.203,44.434,55.176,9.766,0
1506385215.981,64.941,32.227,37.109,57.129,5.371,0
1506385215.985,68.359,33.691,35.645,61.035,8.789,0
1506385215.989,61.523,30.273,36.133,59.570,27.832,0
1506385215.993,51.270,22.461,36.621,57.129,30.762,0
1506385215.997,51.270,25.391,35.645,56.641,50.781,0
1506385216.001,57.129,31.738,38.086,59.082,42.480,0
1506385216.005,54.688,24.902,39.551,64.453,32.227,0
1506385216.009,53.711,26.855,35.156,60.547,29.785,0
1506385216.013,54.199,30.762,34.668,51.758,23.438,0
1506385216.017,51.758,26.855,39.551,58.105,40.527,0
1506385216.020,59.570,30.762,44.922,59.570,59.082,0
1506385216.024,57.617,27.832,41.504,58.105,34.180,0
1506385216.028,44.922,24.902,37.109,55.176,28.809,0
1506385216.032,43.457,23.926,39.551,57.129,54.688,0
1506385216.036,52.734,25.879,41.016,56.152,44.922,0
1506385216.040,60.547,28.320,42.969,53.711,38.086,0
1506385216.044,56.641,30.762,39.551,52.246,41.504,0
1506385216.048,52.734,30.762,39.062,55.664,28.809,0
1506385216.052,45.410,28.809,46.387,63.477,43.457,0
1506385216.056,41.992,36.133,39.062,48.828,29.785,0
1506385216.060,49.805,36.621,30.273,40.039,46.875,0
1506385216.063,53.223,23.438,37.109,43.945,71.289,0
1506385216.067,47.852,26.855,41.992,48.340,17.090,0
1506385216.071,50.293,26.855,34.668,43.945,21.973,0
1506385216.075,51.270,23.438,33.203,40.039,24.902,0
1506385216.079,52.734,25.879,42.480,41.016,20.996,0
1506385216.083,58.105,31.250,43.945,52.734,33.691,0
1506385216.087,52.246,34.668,37.598,50.293,31.250,0
1506385216.091,50.781,28.809,36.133,40.527,32.715,0
1506385216.095,44.922,20.020,31.250,35.645,37.598,0
1506385216.099,43.457,18.555,30.762,35.156,37.109,0
1506385216.102,42.480,30.273,30.762,32.227,19.043,0
1506385216.106,33.691,27.832,21.973,32.227,20.020,0
1506385216.110,40.039,21.973,29.297,47.363,14.160,0
1506385216.114,44.434,22.949,38.086,53.223,20.020,0
1506385216.118,34.180,26.855,32.715,38.086,31.250,0
1506385216.122,31.738,23.438,35.645,31.250,37.109,0
1506385216.126,41.016,19.531,39.551,42.480,19.531,0
1506385216.130,43.945,23.438,41.992,47.363,1.953,0
1506385216.134,32.227,21.484,39.551,44.434,16.602,0
1506385216.138,31.738,19.531,36.133,38.574,22.461,0
1506385216.142,38.574,16.602,36.133,40.527,15.137,0
1506385216.145,33.203,18.066,31.250,35.645,5.859,0
1506385216.149,30.762,20.996,28.809,32.227,-0.977,0
1506385216.153,26.855,23.438,29.785,33.203,12.207,0
1506385216.157,28.809,20.508,36.621,43.457,-3.418,0
1506385216.161,32.227,22.461,41.504,47.363,-29.785,0
1506385216.165,23.926,24.902,40.527,39.062,-5.859,0
1506385216.169,20.508,19.043,40.039,37.598,24.902,0
1506385216.173,27.344,24.902,40.039,42.480,21.484,0
1506385216.177,36.621,26.367,36.133,41.504,10.742,0
1506385216.181,33.691,20.020,33.691,33.203,5.859,0
1506385216.185,29.297,24.902,26.855,20.996,-12.207,0
1506385216.188,30.273,25.879,22.461,22.949,-8.301,0
1506385216.192,38.086,31.738,30.273,29.297,9.277,0
1506385216.196,41.016,32.227,31.250,20.020,45.898,0
1506385216.200,38.086,24.414,31.738,30.273,62.988,0
1506385216.204,44.434,27.344,30.762,40.039,60.547,0
1506385216.208,41.504,33.203,30.273,27.344,44.922,0
1506385216.212,32.715,22.949,26.855,13.184,61.035,0
1506385216.216,36.621,16.113,25.879,16.602,66.406,0
1506385216.220,24.902,26.855,26.855,14.160,43.945,0
1506385216.224,23.926,30.273,20.996,10.742,57.129,0
1506385216.227,33.691,27.832,18.066,23.438,68.848,0
1506385216.231,31.738,30.273,27.832,30.273,74.707,0
1506385216.235,32.227,39.551,26.367,21.484,49.316,0
1506385216.239,31.250,45.410,18.066,22.461,33.203,0
1506385216.243,33.691,34.668,17.090,27.344,32.227,0
1506385216.247,35.645,37.109,16.113,21.484,29.297,0
1506385216.251,34.668,41.504,15.137,23.438,37.598,0
1506385216.255,40.527,40.527,17.090,30.762,55.664,0
1506385216.259,42.480,33.691,17.578,29.297,54.199,0
1506385216.263,36.133,31.250,21.484,24.414,28.320,0
1506385216.267,28.809,33.691,17.578,14.160,30.273,0
1506385216.270,25.391,22.461,9.277,12.207,50.293,0
1506385216.274,29.785,20.508,16.113,28.320,43.457,0
1506385216.278,27.344,14.160,20.020,28.320,6.348,0
1506385216.282,18.555,8.789,9.277,9.766,-10.254,0
1506385216.286,26.367,15.137,7.812,16.113,55.664,0
1506385216.290,31.250,11.719,12.207,27.832,80.078,0
1506385216.294,18.555,11.230,17.578,27.832,20.508,0
1506385216.298,14.160,8.301,17.578,15.625,-7.324,0
1506385216.302,16.602,-0.977,14.648,3.418,12.207,0
1506385216.306,7.812,-10.254,14.160,-3.418,33.203,0
1506385216.310,5.859,-7.812,20.508,0.488,28.809,0
1506385216.313,6.836,-10.254,16.602,-5.371,25.879,0
1506385216.317,5.859,-39.551,12.695,-7.324,38.574,0
1506385216.321,4.395,-60.059,22.949,7.812,33.691,0
1506385216.325,-2.930,-56.641,16.602,9.766,27.344,0
1506385216.329,-12.695,-57.617,9.766,-1.465,42.969,0
1506385216.333,-7.324,-64.453,16.602,-10.254,40.527,0
1506385216.337,0.000,-71.289,12.695,-9.766,16.113,0
1506385216.341,-9.277,-78.125,8.301,-12.695,8.301,0
1506385216.345,-10.254,-83.496,3.906,-17.090,29.785,0
1506385216.349,-8.789,-82.520,0.000,-10.254,41.504,0
1506385216.352,-6.348,-65.918,8.301,-0.488,52.734,0
1506385216.356,-8.301,-66.406,17.090,1.465,58.105,0
1506385216.360,-10.254,-75.684,7.324,-4.883,33.691,0
1506385216.364,-6.348,-76.660,1.953,-9.766,24.414,0
1506385216.368,-3.906,-71.777,14.648,-4.395,33.691,0
1506385216.372,-6.836,-68.848,3.418,-15.625,45.898,0
1506385216.376,-14.648,-68.359,-10.742,-30.762,41.992,0
1506385216.380,-5.859,-69.336,-6.348,-24.902,51.758,0
1506385216.384,10.742,-66.895,3.906,-11.230,28.809,0
1506385216.388,0.000,-57.617,2.930,-13.672,12.207,0
1506385216.392,-8.789,-69.824,-0.488,-20.020,65.918,0
1506385216.395,-6.836,-80.566,6.836,-8.301,54.688,0
1506385216.399,-4.395,-76.660,11.230,-5.859,5.371,0
1506385216.403,0.000,-70.312,5.859,-10.742,14.648,0
1506385216.407,0.977,-66.406,1.465,-7.324,42.480,0
1506385216.411,4.395,-66.895,4.395,-5.859,12.207,0
1506385216.415,1.953,-59.570,4.883,-8.301,23.438,0
1506385216.419,-6.836,-44.434,4.395,-9.277,68.848,0
1506385216.423,-6.836,-36.133,4.883,-6.348,49.316,0
1506385216.427,4.883,-35.645,7.324,1.953,26.855,0
1506385216.431,5.859,-20.020,13.184,9.277,4.395,0
1506385216.435,-6.348,1.465,16.602,10.254,-3.418,0
1506385216.438,-2.930,5.371,16.602,14.648,21.973,0
1506385216.442,6.348,6.348,15.625,23.926,48.340,0
1506385216.446,6.348,8.301,14.160,18.555,49.805,0
1506385216.450,8.789,11.719,14.160,3.906,50.781,0
1506385216.454,8.301,13.672,17.090,3.906,51.758,0
1506385216.458,2.930,12.695,8.789,4.395,53.711,0
1506385216.462,15.137,16.602,12.695,5.859,51.270,0
1506385216.466,25.391,26.367,24.414,17.578,48.828,0
1506385216.470,20.020,31.250,15.625,13.672,40.039,0
1506385216.474,23.926,29.785,17.090,8.789,48.828,0
1506385216.477,20.508,30.762,22.461,17.578,28.320,0
1506385216.481,13.672,30.273,14.160,18.066,5.859,0
1506385216.485,15.625,25.879,14.648,22.949,23.438,0
1506385216.489,11.719,29.785,17.090,9.277,25.879,0
1506385216.493,14.160,33.203,10.254,-2.930,10.742,0
1506385216.497,21.484,23.438,17.578,6.836,20.996,0
1506385216.501,22.461,18.555,20.020,11.719,17.578,0
1506385216.505,20.996,19.531,10.254,7.812,2.441,0
1506385216.509,17.090,19.043,13.184,6.348,20.996,0
1506385216.513,12.695,12.695,18.555,14.648,30.762,0
1506385216.517,22.461,7.812,23.926,27.832,-14.160,0
1506385216.520,31.738,18.066,27.832,31.738,-8.789,0
1506385216.524,30.762,22.949,26.367,27.344,17.578,0
1506385216.528,33.203,15.625,27.832,33.203,17.090,0
1506385216.532,38.086,20.508,31.250,44.922,8.301,0
1506385216.536,41.504,20.508,30.273,38.086,-0.977,0
1506385216.540,37.598,12.207,24.902,28.809,27.344,0
1506385216.544,32.715,11.230,27.832,44.922,39.062,0
1506385216.548,31.250,16.113,24.902,30.273,17.090,0
1506385216.552,38.086,12.207,19.531,19.043,-8.301,0
1506385216.556,47.852,15.137,32.227,31.250,5.859,0
1506385216.560,43.945,19.043,35.156,28.809,36.133,0
1506385216.563,47.363,9.766,33.203,32.227,-5.859,0
1506385216.567,59.082,21.484,37.109,44.922,-7.324,0
1506385216.571,67.871,24.902,32.227,44.922,42.969,0
1506385216.575,66.895,17.578,27.832,35.645,50.293,0
1506385216.579,53.711,17.578,29.297,35.156,28.320,0
1506385216.583,44.434,26.855,30.273,36.621,31.738,0
1506385216.587,49.805,21.484,25.879,31.250,56.641,0
1506385216.591,57.617,11.230,29.297,41.992,24.414,0
1506385216.595,49.316,14.648,29.785,48.828,-10.742,0
1506385216.599,45.898,17.578,24.414,34.180,41.016,0
1506385216.602,56.641,19.531,24.414,30.762,59.570,0
1506385216.606,52.734,19.043,19.043,28.809,28.809,0
1506385216.610,50.293,20.020,19.043,19.531,11.719,0
1506385216.614,55.176,25.391,20.996,25.391,-19.043,0
1506385216.618,58.105,24.414,28.809,29.785,7.324,0
1506385216.622,56.641,26.367,38.086,34.180,49.805,0
1506385216.626,54.688,31.738,36.133,44.922,43.457,0
1506385216.630,57.617,30.762,32.715,45.410,33.691,0
1506385216.634,64.941,26.367,34.668,56.152,16.113,0
1506385216.638,62.500,26.367,27.344,52.734,32.715,0
1506385216.642,67.871,23.926,22.949,45.410,48.340,0
1506385216.645,72.754,19.531,28.320,42.480,27.344,0
1506385216.649,59.082,17.578,31.738,43.945,37.109,0
1506385216.653,47.363,20.508,30.273,49.805,31.250,0
1506385216.657,42.480,26.855,26.855,42.480,26.855,0
1506385216.661,35.645,22.461,23.926,38.086,55.176,0
1506385216.665,34.668,16.602,28.320,45.898,43.457,0
1506385216.669,31.250,23.438,28.320,41.016,10.742,0
1506385216.673,32.227,27.344,23.438,38.574,24.902,0
1506385216.677,50.293,27.832,35.645,43.457,47.852,0
1506385216.681,50.781,20.996,45.898,44.434,25.391,0
1506385216.685,37.109,21.484,37.109,28.809,-3.906,0
1506385216.688,41.504,29.785,24.414,14.648,42.969,0
1506385216.692,52.734,25.391,31.738,31.250,76.660,0
1506385216.696,47.363,19.043,36.621,39.551,38.086,0
1506385216.700,44.922,29.785,34.668,29.785,25.879,0
1506385216.704,44.434,41.016,37.598,26.367,50.781,0
1506385216.708,36.133,34.668,34.668,34.668,73.730,0
1506385216.712,35.156,22.461,35.156,39.062,68.848,0
1506385216.716,35.645,30.762,42.969,33.203,-4.395,0
1506385216.720,33.691,37.109,35.645,27.832,1.465,0
1506385216.724,28.320,27.344,20.508,13.672,61.035,0
1506385216.727,26.367,30.762,15.625,14.648,33.203,0
1506385216.731,36.133,34.668,20.020,22.949,15.625,0
1506385216.735,36.133,32.227,29.785,14.160,37.598,0
1506385216.739,29.785,22.949,25.879,5.859,53.223,0
1506385216.743,30.762,25.391,22.461,12.695,35.645,0
1506385216.747,37.598,33.203,24.902,17.090,35.156,0
1506385216.751,41.992,33.691,23.926,6.348,52.246,0
1506385216.755,38.574,29.785,27.832,16.602,45.898,0
1506385216.759,41.504,26.367,27.832,23.438,13.672,0
1506385216.763,48.340,36.133,28.320,18.066,-14.160,0
1506385216.767,37.109,30.273,20.508,7.324,15.137,0
1506385216.770,20.508,19.043,22.461,7.324,33.691,0
1506385216.774,24.414,26.855,39.062,17.578,7.324,0
1506385216.778,24.902,35.156,34.180,10.254,6.836,0
1506385216.782,18.066,23.438,15.137,2.441,27.832,0
1506385216.786,16.602,7.812,11.230,1.953,9.766,0
1506385216.790,7.812,14.160,20.020,-1.465,-23.438,0
1506385216.794,9.766,26.855,18.066,2.441,8.789,0
1506385216.798,16.602,12.207,15.625,18.066,58.594,0
1506385216.802,32.227,16.113,28.320,23.438,56.152,0
1506385216.806,31.738,27.832,30.762,15.137,37.109,0
1506385216.810,20.996,26.367,18.066,7.812,25.879,0
1506385216.813,21.973,26.367,17.578,12.207,36.621,0
1506385216.817,16.602,33.691,15.137,15.137,33.691,0
1506385216.821,8.789,35.156,10.254,0.977,38.574,0
1506385216.825,10.254,31.250,15.625,-6.348,42.480,0
1506385216.829,12.207,29.297,13.184,-4.883,45.410,0
1506385216.833,10.254,24.902,14.648,-11.230,12.207,0
1506385216.837,8.301,33.203,25.879,-12.207,-9.766,0
1506385216.841,-1.465,29.297,14.160,0.000,33.203,0
1506385216.845,9.766,29.297,19.043,29.297,44.922,0
1506385216.849,22.949,31.738,36.133,45.410,18.066,0
1506385216.852,-9.277,30.762,17.578,0.000,3.418,0
1506385216.856,-2.441,29.785,8.301,-10.254,41.992,0
1506385216.860,28.320,20.508,15.625,9.766,34.180,0
1506385216.864,11.719,19.043,6.836,1.465,28.320,0
1506385216.868,-10.254,19.531,-1.465,-15.625,53.711,0
1506385216.872,-3.906,23.438,7.812,-6.348,73.730,0
1506385216.876,15.625,27.344,27.344,19.531,58.594,0
1506385216.880,14.160,13.672,35.645,0.977,35.156,0
1506385216.884,3.906,-7.812,29.297,-6.836,57.617,0
1506385216.888,14.160,-9.277,14.648,-2.441,67.871,0
1506385216.892,14.160,-17.090,7.812,-10.254,42.480,0
1506385216.895,-3.418,-15.137,16.602,-13.672,13.672,0
1506385216.899,-11.230,-6.348,12.207,-17.578,31.250,0
1506385216.903,-14.160,-3.906,7.812,-19.531,56.641,0
1506385216.907,-23.926,8.789,6.836,-34.668,36.133,0
1506385216.911,-17.090,12.207,12.207,-33.203,18.555,0
1506385216.915,-3.906,9.277,13.672,-32.227,32.715,0
1506385216.919,-8.789,12.695,11.719,-29.785,47.363,0
1506385216.923,-9.766,7.324,10.254,-21.973,26.367,0
1506385216.927,-12.695,4.883,5.859,-28.320,-0.977,0
1506385216.931,-16.602,8.789,5.859,-26.367,24.902,0
1506385216.935,-1.953,10.742,10.742,-22.461,15.137,0
1506385216.938,-3.418,17.578,11.719,-16.602,-8.301,0
1506385216.942,-22.461,19.043,2.930,-10.254,11.719,0
1506385216.946,-31.250,5.371,-10.742,-18.555,48.340,0
1506385216.950,-16.113,-1.953,-5.859,-16.602,30.762,0
1506385216.954,-11.719,10.742,0.000,-19.531,9.277,0
1506385216.958,-18.555,17.090,-0.488,-29.297,33.691,0
1506385216.962,-8.789,15.137,3.418,-21.973,58.105,0
1506385216.966,-3.906,13.672,5.859,-17.090,27.832,0
1506385216.970,-3.418,13.184,4.883,-17.578,9.277,0
1506385216.974,-2.441,16.113,2.441,-14.648,49.805,0
1506385216.977,11.230,13.672,9.766,-0.977,43.945,0
1506385216.981,12.207,20.020,5.859,0.000,-2.441,0
1506385216.985,4.395,32.227,13.672,-5.371,-10.254,0
1506385216.989,3.906,27.832,26.855,8.789,48.340,0
1506385216.993,-2.930,17.578,18.066,8.789,55.176,0
1506385216.997,0.977,11.719,12.207,-2.441,35.645,0
1506385217.001,17.090,22.949,17.090,-3.906,15.625,0
1506385217.005,8.301,30.762,21.484,-15.137,-10.742,0
1506385217.009,0.000,20.508,22.461,-13.184,-8.789,0
1506385217.013,4.395,20.996,16.602,-1.465,-23.438,0
1506385217.017,7.324,31.738,20.020,6.348,-4.883,0
1506385217.020,4.395,33.203,27.344,7.324,39.551,0
1506385217.024,-2.441,26.855,16.113,7.812,29.297,0
1506385217.028,-2.930,22.461,11.719,6.836,12.207,0
1506385217.032,-0.977,14.160,7.812,10.254,20.508,0
1506385217.036,0.000,7.324,5.371,19.043,26.855,0
1506385217.040,8.789,7.812,17.090,25.879,10.742,0
1506385217.044,13.672,-4.883,13.184,22.461,5.859,0
1506385217.048,8.789,-11.230,9.766,11.230,4.395,0
1506385217.052,7.324,-9.766,-0.488,7.324,33.691,0
1506385217.056,18.066,-10.254,-0.488,10.254,46.387,0
1506385217.060,29.785,-4.395,18.555,24.414,16.113,0
1506385217.063,28.809,3.906,22.949,34.180,3.906,0
1506385217.067,25.879,-3.418,13.184,29.297,7.812,0
1506385217.071,32.715,-3.906,13.184,21.973,7.324,0
1506385217.075,31.250,7.812,14.648,23.926,4.395,0
1506385217.079,26.367,3.418,19.531,27.832,-4.395,0
1506385217.083,24.902,1.465,14.648,19.531,-7.324,0
1506385217.087,31.250,2.930,9.277,15.137,-23.438,0
1506385217.091,37.109,8.789,15.625,20.508,-20.020,0
1506385217.095,30.762,13.184,12.207,19.531,8.789,0
1506385217.099,38.086,20.508,23.438,27.344,-0.977,0
1506385217.102,39.062,27.832,28.320,32.227,-21.973,0
1506385217.106,38.574,30.762,22.949,24.414,-17.578,0
1506385217.110,39.551,24.414,20.996,9.766,19.531,0
1506385217.114,28.320,13.184,15.625,-8.301,16.113,1
1506385217.118,25.879,13.672,18.555,-2.441,14.648,0
1506385217.122,22.461,24.414,22.949,5.859,50.293,0
1506385217.126,22.461,28.809,23.438,8.301,69.824,0
1506385217.130,22.461,20.020,25.391,16.602,61.523,0
1506385217.134,11.719,24.414,27.832,21.973,37.598,0
1506385217.138,5.859,32.715,24.902,20.508,43.945,0
1506385217.142,5.859,24.902,23.438,16.113,41.504,0
1506385217.145,8.789,7.324,22.949,12.695,41.992,0
1506385217.149,13.672,10.742,19.043,14.648,19.043,0
1506385217.153,5.371,22.949,10.254,7.812,-5.371,0
1506385217.157,-2.930,20.996,9.277,6.348,40.527,0
1506385217.161,-3.418,13.184,20.508,11.230,58.594,0
1506385217.165,6.348,20.020,30.273,14.160,9.766,0
1506385217.169,30.273,42.969,27.832,32.227,5.859,0
1506385217.173,40.039,35.645,29.785,51.270,16.602,0
1506385217.177,39.062,28.809,39.551,42.969,14.648,0
1506385217.181,43.457,34.180,35.645,48.828,29.297,0
1506385217.185,28.320,27.344,26.855,39.551,24.902,0
1506385217.188,12.207,21.973,20.996,22.461,30.273,0
1506385217.192,9.277,28.320,19.043,24.414,30.762,0
1506385217.196,17.578,30.273,20.508,27.344,-3.418,0
1506385217.200,25.391,30.273,17.090,34.668,24.414,0
1506385217.204,21.973,27.832,14.648,20.020,53.711,0
1506385217.208,23.438,20.996,17.578,13.672,22.949,0
1506385217.212,23.926,30.762,20.996,20.996,3.418,0
1506385217.216,28.809,28.320,12.695,6.836,26.367,0
1506385217.220,33.203,25.879,13.672,8.301,14.160,0
1506385217.224,30.762,30.273,14.648,21.484,14.160,0
1506385217.227,33.203,35.645,13.672,19.043,32.227,0
1506385217.231,20.996,37.598,12.695,12.207,42.480,0
1506385217.235,22.949,32.715,20.020,27.832,66.895,0
1506385217.239,23.438,38.086,18.555,32.715,32.227,0
1506385217.243,8.301,43.945,13.672,18.066,30.273,0
1506385217.247,11.719,32.715,11.719,17.090,54.199,0
1506385217.251,18.066,31.250,8.301,12.695,11.719,0
1506385217.255,24.902,34.668,8.301,16.602,-10.254,0
1506385217.259,16.113,34.180,8.789,23.438,8.301,0
1506385217.263,7.812,35.156,8.789,5.859,21.484,0
1506385217.267,33.203,34.180,10.742,6.836,24.414,0
1506385217.270,44.434,41.992,15.137,29.297,0.488,0
1506385217.274,26.367,52.246,14.160,35.156,11.230,0
1506385217.278,20.996,35.156,10.254,24.414,34.668,0
1506385217.282,22.461,21.484,8.301,10.742,17.578,0
1506385217.286,20.508,35.156,17.090,20.020,2.441,0
1506385217.290,10.742,41.504,10.742,20.020,0.977,0
1506385217.294,1.953,37.109,9.277,19.531,32.715,0
1506385217.298,6.348,39.062,16.602,21.484,32.227,0
1506385217.302,5.859,36.133,16.113,9.277,15.137,0
1506385217.306,-4.395,32.715,10.254,6.836,33.203,0
1506385217.310,8.301,33.203,6.348,14.160,25.879,0
1506385217.313,33.691,34.668,14.160,11.719,-1.465,0
1506385217.317,30.762,40.039,18.555,6.836,5.859,0
1506385217.321,12.695,34.668,16.113,1.953,39.062,0
1506385217.325,7.812,21.484,3.418,2.441,40.039,0
1506385217.329,11.230,23.438,-1.465,-6.348,45.898,0
1506385217.333,13.672,36.133,9.766,-9.277,47.363,0
1506385217.337,7.812,29.785,3.418,3.418,42.969,0
1506385217.341,30.762,23.438,0.000,9.277,43.945,0
1506385217.345,39.062,30.762,15.137,26.367,27.344,0
1506385217.349,20.996,30.273,17.578,38.086,39.062,0
1506385217.352,25.879,38.574,16.602,38.574,49.316,0
1506385217.356,26.367,47.363,20.020,23.926,43.945,0
1506385217.360,24.414,42.969,17.090,5.859,21.484,0
1506385217.364,28.320,39.062,8.789,0.977,21.484,0
1506385217.368,20.508,41.016,2.441,-0.488,50.293,0
1506385217.372,21.484,41.992,11.230,5.859,56.152,0
1506385217.376,20.020,51.758,18.555,14.160,40.039,0
1506385217.380,0.000,49.805,6.348,5.371,57.129,0
1506385217.384,15.625,38.086,5.371,15.625,62.988,0
1506385217.388,32.715,44.922,13.184,20.020,48.340,0
1506385217.392,17.090,48.340,20.996,10.742,33.203,0
1506385217.395,-2.930,34.668,18.066,0.977,49.316,0
1506385217.399,8.789,27.344,14.648,6.836,51.758,0
1506385217.403,24.414,33.203,12.207,19.531,28.809,0
1506385217.407,22.461,43.457,6.836,16.602,30.762,0
1506385217.411,17.578,43.457,10.742,19.043,38.574,0
1506385217.415,7.324,30.762,12.695,4.395,64.453,0
1506385217.419,-4.395,29.785,8.301,0.488,55.664,0
1506385217.423,-9.277,41.992,0.977,5.371,42.969,0
1506385217.427,10.254,41.992,4.395,13.672,63.477,0
1506385217.431,12.695,33.691,6.836,10.254,57.129,0
1506385217.435,-3.906,35.645,5.859,-3.418,18.066,0
1506385217.438,13.672,44.922,17.578,-1.953,-3.418,0
1506385217.442,20.508,40.527,19.531,2.930,20.508,0
1506385217.446,15.625,31.250,25.879,17.578,15.625,0
1506385217.450,2.930,33.691,16.113,8.301,-1.465,0
1506385217.454,0.977,37.109,-1.465,-6.836,10.254,0
1506385217.458,15.625,34.668,11.719,5.371,30.273,0
1506385217.462,23.438,26.855,19.043,8.789,25.391,0
1506385217.466,18.555,29.785,14.648,6.348,17.090,0
1506385217.470,11.230,28.320,-3.906,-2.441,17.578,0
1506385217.474,20.996,16.602,-5.859,-1.465,22.461,0
1506385217.477,28.809,25.879,15.137,26.367,24.902,0
1506385217.481,28.809,20.996,16.602,37.598,30.273,0
1506385217.485,28.809,8.789,8.301,20.996,35.156,0
1506385217.489,22.949,4.883,-9.277,2.930,30.273,0
1506385217.493,22.949,1.953,-14.648,7.812,7.812,0
1506385217.497,26.367,5.859,-3.418,14.160,5.859,0
1506385217.501,17.578,3.906,-5.371,8.301,35.156,0
1506385217.505,25.879,2.930,-2.930,9.277,43.945,0
1506385217.509,25.879,2.930,5.859,7.324,25.391,0
1506385217.513,7.324,1.465,1.953,-0.488,23.926,0
1506385217.517,20.020,7.324,8.301,4.395,39.062,0
1506385217.520,29.785,8.789,19.043,22.461,36.621,0
1506385217.524,19.043,3.418,12.695,8.789,27.832,0
1506385217.528,18.555,1.465,6.836,-5.859,53.223,0
1506385217.532,20.508,-1.953,9.277,0.977,61.523,0
1506385217.536,23.438,-4.395,10.742,11.719,29.297,0
1506385217.540,13.672,-4.883,11.230,-1.465,-2.930,0
1506385217.544,3.418,-5.371,7.324,-18.555,13.184,0
1506385217.548,-0.977,-13.184,7.812,-2.441,18.555,0
1506385217.552,-11.719,-18.066,-4.395,-6.348,-3.418,0
1506385217.556,0.977,-4.395,-1.953,-4.395,2.441,0
1506385217.560,19.531,1.465,14.648,-4.395,4.883,0
1506385217.563,7.812,-13.184,11.230,-16.602,-1.465,0
1506385217.567,17.090,-0.977,20.020,-1.953,4.395,0
1506385217.571,18.066,5.371,19.531,2.441,30.762,0
1506385217.575,0.977,-2.441,19.043,-10.742,33.691,0
1506385217.579,11.230,-4.883,18.066,-12.695,52.246,0
1506385217.583,16.602,-5.859,20.508,-11.230,29.297,0
1506385217.587,17.578,-8.301,18.555,-7.324,-4.883,0
1506385217.591,21.973,-15.625,13.672,7.812,20.508,0
1506385217.595,21.973,-18.066,15.137,0.000,22.949,0
1506385217.599,23.438,-19.531,7.812,-20.508,20.508,0
1506385217.602,18.555,-13.184,14.160,-16.602,9.277,0
1506385217.606,23.926,-13.672,7.324,-11.230,21.484,0
1506385217.610,33.203,-20.508,2.441,-8.789,32.715,0
1506385217.614,34.668,-15.137,19.531,-4.883,13.184,0
1506385217.618,23.438,-10.254,7.324,-19.531,0.977,0
1506385217.622,20.996,-6.836,-3.418,-18.555,25.391,0
1506385217.626,20.508,-13.672,-4.883,-20.508,62.500,0
1506385217.630,11.230,-16.113,-8.789,-26.367,40.039,0
1506385217.634,9.766,1.953,-7.324,-20.508,0.977,0
1506385217.638,19.043,1.953,-4.395,-11.230,42.969,0
1506385217.642,28.320,-0.977,1.953,-1.465,41.016,0
1506385217.645,25.391,-0.977,-2.441,4.395,52.246,0
1506385217.649,12.207,-4.883,-10.254,-0.977,23.438,0
1506385217.653,1.953,-0.488,-15.137,-6.836,-6.836,0
1506385217.657,0.000,-7.324,-7.324,-5.859,20.996,0
1506385217.661,-0.977,-2.930,-1.953,-17.090,-28.320,0
1506385217.665,-3.418,1.465,-15.137,-30.762,25.391,0
1506385217.669,12.207,-4.883,-5.371,-11.719,59.082,0
1506385217.673,18.555,0.977,4.395,-1.953,13.184,0
1506385217.677,12.207,3.418,-0.488,-19.043,15.137,0
1506385217.681,10.254,-3.906,0.000,-22.949,23.926,0
1506385217.685,16.113,-7.812,1.465,-19.531,32.227,0
1506385217.688,5.859,1.465,12.207,-12.207,12.695,0
1506385217.692,1.953,3.906,9.766,-6.348,36.621,0
1506385217.696,10.742,-4.883,3.418,-3.906,65.430,0
1506385217.700,-1.953,-5.371,11.230,5.859,37.109,0
1506385217.704,0.000,5.859,18.066,20.020,38.574,0
1506385217.708,14.160,12.207,29.297,9.277,71.289,0
1506385217.712,-0.488,-3.418,9.277,-7.812,84.473,0
1506385217.716,-12.207,-15.137,-7.812,-2.441,75.684,0
1506385217.720,5.371,-1.465,11.719,13.672,28.809,0
1506385217.724,-4.883,7.812,20.996,8.301,26.855,0
1506385217.727,-17.090,-4.395,18.066,-2.441,53.711,0
1506385217.731,-9.277,-8.789,13.184,-12.695,54.688,0
1506385217.735,-3.906,-3.906,6.348,-22.949,53.223,0
1506385217.739,-0.488,0.000,8.301,-5.371,64.941,0
1506385217.743,1.953,4.395,17.578,9.766,84.473,0
1506385217.747,8.301,-3.418,20.508,25.391,78.613,0
1506385217.751,17.090,4.395,20.020,36.133,45.898,0
1506385217.755,16.602,16.602,18.066,21.973,70.312,0
1506385217.759,14.160,5.371,16.113,3.906,95.215,0
1506385217.763,4.395,-2.441,1.465,-10.254,77.148,0
1506385217.767,-5.371,0.000,-12.695,-17.090,56.641,0
1506385217.770,1.465,5.859,1.465,-11.230,85.449,0
1506385217.774,19.043,0.488,5.859,-8.301,109.863,0
1506385217.778,31.250,1.953,10.742,0.000,63.965,0
1506385217.782,27.344,8.301,12.695,0.000,56.152,0
1506385217.786,18.555,5.859,-2.441,-16.113,97.168,0
1506385217.790,15.137,0.977,-2.930,-36.133,83.984,0
1506385217.794,20.996,4.395,6.836,-31.738,28.809,0
1506385217.798,27.344,14.160,10.254,-12.207,42.969,0
1506385217.802,32.227,11.719,12.695,7.812,85.449,0
1506385217.806,21.973,4.883,10.254,2.441,66.895,0
1506385217.810,11.230,4.883,5.859,-25.879,93.750,0
1506385217.813,10.742,5.859,5.371,-20.996,110.840,0
1506385217.817,7.324,7.324,5.859,-11.230,88.867,0
1506385217.821,2.441,5.859,6.348,-26.367,85.449,0
1506385217.825,5.371,11.230,2.930,-39.062,80.566,0
1506385217.829,13.184,15.625,0.000,-34.668,77.637,0
1506385217.833,23.926,17.578,12.695,-17.090,83.984,0
1506385217.837,19.531,10.254,8.789,-19.531,72.266,0
1506385217.841,19.043,22.949,-1.953,-24.414,37.598,0
1506385217.845,33.203,38.574,14.160,-24.902,79.102,0
1506385217.849,29.785,19.531,13.184,-24.414,81.543,0
1506385217.852,21.973,20.020,14.160,-19.043,41.016,0
1506385217.856,4.883,19.043,6.836,-42.969,60.059,0
1506385217.860,0.977,13.184,-0.977,-64.453,70.312,0
1506385217.864,9.766,15.625,4.395,-74.707,81.055,0
1506385217.868,-0.488,18.555,0.488,-91.309,74.219,0
1506385217.872,-19.043,20.508,-5.859,-104.004,57.617,0
1506385217.876,-21.484,16.602,-6.836,-103.027,53.223,0
1506385217.880,0.000,16.113,1.953,-83.984,22.949,0
1506385217.884,17.090,19.043,10.254,-63.477,26.367,0
1506385217.888,-1.953,24.902,2.930,-70.801,36.621,0
1506385217.892,-6.836,20.996,-0.488,-76.172,64.941,0
1506385217.895,4.883,4.883,2.441,-56.641,88.379,0
1506385217.899,9.766,1.465,-7.324,-40.527,63.965,0
1506385217.903,18.555,14.648,0.977,-39.551,74.707,0
1506385217.907,35.645,23.926,13.672,-25.879,70.312,0
1506385217.911,32.227,16.113,3.906,-37.109,40.527,0
1506385217.915,22.461,8.301,-3.906,-61.035,44.922,0
1506385217.919,28.809,14.160,-9.277,-61.523,62.988,0
1506385217.923,28.320,16.113,-7.324,-52.734,41.016,0
1506385217.927,30.273,11.230,12.695,-33.691,20.020,0
1506385217.931,20.508,11.719,8.789,-39.551,16.602,0
1506385217.935,16.602,13.184,-3.418,-49.316,25.391,0
1506385217.938,19.043,9.277,-4.883,-39.551,46.875,0
1506385217.942,2.930,5.371,-5.859,-25.879,50.781,0
1506385217.946,-5.859,7.324,-10.254,-19.043,3.906,0
1506385217.950,-5.371,7.812,-9.766,-22.461,11.719,0
1506385217.954,-0.488,5.859,-4.395,-10.254,29.785,0
1506385217.958,14.160,11.719,-2.441,3.418,20.020,0
1506385217.962,33.691,6.348,0.488,14.160,26.855,0
1506385217.966,27.832,3.906,-0.977,16.113,19.043,0
1506385217.970,10.254,9.277,-5.859,2.441,20.508,0
1506385217.974,12.695,11.230,-2.441,4.883,25.879,0
1506385217.977,8.789,2.441,-8.789,15.137,13.672,0
1506385217.981,3.906,3.418,-14.160,11.719,33.691,0
1506385217.985,5.859,4.395,-5.371,7.812,36.621,0
1506385217.989,3.906,9.766,-9.766,2.441,-10.254,0
1506385217.993,5.859,13.672,-15.137,5.371,10.254,0
1506385217.997,14.648,4.395,-9.277,13.184,34.668,0
1506385218.001,12.695,-0.488,2.441,12.207,21.973,0
1506385218.005,9.766,5.859,0.000,17.578,4.395,0
1506385218.009,23.438,17.578,-0.977,22.461,10.742,0
1506385218.013,30.762,11.230,11.719,28.809,43.945,0
1506385218.017,21.973,7.812,7.812,41.504,36.133,0
1506385218.020,14.648,15.137,7.812,45.898,20.020,0
1506385218.024,-0.488,14.648,7.324,32.715,19.531,0
1506385218.028,1.953,9.766,-0.488,28.320,25.879,0
1506385218.032,9.766,-3.418,-6.836,23.926,20.020,0
1506385218.036,14.160,12.207,0.977,27.344,-20.020,0
1506385218.040,20.508,16.113,5.371,31.250,25.391,0
1506385218.044,22.949,-1.953,4.883,26.367,64.941,0
1506385218.048,17.578,3.906,3.418,33.691,-3.418,0
1506385218.052,4.395,7.812,-4.883,24.414,-17.090,0
1506385218.056,11.230,7.812,4.883,22.461,39.551,0
1506385218.060,26.855,5.371,3.906,35.645,35.156,0
1506385218.063,21.973,-5.859,-12.207,27.344,2.930,0
1506385218.067,27.344,6.348,-4.883,28.320,8.789,0
1506385218.071,31.250,18.066,5.859,48.340,41.992,0
1506385218.075,32.715,3.906,8.789,63.477,42.480,0
1506385218.079,33.691,2.930,8.301,59.570,28.320,0
1506385218.083,21.973,9.766,1.465,50.293,43.945,0
1506385218.087,12.207,7.812,-7.812,41.992,81.543,0
1506385218.091,5.859,5.859,-9.277,47.363,73.730,0
1506385218.095,3.418,12.207,-9.277,49.805,50.293,0
1506385218.099,6.348,6.836,-10.742,43.457,41.992,0
1506385218.102,11.230,6.836,-12.207,38.086,19.043,0
1506385218.106,17.090,7.812,-7.324,30.762,28.320,0
1506385218.110,19.531,11.230,-12.695,33.691,18.555,0
1506385218.114,8.301,12.695,-15.625,42.480,13.184,0
1506385218.118,3.418,4.395,-16.602,40.039,33.203,0
1506385218.122,14.648,12.695,-7.324,55.664,-3.418,0
1506385218.126,9.766,14.648,-4.883,54.688,-23.926,0
1506385218.130,12.695,11.719,-12.207,42.969,19.043,0
1506385218.134,20.996,13.184,5.371,56.152,22.949,0
1506385218.138,8.789,14.160,3.418,44.434,3.906,0
1506385218.142,6.836,9.277,-2.441,39.062,-13.184,0
1506385218.145,10.254,4.395,-0.488,35.645,-4.883,0
1506385218.149,12.695,2.441,8.789,42.480,-1.465,0
1506385218.153,14.160,6.836,7.324,47.852,-42.969,0
1506385218.157,19.531,17.578,1.953,32.715,-32.227,0
1506385218.161,17.090,18.066,0.488,23.926,-5.371,0
1506385218.165,9.277,6.836,8.301,23.926,-9.766,0
1506385218.169,4.883,4.395,16.602,38.086,-36.133,0
1506385218.173,-7.324,19.531,13.184,27.832,-48.828,0
1506385218.177,4.883,13.184,14.648,29.785,-16.113,0
1506385218.181,14.648,4.395,14.160,48.340,-16.113,0
1506385218.185,6.348,14.648,4.395,36.133,-35.645,0
1506385218.188,2.930,24.902,1.953,19.043,-25.879,0
1506385218.192,7.324,20.508,9.277,19.531,-11.719,0
1506385218.196,13.184,14.160,2.441,15.625,-22.461,0
1506385218.200,5.859,17.578,-2.930,10.742,-29.785,0
1506385218.204,6.836,23.926,0.000,26.367,0.000,0
1506385218.208,2.930,21.973,-0.977,23.926,11.719,0
1506385218.212,9.766,11.230,0.977,19.043,-1.465,0
1506385218.216,16.602,25.391,10.742,18.555,-15.137,0
1506385218.220,4.395,29.297,0.000,18.555,-9.277,0
1506385218.224,1.465,20.020,-3.418,29.297,1.465,0
1506385218.227,3.906,17.578,0.000,26.855,-2.441,0
1506385218.231,4.395,11.719,-7.324,31.250,-26.367,0
1506385218.235,-2.930,9.766,-10.254,36.621,-14.648,0
1506385218.239,0.000,12.207,-15.137,32.227,14.160,0
1506385218.243,4.883,14.160,-10.254,37.109,17.090,0
1506385218.247,4.395,24.902,-0.977,40.527,-7.324,0
1506385218.251,4.395,20.996,-9.766,30.762,-23.926,0
1506385218.255,8.301,15.137,-11.719,27.832,-19.531,0
1506385218.259,21.973,25.391,0.000,41.016,-25.391,0
1506385218.263,16.602,25.879,-9.766,40.039,-25.391,0
1506385218.267,3.418,17.090,-12.207,32.227,8.789,0
1506385218.270,5.859,11.719,-14.160,27.344,18.555,0
1506385218.274,3.906,15.625,-14.160,29.297,-3.906,0
1506385218.278,1.953,20.508,-13.672,31.738,2.441,0
1506385218.282,9.277,18.066,-13.184,26.367,0.977,0
1506385218.286,10.254,18.555,-6.836,22.461,-28.809,0
1506385218.290,9.766,23.926,-4.395,32.715,-33.203,0
1506385218.294,11.719,24.414,-5.859,36.621,4.395,0
1506385218.298,11.230,14.160,-4.883,27.832,-7.324,0
1506385218.302,15.625,15.137,1.465,24.414,-35.645,0
1506385218.306,25.391,28.320,1.465,35.645,-25.879,0
1506385218.310,28.320,18.066,-6.348,38.086,-7.812,0
1506385218.313,16.113,8.301,-8.789,24.902,-0.488,0
1506385218.317,15.137,14.648,-4.883,27.832,-10.254,0
1506385218.321,17.578,24.414,-9.766,28.320,-31.738,0
1506385218.325,7.812,20.508,-17.090,17.090,-5.371,0
1506385218.329,11.230,18.066,-4.395,25.879,8.789,0
1506385218.333,26.367,16.602,8.789,34.180,-39.551,0
1506385218.337,18.066,11.230,0.488,16.113,-56.641,0
1506385218.341,3.906,17.090,0.000,15.137,-6.348,0
1506385218.345,-1.465,8.789,5.859,28.809,7.812,0
1506385218.349,-3.906,8.301,12.207,28.809,-61.523,0
1506385218.352,0.977,19.531,14.160,24.902,-89.355,0
1506385218.356,-4.395,17.090,6.348,17.578,-22.461,0
1506385218.360,-6.836,12.695,0.000,17.578,15.625,0
1506385218.364,5.371,9.277,3.418,22.949,-16.113,0
1506385218.368,4.395,16.113,12.207,24.414,-38.086,0
1506385218.372,-9.766,8.301,1.465,19.043,1.953,0
1506385218.376,-10.254,-7.324,-0.977,24.902,3.418,0
1506385218.380,-12.207,-9.766,10.254,28.809,-32.227,2
1506385218.384,-19.043,-2.441,8.789,18.555,-32.715,0
1506385218.388,-18.555,0.488,-8.301,-5.371,-33.691,0
1506385218.392,-4.883,-6.348,-6.348,-6.348,-47.363,0
1506385218.395,5.859,4.883,3.906,10.254,-47.363,0
1506385218.399,8.301,19.531,-3.906,6.836,-36.133,0
1506385218.403,8.301,6.348,-3.906,6.348,-26.367,0
1506385218.407,13.672,7.324,-2.930,10.254,-21.484,0
1506385218.411,7.324,7.812,-11.230,4.883,-22.461,0
1506385218.415,-11.230,-4.883,-17.578,0.000,-8.789,0
1506385218.419,-13.672,1.465,-13.184,4.883,-22.461,0
1506385218.423,-12.695,5.859,-18.066,8.789,-48.340,0
1506385218.427,-8.301,0.977,-14.648,6.348,-35.645,0
1506385218.431,-2.441,0.977,-3.906,8.789,-29.785,0
1506385218.435,-2.441,10.742,-6.348,5.859,-25.879,0
1506385218.438,-9.277,8.789,-1.953,6.836,-29.785,0
1506385218.442,-10.254,10.254,-3.418,6.836,-74.707,0
1506385218.446,-0.977,14.160,-6.836,0.488,-49.805,0
1506385218.450,2.930,7.812,-1.953,1.953,-23.438,0
1506385218.454,-0.488,15.625,-1.953,-5.859,-40.527,0
1506385218.458,-2.930,18.066,0.488,-9.277,-22.949,0
1506385218.462,1.465,5.859,4.395,-9.277,6.348,0
1506385218.466,-1.465,0.488,7.812,-5.371,-2.441,0
1506385218.470,0.977,9.766,12.207,0.977,-2.441,0
1506385218.474,5.859,7.812,2.441,-5.371,2.441,0
1506385218.477,-5.371,-5.371,-11.230,-11.230,-30.762,0
1506385218.481,-2.930,-2.441,2.441,1.465,-36.133,0
1506385218.485,6.836,-0.977,9.277,4.395,-33.203,0
1506385218.489,4.395,15.137,-0.488,0.488,-4.883,0
1506385218.493,8.789,14.648,6.836,5.859,22.461,0
1506385218.497,9.277,2.441,7.812,0.488,-4.395,0
1506385218.501,4.395,16.602,-3.418,-3.906,-28.320,0
1506385218.505,0.000,25.879,-4.395,-11.230,-17.090,0
1506385218.509,0.488,16.602,0.977,-17.578,13.672,0
1506385218.513,7.324,18.066,7.812,-5.859,-13.672,0
1506385218.517,14.160,17.090,10.742,2.930,-33.691,0
1506385218.520,9.766,6.348,5.859,4.883,2.930,0
1506385218.524,12.207,10.742,12.207,11.719,21.973,0
1506385218.528,16.113,22.949,12.695,8.789,12.207,0
1506385218.532,18.066,19.531,9.277,12.207,23.438,0
1506385218.536,31.250,19.531,15.625,20.020,18.066,0
1506385218.540,42.969,22.949,18.066,26.367,19.531,0
1506385218.544,35.156,17.090,8.789,21.484,12.207,0
1506385218.548,29.785,16.113,13.184,18.066,4.395,0
1506385218.552,28.809,19.531,16.602,18.555,36.133,0
1506385218.556,35.156,24.902,19.043,20.020,43.945,0
1506385218.560,38.574,25.391,23.926,28.320,59.082,0
1506385218.563,24.414,27.344,20.020,26.855,64.453,0
1506385218.567,14.160,23.438,11.719,21.973,67.871,0
1506385218.571,17.090,18.066,12.207,16.602,60.059,0
1506385218.575,21.484,29.297,13.184,7.812,57.617,0
1506385218.579,27.344,27.344,12.695,7.324,72.754,0
1506385218.583,36.621,22.949,22.949,13.184,77.148,0
1506385218.587,25.391,16.602,14.160,12.207,61.035,0
1506385218.591,6.348,22.461,-5.371,0.488,40.039,0
1506385218.595,-0.488,25.879,-7.812,-6.836,52.734,0
1506385218.599,0.488,6.348,-8.301,-8.301,62.988,0
1506385218.602,-5.859,12.695,-2.441,-14.160,44.922,0
1506385218.606,-5.859,30.273,6.836,-18.555,52.246,0
1506385218.610,1.953,25.879,-3.418,-10.742,84.473,0
1506385218.614,-1.465,12.695,-11.719,-8.789,64.941,0
1506385218.618,-3.418,12.695,-9.277,-11.230,22.949,0
1506385218.622,-3.418,22.949,-6.836,-18.555,37.109,0
1506385218.626,8.789,23.438,-2.930,-14.648,62.988,0
1506385218.630,24.414,27.344,12.695,2.930,67.383,0
1506385218.634,21.973,27.832,16.113,1.465,48.340,0
1506385218.638,14.160,35.645,3.906,-9.277,25.391,0
1506385218.642,23.926,33.691,6.348,0.977,41.992,0
1506385218.645,31.738,24.414,13.672,9.766,28.320,0
1506385218.649,25.391,24.902,12.695,9.277,40.527,0
1506385218.653,26.855,32.715,11.719,14.648,74.707,0
1506385218.657,27.344,35.645,12.207,18.066,51.758,0
1506385218.661,24.902,24.902,9.766,19.043,44.922,0
1506385218.665,14.160,12.207,-3.906,0.977,59.570,0
1506385218.669,11.230,18.555,-13.184,-3.906,47.852,0
1506385218.673,20.996,24.902,-2.441,4.395,43.945,0
1506385218.677,20.020,8.789,0.000,6.348,39.551,0
1506385218.681,18.066,10.742,-3.418,11.719,25.391,0
1506385218.685,18.555,25.391,-5.859,15.625,22.949,0
1506385218.688,14.648,17.578,-2.930,13.672,41.992,0
1506385218.692,9.277,9.766,-5.371,-4.395,50.781,0
1506385218.696,27.832,15.625,-1.465,2.930,66.406,0
1506385218.700,27.832,11.719,3.906,3.418,55.176,0
1506385218.704,20.020,7.324,-3.418,-7.324,57.617,0
1506385218.708,18.066,12.207,-1.953,-6.348,67.383,0
1506385218.712,18.555,18.066,8.301,4.883,43.945,0
1506385218.716,22.461,15.137,20.508,10.742,58.105,0
1506385218.720,10.254,6.348,6.348,-9.277,80.566,0
1506385218.724,13.672,18.555,-0.977,-9.766,41.992,0
1506385218.727,17.578,23.438,7.324,-3.906,43.945,0
1506385218.731,11.719,-1.953,8.789,-7.324,98.633,0
1506385218.735,10.742,-1.465,14.648,8.301,99.121,0
1506385218.739,7.812,6.836,5.371,12.207,89.355,0
1506385218.743,2.441,8.301,5.371,12.695,90.820,0
1506385218.747,0.488,8.301,8.789,12.207,113.770,0
1506385218.751,4.883,4.395,4.883,4.395,109.863,0
1506385218.755,5.859,7.812,2.930,0.488,93.262,0
1506385218.759,15.137,12.207,7.324,-1.465,115.723,0
1506385218.763,27.832,13.672,22.461,7.324,141.602,0
1506385218.767,29.297,4.883,21.484,10.742,114.746,0
1506385218.770,23.926,18.066,5.859,5.371,58.594,0
1506385218.774,16.113,34.180,3.418,2.930,94.727,0
1506385218.778,12.207,6.836,-8.301,-5.371,140.137,0
1506385218.782,11.230,3.906,-14.648,-13.184,89.355,0
1506385218.786,24.414,22.461,-7.812,-3.418,76.172,0
1506385218.790,39.062,24.414,0.000,7.812,140.137,0
1506385218.794,41.016,23.926,7.324,16.602,124.512,0
1506385218.798,36.621,30.273,5.371,14.160,93.262,0
1506385218.802,35.156,22.949,8.789,6.836,117.676,0
1506385218.806,22.949,17.578,16.113,6.836,123.047,0
1506385218.810,5.371,14.160,1.953,-3.418,124.512,0
1506385218.813,9.766,6.836,-4.395,-7.324,93.262,0
1506385218.817,24.902,20.996,4.395,1.953,78.125,0
1506385218.821,32.227,22.949,13.672,14.160,78.125,0
1506385218.825,41.504,12.207,19.531,21.484,73.730,0
1506385218.829,46.875,11.719,13.672,25.879,73.730,0
1506385218.833,45.410,14.160,10.254,16.113,66.406,0
1506385218.837,32.715,9.277,3.906,5.371,96.191,0
1506385218.841,32.227,8.301,5.371,17.090,85.938,0
1506385218.845,40.527,2.930,7.812,31.738,63.477,0
1506385218.849,39.551,-3.906,11.230,32.715,44.434,0
1506385218.852,41.504,8.789,7.324,22.949,2.441,0
1506385218.856,17.578,7.324,-13.672,7.812,8.301,0
1506385218.860,3.418,0.977,-20.020,1.953,32.227,0
1506385218.864,16.602,7.812,-7.324,4.395,18.066,0
1506385218.868,11.230,0.977,-10.254,-9.766,1.465,0
1506385218.872,24.902,-1.953,-8.301,-2.930,12.695,0
1506385218.876,40.527,21.484,10.742,15.137,-20.020,0
1506385218.880,42.969,23.926,11.230,17.090,-33.203,3
1506385218.884,79.590,14.648,33.203,47.852,0.000,0
1506385218.888,61.523,20.020,37.598,53.711,-18.066,0
1506385218.892,0.488,11.230,4.395,13.672,-10.742,0
1506385218.895,-11.719,-9.766,-7.812,-13.184,14.160,0
1506385218.899,11.230,-7.812,-3.418,-5.371,-14.648,0
1506385218.903,13.672,-3.906,-9.766,-7.324,-31.250,0
1506385218.907,7.812,-14.648,-14.160,-12.207,-24.902,0
1506385218.911,39.551,-10.742,5.859,17.578,6.836,0
1506385218.915,55.664,3.418,17.090,31.738,1.953,0
1506385218.919,39.062,3.906,-1.465,20.996,-7.324,0
1506385218.923,27.344,5.859,-8.301,20.996,12.695,0
1506385218.927,21.484,9.766,-8.301,11.719,16.602,0
1506385218.931,11.230,-2.930,-4.395,8.789,12.207,0
1506385218.935,15.625,0.488,1.953,20.996,-25.391,0
1506385218.938,6.348,13.184,-10.254,5.859,-31.250,0
1506385218.942,19.531,-0.488,-19.043,1.953,-14.648,0
1506385218.946,71.777,-4.395,10.742,41.992,-16.602,0
1506385218.950,84.961,27.344,41.992,73.242,-51.270,0
1506385218.954,47.363,34.668,19.043,48.340,-56.152,0
1506385218.958,26.855,3.418,-3.906,22.461,-2.930,0
1506385218.962,37.598,-0.977,7.324,28.320,-1.953,0
1506385218.966,53.223,16.113,21.973,38.574,-5.859,0
1506385218.970,43.945,9.277,15.625,32.715,-15.625,0
1506385218.974,28.320,6.836,3.906,17.090,-20.996,0
1506385218.977,20.996,3.418,-2.441,14.160,-11.719,0
1506385218.981,29.297,10.742,0.000,21.973,-28.320,0
1506385218.985,37.598,20.508,2.930,20.020,-14.648,0
1506385218.989,35.645,16.113,3.906,20.020,-12.695,0
1506385218.993,51.758,5.371,13.672,33.691,-23.438,0
1506385218.997,68.359,10.254,30.762,39.062,-33.203,0
1506385219.001,58.594,49.316,16.602,38.086,-21.973,0
1506385219.005,34.668,64.941,0.000,27.344,-2.441,0
1506385219.009,29.785,66.895,1.953,18.555,-19.531,0
1506385219.013,33.691,70.801,5.371,21.973,-41.992,0
1506385219.017,32.715,63.477,9.277,22.949,-31.738,0
1506385219.020,35.645,58.594,10.742,27.832,-8.789,0
1506385219.024,47.363,63.965,20.508,31.250,8.789,0
1506385219.028,49.805,63.965,22.461,35.156,2.441,0
1506385219.032,46.387,61.035,26.367,49.805,-14.160,0
1506385219.036,45.410,51.270,27.344,45.410,-5.371,0
1506385219.040,45.898,48.828,25.879,44.434,-3.906,0
1506385219.044,55.176,58.105,26.367,46.875,0.488,0
1506385219.048,49.805,45.410,16.113,42.480,-2.930,0
1506385219.052,44.434,31.738,16.113,44.922,-20.508,0
1506385219.056,40.527,39.551,17.090,40.039,-39.062,0
1506385219.060,25.391,41.992,11.230,24.902,-16.602,0
1506385219.063,32.227,34.180,23.438,28.320,4.883,0
1506385219.067,33.691,31.738,34.668,32.227,10.742,0
1506385219.071,32.227,41.504,32.227,33.691,3.418,0
1506385219.075,41.992,48.340,34.180,41.016,39.551,0
1506385219.079,52.734,39.062,36.133,50.293,73.730,0
1506385219.083,43.457,34.668,23.926,29.785,5.859,0
1506385219.087,20.996,34.180,11.719,12.695,8.789,0
1506385219.091,20.020,39.551,12.207,28.320,37.109,0
1506385219.095,28.809,36.621,23.926,30.273,42.969,0
1506385219.099,45.410,36.621,39.062,36.621,5.859,0
1506385219.102,51.270,46.875,43.945,47.852,-39.551,0
1506385219.106,38.574,39.062,28.320,31.250,26.855,0
1506385219.110,37.109,24.902,22.949,11.719,33.691,0
1506385219.114,40.039,25.391,28.320,1.953,10.742,0
1506385219.118,43.945,36.621,28.320,14.160,16.602,0
1506385219.122,52.246,34.668,23.438,24.414,20.996,0
1506385219.126,51.758,34.668,30.273,28.809,35.156,0
1506385219.130,48.828,39.062,35.156,31.250,28.809,0
1506385219.134,59.570,38.086,36.133,35.156,10.742,0
1506385219.138,63.965,34.668,33.691,48.828,12.695,0
1506385219.142,66.895,27.832,35.645,49.805,11.230,0
1506385219.145,70.312,28.320,47.852,45.410,0.977,0
1506385219.149,46.875,10.742,41.016,33.691,-16.602,0
1506385219.153,37.598,-7.324,32.715,38.574,-6.836,0
1506385219.157,62.988,-1.465,54.199,65.430,2.930,0
1506385219.161,51.270,-2.930,49.805,60.059,32.715,0
1506385219.165,31.738,-6.348,34.180,42.969,76.660,0
1506385219.169,31.250,-11.719,30.762,32.227,43.457,0
1506385219.173,31.738,-11.230,20.508,29.297,13.672,0
1506385219.177,37.109,-14.160,21.973,25.879,67.871,0
1506385219.181,35.645,-18.555,29.297,31.250,66.406,0
1506385219.185,25.391,-8.301,35.156,40.039,31.738,0
1506385219.188,37.109,5.371,39.551,39.551,45.898,0
1506385219.192,41.992,10.254,36.621,28.809,22.949,0
1506385219.196,40.039,0.977,35.645,32.227,25.391,0
1506385219.200,47.852,-6.348,42.969,42.969,62.500,0
1506385219.204,45.410,-1.465,42.480,37.598,36.133,0
1506385219.208,33.203,13.184,38.574,31.250,12.207,0
1506385219.212,21.484,6.348,34.180,23.926,78.125,0
1506385219.216,22.461,-6.836,38.574,31.738,61.523,0
1506385219.220,36.621,-4.395,42.480,47.363,31.250,0
1506385219.224,42.969,1.953,43.945,48.340,59.570,0
1506385219.227,33.203,1.953,46.387,48.340,48.828,0
1506385219.231,34.668,1.465,50.293,50.781,44.922,0
1506385219.235,20.996,11.719,36.621,31.738,17.090,0
1506385219.239,16.113,20.020,29.297,19.531,21.484,0
1506385219.243,33.691,8.301,37.598,23.438,59.570,0
1506385219.247,36.133,8.789,33.203,25.879,26.367,0
1506385219.251,36.133,16.602,30.762,36.133,-8.789,0
1506385219.255,31.250,16.602,26.855,21.973,40.527,0
1506385219.259,46.875,14.648,38.574,22.461,50.781,0
1506385219.263,69.336,19.531,59.570,49.316,26.855,0
1506385219.267,72.266,30.273,65.918,68.359,27.344,0
1506385219.270,58.594,26.855,50.781,59.570,36.133,0
1506385219.274,45.410,20.508,32.227,40.527,47.363,0
1506385219.278,22.461,14.648,17.578,16.602,30.273,0
1506385219.282,14.160,12.695,13.672,6.348,20.996,0
1506385219.286,24.902,16.602,18.066,6.348,35.645,0
1506385219.290,36.621,9.766,22.949,12.695,38.086,0
1506385219.294,43.457,20.996,23.926,25.391,38.574,0
1506385219.298,36.133,26.367,27.344,36.133,38.086,0
1506385219.302,38.574,19.531,32.715,47.852,39.062,0
1506385219.306,45.898,24.414,40.039,58.594,38.574,0
1506385219.310,44.434,25.879,37.598,54.199,35.156,0
1506385219.313,38.574,27.832,39.551,43.945,52.246,0
1506385219.317,41.016,31.250,50.781,46.387,53.711,0
1506385219.321,45.898,21.484,44.922,48.828,37.598,0
1506385219.325,40.527,16.602,35.156,35.156,16.113,0
1506385219.329,41.992,24.902,31.250,27.344,15.137,0
1506385219.333,38.574,22.949,26.367,29.785,47.363,0
1506385219.337,32.227,22.949,25.879,37.598,60.059,0
1506385219.341,28.809,32.227,39.062,41.016,40.039,0
1506385219.345,30.273,23.926,33.203,34.180,30.273,0
1506385219.349,38.574,12.695,27.344,33.691,34.180,0
1506385219.352,42.969,21.973,32.227,33.691,58.594,0
1506385219.356,34.180,29.297,26.367,25.879,57.129,0
1506385219.360,35.645,27.344,32.227,27.832,50.293,0
1506385219.364,35.645,17.090,30.273,28.320,47.852,0
1506385219.368,27.344,14.648,20.020,20.020,23.926,0
1506385219.372,34.668,25.391,17.090,20.508,27.344,0
1506385219.376,35.156,26.367,26.855,20.508,48.340,0
1506385219.380,35.645,13.672,29.297,16.602,57.129,0
1506385219.384,36.621,11.230,29.785,25.391,14.648,4
1506385219.388,25.391,24.902,26.855,19.043,-20.020,0
1506385219.392,31.250,25.879,31.250,22.949,44.922,0
1506385219.395,45.410,8.789,34.668,35.156,53.223,0
1506385219.399,31.738,4.883,18.066,21.973,33.691,0
1506385219.403,31.250,21.484,18.066,22.461,61.523,0
1506385219.407,38.086,22.949,23.438,26.367,53.711,0
1506385219.411,37.598,12.207,17.578,23.438,73.730,0
1506385219.415,33.691,11.230,23.438,28.809,38.574,0
1506385219.419,30.762,21.973,37.109,33.203,9.277,0
1506385219.423,35.645,31.250,39.551,40.039,62.012,0
1506385219.427,48.340,29.297,42.480,45.410,53.223,0
1506385219.431,53.223,29.297,40.527,43.457,42.480,0
1506385219.435,37.598,25.391,27.344,32.227,83.984,0
1506385219.438,32.715,21.973,24.902,31.738,67.383,0
1506385219.442,37.598,24.902,37.109,34.668,38.574,0
1506385219.446,27.832,21.973,33.203,18.066,51.270,0
1506385219.450,19.043,15.137,32.715,9.277,80.078,0
1506385219.454,12.695,16.602,34.180,18.066,92.773,0
1506385219.458,22.949,14.648,40.527,26.855,50.781,0
1506385219.462,33.203,22.461,49.805,32.227,39.062,0
1506385219.466,35.156,23.438,42.969,28.809,76.172,0
1506385219.470,41.504,19.043,47.852,35.645,48.340,0
1506385219.474,40.039,28.809,44.434,46.875,60.059,0
1506385219.477,45.410,24.902,38.086,44.434,93.262,0
1506385219.481,48.828,21.484,43.457,41.992,83.008,0
1506385219.485,48.340,21.973,41.016,41.992,47.852,0
1506385219.489,51.758,26.367,33.203,41.504,23.926,0
1506385219.493,52.246,31.250,25.879,33.203,60.059,0
1506385219.497,48.828,20.508,20.020,32.227,79.590,0
1506385219.501,43.945,13.184,23.438,39.062,56.152,0
1506385219.505,39.062,21.484,29.297,40.527,33.691,0
1506385219.509,34.668,32.715,23.926,26.367,42.969,0
1506385219.513,45.410,24.414,23.926,20.996,62.500,0
1506385219.517,55.176,21.973,25.391,24.414,51.270,0
1506385219.520,55.664,26.855,33.203,25.391,53.223,0
1506385219.524,54.199,22.461,32.715,27.344,59.570,0
1506385219.528,65.918,27.832,33.203,52.734,57.617,0
1506385219.532,65.430,32.715,48.340,67.383,33.691,0
1506385219.536,50.293,26.855,41.992,43.945,11.230,0
1506385219.540,59.082,32.715,39.062,36.133,37.598,0
1506385219.544,60.059,35.645,40.527,40.039,62.012,0
1506385219.548,58.594,28.320,39.062,46.387,68.848,0
1506385219.552,51.270,29.785,45.898,48.340,35.645,0
1506385219.556,42.480,39.062,42.969,40.039,33.691,0
1506385219.560,44.434,40.039,36.133,35.156,57.129,0
1506385219.563,42.480,31.250,33.203,33.691,33.691,0
1506385219.567,39.062,40.527,29.785,38.086,28.809,0
1506385219.571,42.969,47.852,30.762,35.645,63.965,0
1506385219.575,46.387,27.344,37.598,32.715,77.148,0
1506385219.579,43.457,16.602,32.715,36.621,59.082,0
1506385219.583,42.969,32.715,29.297,57.129,45.898,0
1506385219.587,39.551,29.785,31.738,59.570,66.895,0
1506385219.591,40.039,25.879,30.273,52.246,107.422,0
1506385219.595,41.016,27.344,28.809,41.992,104.980,0
1506385219.599,41.016,29.297,35.645,34.668,85.938,0
1506385219.602,49.316,32.227,31.250,32.715,79.590,0
1506385219.606,52.734,26.855,25.879,20.508,62.988,0
1506385219.610,67.383,46.875,43.457,41.504,56.152,0
1506385219.614,71.289,61.523,49.316,57.129,83.496,0
1506385219.618,62.500,39.551,46.387,36.621,95.703,0
1506385219.622,44.434,36.621,38.086,23.926,74.219,0
1506385219.626,28.320,34.668,23.926,31.738,67.871,0
1506385219.630,28.320,29.297,32.715,33.691,75.195,0
1506385219.634,27.832,34.180,32.715,36.133,76.660,0
1506385219.638,29.785,36.621,22.949,36.621,75.684,0
1506385219.642,28.320,36.621,22.949,31.738,108.887,0
1506385219.645,28.320,26.367,27.344,28.320,116.699,0
1506385219.649,28.320,16.602,26.367,24.902,107.422,0
1506385219.653,34.180,26.855,29.297,31.738,80.566,0
1506385219.657,47.852,33.203,36.621,44.434,53.711,0
1506385219.661,39.551,23.926,27.832,45.898,73.730,0
1506385219.665,33.691,18.555,26.855,48.828,91.797,0
1506385219.669,41.504,27.344,25.879,38.574,87.891,0
1506385219.673,30.762,33.691,20.020,26.855,89.355,0
1506385219.677,39.551,31.738,26.855,36.133,103.027,0
1506385219.681,61.035,31.738,38.086,47.852,86.914,0
1506385219.685,52.246,29.785,35.156,52.246,72.754,0
1506385219.688,43.457,28.320,31.250,48.828,78.125,0
1506385219.692,53.223,24.414,35.156,48.340,93.262,0
1506385219.696,59.570,17.578,36.621,58.594,102.051,0
1506385219.700,44.434,14.648,32.715,56.641,55.176,0
1506385219.704,40.039,30.273,28.809,56.152,42.969,0
1506385219.708,43.457,35.156,34.180,63.477,42.480,0
1506385219.712,47.363,29.297,37.598,54.199,23.926,0
1506385219.716,53.711,36.133,29.297,48.828,14.648,0
1506385219.720,42.480,38.574,28.320,41.016,13.184,0
1506385219.724,31.738,27.344,34.180,35.645,64.941,0
1506385219.727,31.250,25.391,29.297,30.273,45.410,0
1506385219.731,36.133,24.414,30.762,33.691,11.230,0
1506385219.735,45.898,24.414,39.551,45.410,13.672,0
1506385219.739,46.387,20.996,39.551,37.598,1.465,0
1506385219.743,57.129,35.156,41.992,40.527,6.836,0
1506385219.747,82.031,42.480,55.176,72.754,-3.906,0
1506385219.751,74.707,21.484,46.875,71.777,5.371,0
1506385219.755,58.105,17.578,30.273,46.875,14.160,0
1506385219.759,65.918,34.668,37.598,48.828,-2.930,0
1506385219.763,67.871,39.062,41.504,45.898,-11.230,0
1506385219.767,55.176,18.555,29.297,34.668,6.836,0
1506385219.770,53.711,16.602,28.320,40.527,21.973,0
1506385219.774,51.758,25.879,26.367,39.551,-19.043,0
1506385219.778,37.109,28.320,17.578,25.391,-18.555,0
1506385219.782,45.898,20.020,19.043,18.066,9.277,0
1506385219.786,77.148,14.160,33.691,41.016,-16.113,0
1506385219.790,75.195,24.414,41.504,52.246,-40.527,0
1506385219.794,44.922,36.133,39.551,35.645,-37.598,0
1506385219.798,27.832,22.461,30.273,27.344,-7.812,0
1506385219.802,18.066,19.531,17.090,24.414,-28.809,0
1506385219.806,26.855,36.133,33.691,34.180,-25.879,0
1506385219.810,39.062,39.551,46.875,48.828,-7.324,0
1506385219.813,37.109,21.973,33.203,43.457,-16.113,0
1506385219.817,43.457,20.996,40.039,48.340,-29.297,0
1506385219.821,44.434,35.156,41.992,54.688,-22.949,0
1506385219.825,31.738,29.785,31.250,42.969,-12.207,0
1506385219.829,26.855,25.391,30.762,37.598,16.113,0
1506385219.833,27.832,19.043,26.855,35.156,-1.953,0
1506385219.837,31.250,28.320,21.973,28.320,-61.523,0
1506385219.841,35.156,43.945,30.762,32.227,-28.320,0
1506385219.845,34.668,29.297,38.574,38.574,-1.953,0
1506385219.849,40.527,7.812,31.738,46.875,-46.387,0
1506385219.852,41.992,23.926,27.344,43.457,-56.152,0
1506385219.856,43.457,35.156,23.438,27.832,-42.969,0
1506385219.860,50.781,28.320,34.668,26.855,-41.992,0
1506385219.864,50.293,26.367,29.297,26.367,-39.551,0
1506385219.868,51.270,32.715,24.414,34.668,-29.785,0
1506385219.872,58.594,34.668,37.109,40.527,-25.879,0
1506385219.876,59.570,25.879,32.227,39.551,-24.414,0
1506385219.880,50.293,19.043,27.344,41.992,-15.625,0
1506385219.884,52.734,25.391,35.645,33.691,-4.395,5
1506385219.888,52.246,26.367,35.645,21.973,-29.297,0
1506385219.892,53.711,13.672,29.785,21.973,-22.949,0
1506385219.895,48.828,17.578,25.391,26.855,-20.020,0
1506385219.899,36.133,25.391,18.555,27.344,-23.438,0
1506385219.903,36.133,16.113,20.508,33.691,-10.254,0
1506385219.907,43.457,17.578,20.508,37.598,-26.855,0
1506385219.911,47.363,24.414,21.484,41.992,-41.992,0
1506385219.915,48.828,21.484,33.203,47.852,-20.996,0
1506385219.919,55.664,27.832,41.016,53.711,-15.137,0
1506385219.923,42.969,32.715,34.180,53.711,-8.301,0
1506385219.927,30.273,23.438,26.367,44.434,13.184,0
1506385219.931,36.133,21.484,29.297,43.945,13.672,0
1506385219.935,39.062,19.531,19.531,44.434,33.691,0
1506385219.938,45.898,21.484,24.414,46.875,-4.395,0
1506385219.942,54.199,38.574,39.551,48.828,-39.551,0
1506385219.946,49.805,36.621,29.785,28.320,2.441,0
1506385219.950,46.387,24.902,41.504,25.879,18.555,0
1506385219.954,36.133,36.133,51.758,44.922,-11.719,0
1506385219.958,19.531,46.387,41.016,46.387,-11.230,0
1506385219.962,17.578,24.902,34.180,25.879,27.344,0
1506385219.966,27.832,13.184,33.691,31.738,46.875,0
1506385219.970,36.133,18.066,32.715,40.039,20.996,0
1506385219.974,42.480,27.344,32.715,31.738,45.898,0
1506385219.977,46.387,22.461,36.133,32.227,72.754,0
1506385219.981,48.340,20.508,35.156,39.551,44.434,0
1506385219.985,42.480,22.949,29.785,39.551,41.016,0
1506385219.989,50.781,27.344,37.109,42.480,73.730,0
1506385219.993,58.105,31.250,40.039,43.457,83.008,0
1506385219.997,51.758,32.227,44.922,45.898,41.016,0
1506385220.001,48.828,34.668,48.828,54.199,3.906,0
1506385220.005,41.016,33.203,38.574,45.410,49.316,0
1506385220.009,40.527,28.809,37.109,46.387,87.891,0
1506385220.013,53.711,29.785,44.434,57.617,66.895,0
1506385220.017,51.758,31.738,49.316,64.453,59.082,0
1506385220.020,41.016,23.926,41.016,51.270,68.848,0
1506385220.024,47.852,17.090,30.762,43.457,62.988,0
1506385220.028,45.898,28.320,31.738,42.480,43.457,0
1506385220.032,55.176,29.297,38.574,29.785,58.594,0
1506385220.036,63.477,30.273,45.410,28.809,58.594,0
1506385220.040,61.035,30.273,48.340,38.086,74.219,0
1506385220.044,64.941,19.043,45.898,42.480,82.520,0
1506385220.048,41.016,20.508,26.855,27.344,57.617,0
1506385220.052,24.414,17.090,16.113,20.020,71.289,0
1506385220.056,33.691,12.207,19.531,28.809,55.664,0
1506385220.060,33.691,8.789,17.090,16.602,44.434,0
1506385220.063,21.484,9.277,5.371,5.371,45.410,0
1506385220.067,28.320,4.395,12.207,20.508,29.297,0
1506385220.071,42.969,6.836,28.320,31.250,34.180,0
1506385220.075,38.086,14.160,30.762,33.203,53.711,0
1506385220.079,27.344,10.254,23.438,31.738,60.547,0
1506385220.083,24.902,12.695,32.715,36.133,59.082,0
1506385220.087,22.949,10.254,41.016,33.203,48.828,0
1506385220.091,20.020,13.672,37.109,25.879,32.715,0
1506385220.095,17.578,18.555,22.949,23.926,33.691,0
1506385220.099,36.133,16.113,29.785,42.480,18.555,0
1506385220.102,39.062,19.531,42.480,48.340,13.672,0
1506385220.106,33.203,28.809,41.016,49.316,4.883,0
1506385220.110,34.180,36.621,41.504,55.176,26.367,0
1506385220.114,22.949,14.160,25.391,32.227,55.176,0
1506385220.118,35.156,11.719,36.621,36.621,1.465,0
1506385220.122,47.363,33.691,47.852,46.875,-12.207,0
1506385220.126,45.898,38.086,36.621,36.133,24.902,0
1506385220.130,40.039,24.902,31.738,29.785,63.477,0
1506385220.134,33.203,17.090,21.484,24.414,36.621,0
1506385220.138,34.180,24.902,23.438,24.902,16.602,0
1506385220.142,41.504,24.414,30.762,37.109,30.762,0
1506385220.145,48.340,19.043,36.621,46.387,56.641,0
1506385220.149,52.734,19.043,38.574,47.852,69.336,0
1506385220.153,60.547,22.949,36.133,55.176,39.062,0
1506385220.157,62.500,35.156,35.645,54.199,34.668,0
1506385220.161,68.359,25.391,37.598,51.758,68.848,0
1506385220.165,70.801,4.883,39.551,49.316,44.922,0
1506385220.169,50.293,15.625,30.762,31.738,38.086,0
1506385220.173,63.965,33.203,41.504,50.293,57.129,0
1506385220.177,84.473,31.250,59.082,76.172,45.898,0
1506385220.181,67.871,19.531,43.945,58.594,28.320,0
1506385220.185,44.922,18.066,25.391,34.668,31.250,0
1506385220.188,24.902,13.672,18.066,12.207,72.266,0
1506385220.192,31.738,25.879,27.344,5.371,61.035,0
1506385220.196,28.809,20.996,25.391,1.953,34.180,0
1506385220.200,34.180,15.137,25.391,11.230,31.738,0
1506385220.204,43.457,28.320,34.668,32.227,62.500,0
1506385220.208,45.898,33.691,41.016,40.039,92.773,0
1506385220.212,44.434,30.762,42.969,40.527,76.172,0
1506385220.216,30.273,24.902,32.715,43.945,45.898,0
1506385220.220,24.414,26.855,25.391,38.574,27.832,0
1506385220.224,31.250,24.414,30.762,33.203,18.555,0
1506385220.227,34.668,27.832,34.668,36.621,-0.977,0
1506385220.231,25.879,27.344,27.832,37.109,21.973,0
1506385220.235,30.273,14.160,21.973,31.250,40.039,0
1506385220.239,35.645,21.484,17.090,23.438,23.926,0
1506385220.243,31.250,28.809,18.066,25.391,34.180,0
1506385220.247,47.363,15.137,21.484,41.504,71.289,0
1506385220.251,59.570,17.578,32.227,59.082,38.086,0
1506385220.255,49.316,33.203,37.109,65.430,-0.488,0
1506385220.259,49.316,29.785,29.297,57.617,27.832,0
1506385220.263,55.176,31.250,23.438,49.316,54.199,0
1506385220.267,56.152,29.785,29.297,56.641,51.758,0
1506385220.270,49.805,20.996,28.809,57.617,-5.371,0
1506385220.274,44.922,24.414,16.602,38.574,-22.949,0
1506385220.278,44.434,24.414,20.996,34.668,25.391,0
1506385220.282,54.199,20.996,35.156,44.434,24.414,0
1506385220.286,49.316,22.949,28.320,38.086,-8.789,0
1506385220.290,37.109,24.414,19.531,34.668,9.277,0
1506385220.294,35.156,20.996,21.973,33.203,30.762,0
1506385220.298,42.480,25.391,16.113,35.156,26.367,0
1506385220.302,51.758,22.461,28.809,40.039,-2.441,0
1506385220.306,53.711,23.926,35.156,35.156,-21.484,0
1506385220.310,47.852,35.156,30.762,38.086,9.766,0
1506385220.313,41.992,19.043,33.691,41.016,-3.906,0
1506385220.317,36.621,16.602,21.484,29.785,-34.668,0
1506385220.321,36.133,26.367,19.531,36.133,-35.156,0
1506385220.325,40.527,24.902,29.297,39.062,-12.207,0
1506385220.329,40.527,19.531,33.691,32.227,-11.719,0
1506385220.333,43.457,24.902,30.273,27.832,-12.207,0
1506385220.337,47.852,28.809,25.391,25.391,7.812,0
1506385220.341,50.293,27.832,40.039,35.156,6.836,0
1506385220.345,44.922,27.344,39.551,36.621,-5.859,0
1506385220.349,41.992,25.879,32.227,41.016,-2.441,0
1506385220.352,42.969,27.344,32.715,47.852,-7.812,0
1506385220.356,49.316,28.809,37.109,47.363,-10.254,0
1506385220.360,39.062,29.297,33.203,33.691,-7.324,0
1506385220.364,28.320,23.926,23.438,26.367,27.344,0
1506385220.368,35.156,13.672,23.926,31.738,40.039,0
1506385220.372,32.715,20.996,31.250,30.273,-28.320,0
1506385220.376,39.062,40.039,32.227,28.809,-54.688,0
1506385220.380,49.805,34.668,37.109,51.270,-2.441,0
1506385220.384,48.340,26.367,44.922,60.547,27.344,0
1506385220.388,34.668,30.762,27.832,29.785,25.391,0
1506385220.392,30.762,35.645,28.320,39.062,22.949,0
1506385220.395,26.367,29.297,29.297,46.387,34.180,0
1506385220.399,38.574,26.367,34.668,35.156,23.926,0
1506385220.403,50.781,62.500,41.504,34.668,-9.277,0
1506385220.407,43.945,97.656,30.273,20.996,-2.441,0
1506385220.411,40.527,96.191,31.250,21.973,42.480,0
1506385220.415,47.363,84.473,33.691,34.668,45.898,0
1506385220.419,44.922,88.379,34.668,36.621,19.531,0
1506385220.423,42.969,92.285,31.250,35.156,30.273,0
1506385220.427,37.109,85.449,22.461,34.180,50.293,0
1506385220.431,41.016,74.219,28.320,38.086,52.734,0
1506385220.435,47.852,60.059,30.273,39.551,51.758,0
1506385220.438,39.062,64.941,26.855,32.227,38.086,0
1506385220.442,37.598,65.430,26.367,34.668,32.715,0
1506385220.446,51.758,53.223,28.320,48.828,46.387,0
1506385220.450,48.340,60.547,29.297,40.039,-3.906,0
1506385220.454,36.133,71.289,15.137,19.043,1.465,0
1506385220.458,47.363,59.570,7.812,20.996,37.598,0
1506385220.462,53.223,58.105,6.348,28.809,22.461,0
1506385220.466,48.340,61.035,1.953,31.738,26.367,0
1506385220.470,52.734,57.129,-1.465,37.109,38.086,0
1506385220.474,43.457,50.293,-4.883,33.691,33.691,0
1506385220.477,42.480,40.527,-6.836,30.762,30.273,0
1506385220.481,58.105,41.504,-1.465,32.715,8.789,0
1506385220.485,40.039,39.551,-1.465,21.484,7.812,0
1506385220.489,25.391,27.832,-5.859,26.367,16.602,0
1506385220.493,32.715,31.250,-5.371,41.992,-18.066,0
1506385220.497,36.621,29.785,4.395,41.016,-15.137,0
1506385220.501,35.645,18.555,-1.465,36.133,6.836,0
1506385220.505,31.250,21.484,-7.324,28.320,-18.066,0
1506385220.509,34.180,27.832,0.488,35.156,-40.527,0
1506385220.513,32.227,35.156,7.324,35.156,-44.922,0
1506385220.517,17.578,28.809,8.789,20.020,-9.277,0
1506385220.520,23.926,20.508,9.277,23.438,1.953,0
1506385220.524,37.598,30.273,15.137,33.203,-34.180,0
1506385220.528,35.156,37.109,21.973,34.180,-20.996,0
1506385220.532,26.855,26.855,15.625,41.504,3.418,0
1506385220.536,36.133,16.113,3.418,36.133,-41.504,0
1506385220.540,53.223,23.926,8.789,31.738,-55.176,0
1506385220.544,50.293,32.227,14.160,39.062,-21.973,0
1506385220.548,48.340,17.090,15.625,40.039,1.953,0
1506385220.552,43.945,9.766,12.207,41.992,-36.621,0
1506385220.556,42.480,21.484,5.859,48.828,-65.430,0
1506385220.560,47.852,23.926,3.418,38.574,-28.809,0
1506385220.563,40.527,11.230,-0.488,20.508,-6.836,0
1506385220.567,40.527,16.602,10.254,22.949,-15.137,0
1506385220.571,42.969,27.344,17.090,29.297,-10.742,0
1506385220.575,36.133,28.809,8.301,26.855,13.184,0
1506385220.579,36.621,21.973,7.812,27.344,29.297,0
1506385220.583,39.062,20.020,12.695,33.203,1.465,0
1506385220.587,36.133,24.414,11.719,30.273,-17.578,0
1506385220.591,35.156,27.832,19.043,25.879,-12.695,0
1506385220.595,40.039,25.391,20.996,36.621,4.395,0
1506385220.599,64.453,20.508,23.438,62.988,-10.742,0
1506385220.602,65.918,25.391,21.484,62.500,-16.113,0
1506385220.606,45.410,19.043,11.230,39.062,24.902,0
1506385220.610,51.270,12.695,15.137,41.016,29.297,0
1506385220.614,51.270,19.043,20.020,41.016,36.621,0
1506385220.618,34.180,15.137,27.344,38.574,50.781,0
1506385220.622,20.996,8.789,15.137,28.809,53.223,0
1506385220.626,18.066,13.184,4.395,25.391,37.109,0
1506385220.630,16.602,5.371,2.930,24.902,37.109,0
1506385220.634,22.461,2.441,-2.441,17.090,30.273,0
1506385220.638,26.367,15.137,9.277,14.160,44.434,0
1506385220.642,26.855,11.230,16.602,9.277,45.410,0
1506385220.645,26.855,13.672,10.254,7.812,44.434,0
1506385220.649,20.508,20.996,0.000,18.555,36.133,0
1506385220.653,21.973,14.160,9.766,24.414,66.406,0
1506385220.657,35.645,19.043,21.484,25.391,66.895,0
1506385220.661,37.109,23.438,17.578,25.391,44.922,0
1506385220.665,29.297,15.625,11.719,27.344,68.359,0
1506385220.669,47.852,15.137,20.508,36.621,63.477,0
1506385220.673,63.477,21.973,30.273,36.621,81.543,0
1506385220.677,48.828,23.926,18.555,31.738,88.867,0
1506385220.681,37.109,18.555,17.578,38.086,89.844,0
1506385220.685,49.805,17.090,27.832,51.758,75.195,0
1506385220.688,55.664,26.367,23.438,50.293,52.734,0
1506385220.692,52.734,31.250,26.367,45.410,84.473,0
1506385220.696,53.223,26.855,37.109,48.340,107.910,0
1506385220.700,56.152,19.531,41.016,50.781,80.566,0
1506385220.704,48.828,16.602,29.785,40.039,46.875,0
1506385220.708,47.852,25.879,32.715,35.645,52.734,0
1506385220.712,45.410,20.996,42.480,43.457,80.078,0
1506385220.716,38.086,10.254,39.062,51.758,70.312,0
1506385220.720,39.062,20.020,37.598,54.688,16.113,0
1506385220.724,39.062,29.785,28.809,41.992,26.855,0
1506385220.727,30.762,18.066,22.461,30.273,83.984,0
1506385220.731,28.320,15.625,29.785,42.969,64.453,0
1506385220.735,42.480,24.414,37.598,54.199,24.902,0
1506385220.739,36.133,31.738,25.879,39.062,51.758,0
1506385220.743,28.809,17.578,19.531,22.949,105.469,0
1506385220.747,29.785,7.324,19.531,14.160,76.660,0
1506385220.751,35.156,21.484,24.414,13.672,23.438,0
1506385220.755,40.039,34.668,30.762,22.949,33.691,0
1506385220.759,37.109,24.414,22.949,29.297,83.496,0
1506385220.763,44.434,20.996,22.949,27.344,83.008,0
1506385220.767,46.387,20.996,27.344,26.367,69.336,0
1506385220.770,37.109,16.113,21.484,14.648,71.289,0
1506385220.774,58.105,17.090,32.227,23.926,79.590,0
1506385220.778,72.754,23.438,60.059,57.129,74.707,0
1506385220.782,60.547,27.832,53.223,62.012,74.219,0
1506385220.786,42.480,23.438,21.484,39.551,62.988,0
1506385220.790,12.207,14.648,3.906,18.066,82.031,0
1506385220.794,20.020,9.277,14.160,20.020,76.172,0
1506385220.798,19.531,19.531,15.137,14.648,56.152,0
1506385220.802,5.859,14.648,11.230,4.395,87.402,0
1506385220.806,14.648,7.812,12.207,11.230,83.008,0
1506385220.810,23.926,20.508,14.648,17.090,52.734,0
1506385220.813,31.738,25.391,25.391,27.832,61.035,0
1506385220.817,37.109,13.184,29.785,41.504,70.801,0
1506385220.821,42.969,12.695,29.785,44.922,68.359,0
1506385220.825,48.828,20.020,30.762,44.434,62.012,0
1506385220.829,63.965,27.344,47.363,58.105,64.453,0
1506385220.833,61.035,20.508,45.898,64.941,88.867,0
1506385220.837,41.504,19.531,28.320,47.363,79.102,0
1506385220.841,32.715,27.832,20.996,34.180,63.965,0
1506385220.845,17.578,12.695,12.695,24.902,63.965,0
1506385220.849,0.977,-2.930,12.207,14.160,60.547,0
1506385220.852,9.766,1.953,7.812,11.230,58.594,0
1506385220.856,12.695,18.555,8.301,0.488,77.148,0
1506385220.860,8.789,17.578,8.301,0.488,99.609,0
1506385220.864,10.742,13.184,8.789,12.695,96.191,0
1506385220.868,36.621,20.020,29.297,31.738,59.082,0
1506385220.872,46.875,31.250,30.762,34.668,53.711,0
1506385220.876,31.250,26.367,13.672,18.066,81.055,0
1506385220.880,37.598,18.555,12.695,21.484,81.055,0
1506385220.884,38.086,17.578,13.672,19.531,74.219,0
1506385220.888,25.391,23.926,7.324,10.254,43.945,0
1506385220.892,27.344,24.414,13.672,14.648,63.477,0
1506385220.895,31.250,12.207,17.090,20.508,95.703,0
1506385220.899,25.391,8.789,17.578,20.996,88.867,0
1506385220.903,29.785,16.602,18.555,20.508,73.242,0
1506385220.907,27.344,19.531,18.066,17.090,89.355,0
1506385220.911,31.738,15.137,20.996,20.996,68.359,0
1506385220.915,36.133,16.602,22.949,22.461,28.320,0
1506385220.919,52.246,22.949,27.832,30.762,34.180,0
1506385220.923,53.711,25.391,28.809,34.180,48.340,0
1506385220.927,35.645,17.578,33.203,30.273,47.363,0
1506385220.931,27.344,13.672,22.949,22.461,11.719,0
1506385220.935,24.414,18.555,3.906,19.043,21.973,0
1506385220.938,29.785,19.043,2.930,25.391,49.316,0
1506385220.942,52.734,30.273,20.508,45.410,29.297,0
1506385220.946,74.219,31.250,27.832,54.199,5.859,0
1506385220.950,59.082,19.043,15.137,33.203,29.297,0
1506385220.954,36.133,17.578,15.137,29.297,39.062,0
1506385220.958,28.809,20.508,15.625,24.414,36.133,0
1506385220.962,44.922,26.367,27.832,36.621,67.871,0
1506385220.966,44.434,34.668,30.273,45.410,64.941,0
1506385220.970,37.109,32.227,22.949,46.875,26.855,0
1506385220.974,45.410,38.574,36.621,55.176,11.230,0
1506385220.977,41.504,39.551,41.992,43.457,32.715,0
1506385220.981,30.273,26.367,27.344,25.879,56.641,0
1506385220.985,28.320,20.020,14.648,20.508,35.156,0
1506385220.989,38.086,21.973,15.625,27.344,3.418,0
1506385220.993,32.227,25.391,4.883,10.254,-11.230,0
1506385220.997,48.340,30.273,1.465,10.742,35.156,0
1506385221.001,60.547,32.227,15.625,31.250,42.480,0
1506385221.005,48.340,25.391,14.648,27.832,9.766,0
1506385221.009,48.340,31.250,18.066,20.996,21.484,0
1506385221.013,45.898,32.227,17.578,22.461,4.883,0
1506385221.017,58.105,34.668,23.926,38.086,12.207,0
1506385221.020,55.176,32.227,26.367,34.180,15.137,0
1506385221.024,43.945,30.762,20.020,30.273,9.277,0
1506385221.028,55.664,29.785,17.578,47.852,42.969,0
1506385221.032,106.445,34.668,53.223,90.820,41.504,0
1506385221.036,112.305,51.758,69.336,93.750,1.953,0
1506385221.040,42.969,48.340,17.578,24.902,16.113,0
1506385221.044,24.414,27.344,4.395,1.465,64.453,0
1506385221.048,38.086,20.996,11.230,22.949,48.828,0
1506385221.052,43.457,23.926,11.230,36.133,18.555,0
1506385221.056,41.504,30.762,14.648,37.109,29.297,0
1506385221.060,46.387,32.715,14.160,44.434,53.223,0
1506385221.063,68.359,16.602,22.949,59.082,-0.488,0
1506385221.067,53.711,24.902,21.484,46.875,-38.574,0
1506385221.071,31.250,37.109,21.973,39.551,28.320,0
1506385221.075,50.781,37.109,36.133,62.012,62.988,0
1506385221.079,56.152,27.832,31.250,57.129,55.176,0
1506385221.083,44.434,27.832,24.902,30.273,39.062,0
1506385221.087,38.574,36.133,24.414,28.809,21.973,0
1506385221.091,46.875,20.996,21.484,47.363,25.879,0
1506385221.095,52.246,12.207,24.902,42.969,58.105,0
1506385221.099,60.059,28.320,37.109,45.898,58.594,0
1506385221.102,63.477,41.992,35.645,55.664,13.184,0
1506385221.106,46.875,23.926,27.344,49.316,-2.930,0
1506385221.110,30.273,21.484,26.855,37.598,6.836,0
1506385221.114,26.855,27.344,18.555,21.973,23.926,0
1506385221.118,27.832,10.254,12.207,18.555,25.879,0
1506385221.122,29.785,11.719,16.113,26.367,-13.184,0
1506385221.126,40.039,16.602,17.578,29.297,-18.555,0
1506385221.130,40.527,15.625,15.625,21.973,5.371,0
1506385221.134,35.156,7.812,18.066,19.531,9.277,0
1506385221.138,35.645,7.812,14.648,14.160,10.254,0
1506385221.142,82.031,23.438,43.457,50.293,-6.348,0
1506385221.145,99.609,29.297,62.500,84.961,1.465,0
1506385221.149,49.316,20.996,35.645,54.688,28.320,0
1506385221.153,27.832,22.461,10.742,26.855,7.812,0
1506385221.157,36.133,27.344,2.930,20.508,-3.418,0
1506385221.161,43.457,31.250,12.695,22.949,24.902,0
1506385221.165,60.547,29.297,32.227,40.527,48.340,0
1506385221.169,65.918,42.969,46.387,62.500,21.973,0
1506385221.173,56.641,47.363,44.922,56.641,19.043,0
1506385221.177,49.316,20.508,29.785,43.457,37.598,0
1506385221.181,65.918,27.344,40.039,61.523,18.555,0
1506385221.185,93.750,51.270,68.359,80.566,1.953,0
1506385221.188,95.703,56.641,64.453,78.125,7.324,0
1506385221.192,70.801,40.039,36.621,58.594,23.926,0
1506385221.196,55.176,21.484,38.086,54.688,31.738,0
1506385221.200,43.457,16.602,40.039,56.152,9.277,0
1506385221.204,32.715,27.832,30.762,40.527,0.000,0
1506385221.208,34.668,33.203,29.297,33.691,42.480,0
1506385221.212,28.809,27.344,25.391,34.180,53.223,0
1506385221.216,35.156,25.391,27.344,32.715,12.207,0
1506385221.220,58.105,20.508,38.086,43.945,4.883,0
1506385221.224,89.355,36.621,69.336,83.008,25.879,0
1506385221.227,83.008,49.805,66.406,78.613,24.902,0
1506385221.231,53.711,33.691,39.062,43.945,39.551,0
1506385221.235,42.969,26.367,36.621,41.992,27.344,0
1506385221.239,47.852,30.273,30.762,43.457,20.996,0
1506385221.243,45.898,31.738,29.785,43.457,27.832,0
1506385221.247,35.645,29.297,38.086,48.828,3.418,0
1506385221.251,40.527,27.832,46.387,46.875,-2.930,0
1506385221.255,47.363,27.832,49.805,57.617,30.762,0
1506385221.259,56.152,40.527,49.316,67.871,47.363,0
1506385221.263,63.965,42.969,47.852,61.035,46.387,0
1506385221.267,69.824,30.762,47.363,64.941,40.039,0
1506385221.270,56.152,19.531,33.691,48.340,33.691,0
1506385221.274,43.457,25.391,27.344,40.527,9.277,0
1506385221.278,63.477,58.105,45.410,62.500,27.344,0
1506385221.282,68.848,47.363,41.016,54.688,60.059,0
1506385221.286,72.754,37.109,39.062,60.059,50.293,0
1506385221.290,67.871,35.645,35.645,61.035,25.391,0
1506385221.294,49.805,24.414,21.973,36.621,26.367,0
1506385221.298,78.613,20.996,41.992,64.453,53.711,0
1506385221.302,87.891,27.832,53.711,88.867,17.578,0
1506385221.306,67.383,32.227,47.852,73.730,-7.324,0
1506385221.310,52.246,20.996,44.922,67.383,37.109,0
1506385221.313,37.598,-7.812,27.832,59.570,75.195,0
1506385221.317,59.082,-21.484,39.062,68.848,64.453,0
1506385221.321,112.305,-2.441,83.008,108.887,46.387,0
1506385221.325,90.820,2.930,54.199,83.008,47.852,0
1506385221.329,42.969,-25.391,12.207,33.203,54.199,0
1506385221.333,42.480,-27.832,15.137,28.809,29.297,0
1506385221.337,52.734,-19.531,16.602,33.691,-9.766,0
1506385221.341,56.641,-24.414,16.113,40.527,35.156,0
1506385221.345,44.434,-23.926,19.043,43.945,67.871,0
1506385221.349,62.012,-20.020,29.785,55.664,28.809,0
1506385221.352,103.027,-15.137,59.570,86.426,-3.418,0
1506385221.356,101.074,-14.160,62.988,89.844,31.250,0
1506385221.360,64.453,3.906,27.344,52.246,42.969,0
1506385221.364,36.133,1.953,15.137,23.438,15.137,0
1506385221.368,19.531,-13.672,10.254,19.043,1.953,0
1506385221.372,19.531,-11.719,2.930,17.578,32.227,0
1506385221.376,45.410,-8.301,25.879,25.391,62.988,0
1506385221.380,69.336,-7.324,40.527,46.387,37.109,0
1506385221.384,57.129,1.953,20.020,40.527,12.207,0
1506385221.388,52.246,8.301,13.184,43.457,30.273,0
1506385221.392,70.312,14.160,35.645,57.129,40.527,0
1506385221.395,65.430,8.789,32.227,42.480,22.949,0
1506385221.399,62.500,3.906,19.043,41.992,29.297,0
1506385221.403,71.289,4.395,28.809,51.270,29.297,0
1506385221.407,77.148,18.066,43.945,61.035,17.090,0
1506385221.411,70.312,24.414,38.086,57.617,38.086,0
1506385221.415,43.457,2.441,16.113,36.133,43.945,0
1506385221.419,45.410,4.883,22.461,38.086,40.527,0
1506385221.423,66.895,6.348,29.297,45.898,38.574,0
1506385221.427,63.477,-4.395,12.695,41.016,18.066,0
1506385221.431,56.641,4.395,14.648,46.387,46.875,0
1506385221.435,52.246,8.789,23.438,47.852,23.438,0
1506385221.438,48.828,8.789,25.391,43.457,-18.066,0
1506385221.442,60.547,19.531,35.156,57.129,8.301,0
1506385221.446,65.918,22.949,44.922,70.312,29.785,0
1506385221.450,74.219,13.184,50.781,73.242,41.016,0
1506385221.454,105.469,23.926,63.965,101.074,55.176,0
1506385221.458,90.332,34.180,55.176,90.820,56.641,0
1506385221.462,30.762,19.531,16.602,29.297,78.613,0
1506385221.466,0.488,0.488,1.953,0.488,83.496,0
1506385221.470,32.715,19.043,25.391,29.297,62.012,0
1506385221.474,59.082,33.691,39.062,60.059,60.547,0
1506385221.477,47.363,26.367,32.715,54.688,60.059,0
1506385221.481,48.828,16.602,28.809,43.457,51.758,0
1506385221.485,63.477,26.367,40.527,58.594,10.742,0
1506385221.489,55.664,46.387,38.574,52.734,14.648,0
1506385221.493,57.617,30.762,34.180,46.875,62.500,0
1506385221.497,59.082,19.531,34.180,56.641,41.992,0
1506385221.501,44.434,21.973,19.043,40.527,15.625,0
1506385221.505,52.734,30.762,13.672,37.598,43.945,0
1506385221.509,57.617,36.133,21.973,46.875,63.965,0
1506385221.513,51.270,30.762,23.438,41.016,56.641,0
1506385221.517,50.781,29.785,23.438,31.250,46.387,0
1506385221.520,58.105,32.227,26.367,46.387,35.645,0
1506385221.524,70.312,34.180,30.273,62.012,15.625,0
1506385221.528,82.520,50.781,40.527,60.059,0.000,0
1506385221.532,95.215,53.711,60.059,76.660,-1.465,0
1506385221.536,80.566,35.645,57.617,71.777,25.879,0
1506385221.540,61.523,28.809,47.852,60.059,37.109,0
1506385221.544,68.359,29.785,62.988,79.590,24.414,0
1506385221.548,59.082,34.180,49.316,68.848,14.648,0
1506385221.552,41.016,27.344,22.949,49.805,21.973,0
1506385221.556,55.664,21.973,34.180,77.637,29.785,0
1506385221.560,74.219,35.645,56.152,94.238,34.668,0
1506385221.563,62.012,48.340,53.223,83.008,48.340,0
1506385221.567,50.293,37.109,34.180,62.988,38.086,0
1506385221.571,56.641,33.203,42.480,61.523,1.465,0
1506385221.575,50.781,34.668,42.969,58.105,39.062,0
1506385221.579,61.035,45.898,43.945,66.406,60.547,0
1506385221.583,81.055,57.129,59.570,93.750,36.133,0
1506385221.587,73.242,42.969,63.477,92.285,20.020,0
1506385221.591,61.523,40.039,60.059,84.473,-3.418,0
1506385221.595,79.590,51.270,64.941,97.168,26.855,0
1506385221.599,81.055,38.574,66.406,95.703,39.062,0
1506385221.602,58.105,28.320,49.805,72.754,10.254,0
1506385221.606,41.016,41.992,35.156,54.199,-3.418,0
1506385221.610,44.434,49.316,34.180,48.828,38.086,0
1506385221.614,90.820,39.062,67.383,85.938,50.293,0
1506385221.618,96.680,51.270,80.566,98.633,15.137,0
1506385221.622,53.223,58.105,55.176,70.801,26.855,0
1506385221.626,39.551,54.688,36.621,55.664,29.785,0
1506385221.630,51.758,47.363,36.133,43.945,26.855,0
1506385221.634,47.363,37.109,38.574,33.691,18.066,0
1506385221.638,42.969,44.434,35.156,39.062,18.066,0
1506385221.642,65.430,52.246,44.434,54.688,32.715,0
1506385221.645,76.660,41.504,45.898,58.105,32.227,0
1506385221.649,86.914,38.086,52.734,73.242,1.953,0
1506385221.653,113.770,55.176,65.918,94.727,-1.465,0
1506385221.657,91.309,44.434,49.805,71.289,38.574,0
1506385221.661,63.477,28.320,32.715,49.805,42.969,0
1506385221.665,52.246,26.367,19.043,39.551,1.953,0
1506385221.669,46.875,31.738,14.160,35.645,20.508,0
1506385221.673,56.641,34.668,29.785,53.711,37.109,0
1506385221.677,54.688,25.879,38.086,61.035,4.395,0
1506385221.681,41.992,18.066,29.297,52.734,4.883,0
1506385221.685,43.457,17.578,33.203,54.199,22.461,0
1506385221.688,49.316,12.207,44.434,48.828,43.457,0
1506385221.692,47.363,22.461,34.180,25.879,45.898,0
1506385221.696,42.969,23.926,32.715,20.508,16.113,0
1506385221.700,46.387,16.602,41.016,24.902,47.852,0
1506385221.704,54.688,32.227,46.875,39.062,59.570,0
1506385221.708,62.500,37.598,52.246,45.410,23.438,0
1506385221.712,52.246,32.227,50.781,34.180,24.414,0
1506385221.716,40.527,32.227,41.504,26.855,35.156,0
1506385221.720,52.734,33.203,40.039,35.156,43.945,0
1506385221.724,61.523,39.551,48.828,47.363,40.039,0
1506385221.727,53.711,33.203,47.852,47.852,56.641,0
1506385221.731,44.434,26.367,48.828,43.945,61.035,0
1506385221.735,36.621,19.531,45.898,38.086,45.410,0
1506385221.739,41.504,14.648,41.504,38.086,22.949,0
1506385221.743,50.293,25.879,48.828,49.805,33.203,0
1506385221.747,44.434,22.949,50.781,55.664,59.082,0
1506385221.751,45.898,17.090,58.594,59.570,19.531,0
1506385221.755,49.316,20.020,48.828,52.246,-25.391,0
1506385221.759,47.852,38.574,41.016,43.945,10.742,0
1506385221.763,42.480,34.668,48.340,32.715,39.062,0
1506385221.767,52.734,28.320,56.641,28.809,47.363,0
1506385221.770,61.035,39.551,68.359,38.086,41.016,0
1506385221.774,62.012,38.086,61.523,38.574,32.227,0
1506385221.778,64.941,47.363,59.082,47.363,58.594,0
1506385221.782,39.062,30.273,45.898,28.809,57.129,0
1506385221.786,30.273,22.949,39.551,26.367,53.223,0
1506385221.790,46.387,41.992,42.480,46.387,66.895,0
1506385221.794,34.668,24.414,35.156,35.156,66.895,0
1506385221.798,20.020,19.531,28.809,29.785,83.008,0
1506385221.802,9.277,15.137,23.438,25.879,60.547,0
1506385221.806,18.555,21.484,23.926,18.555,42.969,0
1506385221.810,30.273,28.320,29.297,28.320,83.984,0
1506385221.813,41.992,28.320,43.945,37.598,62.500,0
1506385221.817,44.922,26.367,44.434,36.621,32.227,0
1506385221.821,36.621,26.855,41.504,37.109,43.945,0
1506385221.825,33.203,26.855,34.668,31.738,73.730,0
1506385221.829,35.156,16.602,36.133,37.109,52.246,0
1506385221.833,54.199,25.879,49.316,52.246,5.859,0
1506385221.837,57.129,35.156,52.734,48.828,22.949,0
1506385221.841,50.293,28.809,51.270,39.551,41.992,0
1506385221.845,55.176,25.879,49.805,46.387,41.016,0
1506385221.849,52.734,34.180,60.059,59.570,24.902,0
1506385221.852,40.039,33.203,52.246,46.875,27.344,0
1506385221.856,29.297,34.668,39.062,37.109,53.711,0
1506385221.860,21.973,45.410,41.016,36.621,41.016,0
1506385221.864,10.254,38.086,31.738,25.391,40.527,0
1506385221.868,12.207,20.508,25.391,17.090,37.598,0
1506385221.872,18.555,16.602,28.809,14.648,16.602,0
1506385221.876,29.297,29.785,36.133,30.762,2.441,0
1506385221.880,36.133,31.738,37.598,32.227,24.902,0
1506385221.884,41.504,21.484,38.086,24.902,60.547,0
1506385221.888,41.992,25.391,45.410,30.273,27.344,0
1506385221.892,40.039,36.133,45.898,28.809,3.418,0
1506385221.895,40.527,24.902,40.039,26.367,52.734,0
1506385221.899,54.199,25.879,49.316,37.598,63.965,0
1506385221.903,70.312,37.598,65.918,59.570,35.156,0
1506385221.907,72.754,38.574,62.012,64.941,31.250,0
1506385221.911,69.824,37.109,51.270,52.246,75.684,0
1506385221.915,72.754,29.785,61.035,57.129,58.594,0
1506385221.919,73.730,46.387,76.660,66.406,18.555,0
1506385221.923,57.617,52.246,66.406,48.828,27.344,0
1506385221.927,38.086,33.203,46.387,27.344,51.270,0
1506385221.931,26.367,20.508,34.668,19.531,46.875,0
1506385221.935,30.762,26.367,39.062,23.438,31.738,0
1506385221.938,43.945,44.434,49.805,38.086,41.504,0
1506385221.942,40.039,42.480,48.340,41.992,40.039,0
1506385221.946,49.316,34.668,52.734,37.109,40.527,0
1506385221.950,60.547,45.898,55.176,42.480,24.414,0
1506385221.954,56.152,55.664,58.105,41.992,28.809,0
1506385221.958,41.992,43.457,57.617,46.875,58.105,0
1506385221.962,28.320,40.039,54.688,60.547,55.176,0
1506385221.966,42.969,53.223,63.477,70.312,54.688,0
1506385221.970,47.363,47.852,54.688,66.895,35.645,0
1506385221.974,37.598,40.527,39.551,61.035,18.555,0
1506385221.977,40.527,44.922,47.852,52.734,20.996,0
1506385221.981,47.852,43.945,53.711,49.316,48.340,0
1506385221.985,54.199,40.527,49.805,51.758,20.020,0
1506385221.989,53.711,39.551,53.223,53.223,-2.930,0
1506385221.993,55.176,35.156,53.711,59.570,4.395,0
1506385221.997,54.688,41.992,47.363,58.594,-6.836,0
1506385222.001,63.965,51.270,50.293,61.523,5.371,0
1506385222.005,72.754,50.781,51.270,64.941,28.320,0
1506385222.009,62.012,54.688,52.734,63.477,8.789,0
1506385222.013,53.223,51.270,48.340,50.293,3.906,0
1506385222.017,50.293,35.156,48.828,40.527,6.836,0
1506385222.020,60.059,41.016,55.664,56.641,8.789,0
1506385222.024,69.336,42.969,53.711,64.453,0.488,0
1506385222.028,63.965,46.875,49.805,55.664,0.977,0
1506385222.032,66.406,48.340,50.781,55.664,49.805,0
1506385222.036,72.266,40.527,53.223,56.152,37.109,0
1506385222.040,72.754,44.434,45.898,56.152,7.324,0
1506385222.044,89.844,60.059,63.477,80.078,-14.160,0
1506385222.048,94.727,55.664,77.148,84.961,1.953,0
1506385222.052,71.289,21.973,62.012,69.824,29.785,0
1506385222.056,70.801,38.086,56.152,73.242,-18.066,0
1506385222.060,58.594,52.246,44.922,69.336,13.184,0
1506385222.063,35.645,26.855,31.250,46.387,58.105,0
1506385222.067,28.809,32.227,43.457,31.250,-14.648,0
1506385222.071,28.320,35.645,41.016,33.203,-16.113,0
1506385222.075,30.273,33.691,35.645,30.762,16.602,0
1506385222.079,34.180,33.691,44.434,31.250,23.438,0
1506385222.083,40.527,29.785,44.922,36.133,23.438,0
1506385222.087,35.645,32.227,37.598,36.133,3.906,0
1506385222.091,37.598,38.574,45.410,38.086,14.648,0
1506385222.095,42.969,32.227,47.363,48.828,38.086,0
1506385222.099,40.039,24.902,41.992,61.035,12.207,0
1506385222.102,39.062,36.133,42.969,64.941,-20.020,0
1506385222.106,41.992,40.527,45.898,51.270,19.043,0
1506385222.110,45.898,30.762,44.434,39.062,52.246,0
1506385222.114,48.340,31.738,46.387,35.645,17.578,0
1506385222.118,48.340,35.156,40.527,23.438,9.277,0
1506385222.122,62.012,47.363,54.199,39.062,54.688,0
1506385222.126,71.289,47.852,63.965,57.617,41.016,0
1506385222.130,51.270,23.926,41.504,43.945,17.578,0
1506385222.134,44.434,27.832,41.016,47.852,31.738,0
1506385222.138,48.340,41.016,46.875,50.293,28.809,0
1506385222.142,63.965,44.434,53.223,56.641,12.207,0
1506385222.145,66.895,37.598,51.758,58.594,7.324,0
1506385222.149,50.781,23.438,40.039,51.758,31.250,0
1506385222.153,62.988,38.086,52.734,69.336,19.043,0
1506385222.157,80.566,41.016,67.871,86.914,10.742,0
1506385222.161,75.195,24.902,64.453,75.684,14.648,0
1506385222.165,44.922,34.668,44.434,44.922,44.922,0
1506385222.169,38.574,34.180,37.109,37.109,68.359,0
1506385222.173,46.875,28.809,40.039,47.852,-0.977,0
1506385222.177,34.668,34.180,33.691,43.945,-29.785,0
1506385222.181,30.762,30.762,21.973,38.574,29.297,0
1506385222.185,52.734,27.832,33.203,54.199,39.062,0
1506385222.188,63.477,39.551,47.363,60.547,-13.184,0
1506385222.192,51.758,45.898,39.551,51.758,-2.930,0
1506385222.196,39.551,38.574,30.762,46.387,39.062,0
1506385222.200,36.133,25.391,33.691,54.199,29.297,0
1506385222.204,35.156,27.832,39.062,56.152,-11.230,0
1506385222.208,37.598,38.574,42.480,53.223,-2.930,0
1506385222.212,47.852,41.016,41.504,57.129,32.715,0
1506385222.216,62.012,29.297,41.016,57.129,29.785,0
1506385222.220,60.547,19.043,44.434,55.176,35.156,0
1506385222.224,51.270,23.926,40.039,44.434,38.086,0
1506385222.227,57.129,29.785,43.945,48.340,42.480,0
1506385222.231,60.547,24.414,59.570,62.988,39.551,0
1506385222.235,43.945,31.250,53.711,54.199,1.953,0
1506385222.239,26.855,44.434,37.109,33.203,17.578,0
1506385222.243,26.367,39.551,36.621,39.551,50.293,0
1506385222.247,29.297,33.203,39.062,48.828,42.480,0
1506385222.251,29.785,26.367,34.180,36.621,26.367,0
1506385222.255,39.551,28.320,39.551,35.156,-6.348,0
1506385222.259,53.711,36.133,48.340,41.016,24.902,0
1506385222.263,77.148,34.180,51.270,49.316,46.387,0
1506385222.267,84.961,40.039,57.617,56.152,27.344,0
1506385222.270,57.617,31.738,47.852,40.527,36.133,0
1506385222.274,41.016,20.020,27.832,17.578,2.930,0
1506385222.278,49.805,21.973,23.926,16.602,-8.789,0
1506385222.282,36.133,20.996,20.020,19.531,-23.438,0
1506385222.286,28.320,29.785,20.996,23.926,-25.879,0
1506385222.290,41.016,30.762,31.738,34.668,26.855,0
1506385222.294,47.852,31.250,36.621,34.668,33.691,0
1506385222.298,47.363,32.227,29.785,24.414,25.391,0
1506385222.302,39.062,30.762,26.855,17.090,32.715,0
1506385222.306,43.945,25.879,33.203,29.785,11.719,0
1506385222.310,45.898,26.367,26.855,26.367,1.953,0
1506385222.313,55.176,43.457,33.691,28.320,34.668,0
1506385222.317,81.543,54.199,61.035,60.547,50.293,0
1506385222.321,78.613,40.039,69.824,77.637,16.602,0
1506385222.325,56.152,46.875,53.223,63.477,20.020,0
1506385222.329,28.809,50.781,27.344,42.480,41.992,0
1506385222.333,16.602,16.602,10.742,28.809,28.809,0
1506385222.337,9.277,10.742,10.742,21.973,8.789,0
1506385222.341,19.531,24.902,28.320,24.414,19.531,0
1506385222.345,22.949,28.320,36.621,26.855,35.645,0
1506385222.349,23.926,23.438,30.762,20.996,21.484,0
1506385222.352,29.297,20.996,27.832,17.090,34.668,0
1506385222.356,21.484,27.832,31.738,17.090,48.828,0
1506385222.360,18.555,25.391,25.391,12.207,43.945,0
1506385222.364,15.137,16.602,22.461,9.277,36.133,0
1506385222.368,15.625,16.602,31.738,17.578,33.691,0
1506385222.372,20.996,24.414,31.250,25.879,39.551,0
1506385222.376,28.320,25.391,23.926,25.391,55.664,0
1506385222.380,31.738,16.602,21.973,20.508,58.105,0
1506385222.384,45.410,11.230,36.621,31.738,4.883,0
1506385222.388,57.129,24.414,39.551,55.664,-15.137,0
1506385222.392,39.551,28.320,29.297,53.711,42.969,0
1506385222.395,38.086,20.996,28.320,45.898,58.594,0
1506385222.399,59.570,22.461,34.668,52.734,41.992,0
1506385222.403,68.848,32.227,45.898,58.594,18.066,0
1506385222.407,54.688,34.668,42.969,56.641,38.574,0
1506385222.411,46.875,21.973,45.410,53.711,65.430,0
1506385222.415,52.246,16.113,43.457,59.082,20.508,0
1506385222.419,48.340,28.809,34.180,58.105,19.531,0
1506385222.423,43.457,26.367,31.250,52.246,40.527,0
1506385222.427,48.340,21.484,27.832,46.387,22.949,0
1506385222.431,42.969,23.438,28.809,38.574,40.039,0
1506385222.435,42.969,21.973,29.785,35.645,38.574,0
1506385222.438,49.805,20.020,33.203,42.969,28.809,0
1506385222.442,37.598,21.484,30.273,38.574,22.461,0
1506385222.446,35.156,24.902,24.902,36.621,4.395,0
1506385222.450,64.941,39.062,41.016,50.781,17.090,0
1506385222.454,62.012,36.621,45.898,52.734,27.832,0
1506385222.458,40.039,23.438,36.133,45.410,36.621,0
1506385222.462,44.922,24.414,33.203,40.039,38.574,0
1506385222.466,38.086,27.344,28.320,39.062,46.387,0
1506385222.470,39.551,28.320,26.367,32.227,53.223,0
1506385222.474,37.109,27.832,22.461,20.020,0.488,0
1506385222.477,37.109,36.133,22.949,26.855,-16.602,0
1506385222.481,34.668,36.133,31.250,38.574,15.137,0
1506385222.485,27.344,25.391,41.504,42.480,23.438,0
1506385222.489,30.273,27.832,46.875,43.457,12.695,0
1506385222.493,30.762,39.551,39.062,41.504,0.000,0
1506385222.497,28.809,35.645,38.086,36.133,34.180,0
1506385222.501,33.203,27.832,52.246,40.039,26.367,0
1506385222.505,42.969,35.645,53.711,47.363,-8.301,0
1506385222.509,41.992,36.621,46.875,44.434,6.348,0
1506385222.513,60.547,43.457,67.871,52.246,42.969,0
1506385222.517,87.891,49.805,91.797,79.102,32.715,0
1506385222.520,60.547,48.340,64.453,62.988,13.672,0
1506385222.524,27.344,48.340,34.180,35.645,34.180,0
1506385222.528,17.578,33.203,28.809,24.902,76.660,0
1506385222.532,18.066,24.902,31.250,16.602,69.336,0
1506385222.536,26.855,36.621,32.715,29.785,19.043,0
1506385222.540,32.715,41.992,32.227,36.133,23.438,0
1506385222.544,43.457,39.551,32.715,34.180,46.875,0
1506385222.548,43.945,30.273,34.668,38.574,47.363,0
1506385222.552,40.039,23.438,27.832,35.156,34.180,0
1506385222.556,40.039,30.273,26.855,40.039,41.992,0
1506385222.560,40.527,38.086,34.668,44.922,44.434,0
1506385222.563,40.039,28.320,31.250,37.109,12.695,0
1506385222.567,43.457,27.344,27.832,39.062,-3.418,0
1506385222.571,58.105,39.551,39.551,52.246,29.785,0
1506385222.575,75.684,37.109,64.941,72.266,71.289,0
1506385222.579,83.008,36.621,79.590,80.078,68.359,0
1506385222.583,83.984,36.621,71.289,73.242,33.203,0
1506385222.587,62.988,36.133,53.711,50.781,53.711,0
1506385222.591,30.762,34.668,32.227,30.762,51.270,0
1506385222.595,29.297,28.320,20.020,25.879,46.387,0
1506385222.599,29.785,21.973,18.555,24.414,55.176,0
1506385222.602,34.180,21.484,24.902,31.738,24.414,0
1506385222.606,48.340,29.297,38.574,46.387,14.648,0
1506385222.610,47.363,26.367,43.457,54.199,28.809,0
1506385222.614,34.180,19.531,38.086,43.457,50.293,0
1506385222.618,31.250,17.578,42.969,45.898,55.176,0
1506385222.622,41.016,20.996,47.852,53.711,35.156,0
1506385222.626,35.645,27.832,36.621,42.480,0.000,0
1506385222.630,25.391,30.273,29.297,34.180,21.484,0
1506385222.634,38.574,19.531,40.527,45.898,48.340,0
1506385222.638,36.621,8.301,34.668,47.363,15.137,0
1506385222.642,42.480,31.738,32.715,37.109,-22.949,0
1506385222.645,67.871,41.504,48.828,47.363,7.812,0
1506385222.649,65.918,21.973,48.828,53.223,45.898,0
1506385222.653,54.688,24.414,46.387,41.992,33.203,0
1506385222.657,53.223,28.809,41.504,40.039,20.020,0
1506385222.661,48.340,32.715,39.062,40.039,44.922,0
1506385222.665,38.574,19.531,38.086,37.109,59.570,0
1506385222.669,34.180,14.160,37.109,35.156,24.414,0
1506385222.673,24.414,28.809,32.227,28.320,25.879,0
1506385222.677,16.113,28.320,25.879,22.949,62.500,0
1506385222.681,29.297,20.508,31.738,28.809,62.500,0
1506385222.685,29.785,20.020,29.297,26.855,48.340,0
1506385222.688,32.227,28.320,30.273,28.320,23.926,0
1506385222.692,45.898,30.273,38.086,36.621,48.340,0
1506385222.696,61.035,27.832,48.340,47.363,51.758,0
1506385222.700,66.406,26.855,42.480,59.570,46.875,0
1506385222.704,62.012,29.297,36.133,58.105,45.410,0
1506385222.708,65.430,41.992,43.457,60.547,52.734,0
1506385222.712,57.617,29.785,36.133,50.293,63.965,0
1506385222.716,44.922,18.555,26.367,26.855,31.250,0
1506385222.720,35.156,27.832,32.227,16.113,32.227,0
1506385222.724,24.902,20.020,24.902,12.695,5.859,0
1506385222.727,31.250,14.648,23.926,16.602,21.973,0
1506385222.731,37.598,17.090,29.297,26.367,52.734,0
1506385222.735,26.855,14.160,19.043,24.902,59.570,0
1506385222.739,29.297,10.254,19.531,18.555,72.754,0
1506385222.743,34.668,17.090,28.320,28.809,44.434,0
1506385222.747,38.574,27.832,31.738,43.945,42.969,0
1506385222.751,45.410,23.926,28.809,41.016,48.828,0
1506385222.755,45.410,22.949,33.203,37.598,26.855,0
1506385222.759,34.180,30.762,34.668,40.039,18.066,0
1506385222.763,26.855,33.203,27.344,33.691,41.016,0
1506385222.767,46.387,20.508,24.902,30.273,43.457,0
1506385222.770,67.871,18.555,41.016,44.922,40.527,0
1506385222.774,71.289,34.180,57.129,64.453,44.434,0
1506385222.778,54.199,33.691,41.504,57.617,55.664,0
1506385222.782,35.156,19.043,33.203,42.480,76.660,0
1506385222.786,30.762,16.113,35.645,36.621,39.062,0
1506385222.790,34.180,22.461,29.785,30.273,17.578,0
1506385222.794,34.668,31.250,31.250,29.297,28.320,0
1506385222.798,30.762,24.414,29.297,22.949,46.875,0
1506385222.802,32.227,10.254,32.715,20.020,46.875,0
1506385222.806,36.133,15.625,38.086,27.344,38.086,0
1506385222.810,37.598,24.414,31.250,28.320,78.125,0
1506385222.813,44.434,18.066,30.762,33.691,64.941,0
1506385222.817,42.969,12.207,41.504,39.062,35.156,0
1506385222.821,44.434,19.043,37.598,32.227,28.320,0
1506385222.825,53.223,27.344,38.574,37.109,44.434,0
1506385222.829,55.664,20.020,43.945,52.734,65.918,0
1506385222.833,72.754,23.438,58.105,60.547,36.133,0
1506385222.837,71.289,45.410,78.613,61.523,14.648,0
1506385222.841,43.945,46.875,62.988,47.363,64.453,0
1506385222.845,21.973,30.762,41.504,26.367,70.801,0
1506385222.849,23.926,24.902,34.180,28.320,66.895,0
1506385222.852,41.992,29.785,37.109,38.574,69.824,0
1506385222.856,41.504,27.344,39.062,38.574,42.480,0
1506385222.860,48.828,21.484,38.574,41.992,71.289,0
1506385222.864,59.570,23.438,38.574,47.852,59.570,0
1506385222.868,46.387,31.738,35.156,55.664,31.250,0
1506385222.872,39.062,24.414,38.086,60.059,59.082,0
1506385222.876,46.387,22.461,42.480,64.941,79.102,0
1506385222.880,45.410,13.184,43.945,62.500,54.199,0
1506385222.884,54.688,20.996,52.246,60.059,42.969,0
1506385222.888,57.617,29.297,48.828,62.012,46.387,0
1506385222.892,42.480,14.648,38.574,54.688,40.527,0
1506385222.895,41.016,20.508,34.668,55.176,24.902,0
1506385222.899,40.039,26.855,39.062,46.387,29.297,0
1506385222.903,43.945,15.137,38.574,40.527,43.945,0
1506385222.907,51.758,20.508,35.156,34.668,21.484,0
1506385222.911,57.129,27.344,40.527,43.457,18.066,0
1506385222.915,61.523,21.484,48.340,54.199,25.391,0
1506385222.919,59.082,15.137,49.316,47.363,38.574,0
1506385222.923,47.852,14.648,41.016,44.922,35.645,0
1506385222.927,46.387,22.461,34.668,50.293,35.645,0
1506385222.931,47.363,28.809,38.574,56.152,54.688,0
1506385222.935,43.945,28.809,35.645,48.828,66.406,0
1506385222.938,49.316,27.344,33.691,45.410,24.414,0
1506385222.942,42.969,31.250,36.133,36.621,20.020,0
1506385222.946,32.715,34.668,37.109,26.367,67.871,0
1506385222.950,43.457,32.715,41.504,41.992,68.359,0
1506385222.954,45.410,23.438,34.668,42.969,36.133,0
1506385222.958,26.367,21.973,24.414,22.949,18.066,0
1506385222.962,25.391,20.996,20.020,23.438,39.062,0
1506385222.966,38.574,16.113,31.250,38.574,40.527,0
1506385222.970,40.039,21.973,41.016,42.480,31.250,0
1506385222.974,34.180,25.391,34.180,40.039,39.551,0
1506385222.977,42.480,21.484,44.434,54.688,44.434,0
1506385222.981,42.969,10.254,42.969,49.316,48.828,0
1506385222.985,46.387,15.625,39.551,49.805,36.621,0
1506385222.989,48.340,30.762,42.480,45.898,44.922,0
1506385222.993,31.738,30.273,34.668,31.250,69.824,0
1506385222.997,28.320,17.090,32.715,36.621,51.758,0
1506385223.001,36.621,23.926,47.363,39.062,9.277,0
1506385223.005,46.387,37.598,54.688,43.457,37.109,0
1506385223.009,39.551,22.461,40.039,39.551,54.199,0
1506385223.013,30.273,19.531,30.762,27.344,16.602,0
1506385223.017,28.809,20.508,28.320,25.391,10.254,0
1506385223.020,30.762,19.531,42.969,43.945,21.973,0
1506385223.024,24.902,20.020,41.992,42.969,35.645,0
1506385223.028,24.414,25.391,32.227,36.621,32.227,0
1506385223.032,31.250,31.250,36.133,42.969,20.020,0
1506385223.036,23.926,28.809,36.621,28.320,37.109,0
1506385223.040,36.133,29.297,41.504,29.785,47.852,0
1506385223.044,41.016,27.832,37.598,37.109,60.059,0
1506385223.048,40.527,27.344,43.457,41.992,77.148,0
1506385223.052,47.363,27.344,49.316,41.992,60.059,0
1506385223.056,52.734,27.832,47.363,45.898,29.297,0
1506385223.060,54.688,32.227,47.363,49.805,9.277,0
1506385223.063,42.480,31.250,41.016,38.574,44.922,0
1506385223.067,53.223,30.762,49.805,46.875,71.289,0
1506385223.071,65.918,30.273,61.035,63.477,40.039,0
1506385223.075,44.922,34.180,46.387,51.270,24.902,0
1506385223.079,36.621,34.668,41.016,35.645,26.367,0
1506385223.083,40.039,27.832,48.340,41.016,50.781,0
1506385223.087,30.273,25.391,40.527,41.504,33.691,0
1506385223.091,24.902,26.367,37.598,27.344,8.789,0
1506385223.095,29.785,21.484,37.109,23.438,30.273,0
1506385223.099,37.109,17.578,37.109,26.855,32.715,0
1506385223.102,47.852,20.020,38.574,30.273,16.113,0
1506385223.106,60.059,32.715,41.016,36.133,-20.996,0
1506385223.110,46.387,37.109,35.156,28.320,31.250,0
1506385223.114,36.621,23.438,30.762,37.109,71.289,0
1506385223.118,49.316,13.184,42.480,40.527,-2.930,0
1506385223.122,29.297,18.066,37.109,24.414,-27.344,0
1506385223.126,24.902,27.344,30.273,39.062,38.086,0
1506385223.130,49.316,22.949,39.551,53.711,52.246,0
1506385223.134,55.664,25.391,46.387,59.082,9.277,0
1506385223.138,59.570,32.227,36.621,57.129,-0.488,0
1506385223.142,56.152,32.227,28.809,51.270,27.344,0
1506385223.145,45.410,30.273,31.738,47.852,54.688,0
1506385223.149,30.762,17.578,27.832,45.898,42.969,0
1506385223.153,19.043,9.277,11.719,32.227,9.277,0
1506385223.157,14.160,15.137,13.184,22.461,38.574,0
1506385223.161,20.020,14.648,20.996,29.297,62.500,0
1506385223.165,42.969,14.648,32.227,30.762,36.133,0
1506385223.169,45.898,25.391,39.062,34.180,28.320,0
1506385223.173,33.203,20.508,29.785,23.926,30.273,0
1506385223.177,40.039,11.230,33.203,23.438,36.621,0
1506385223.181,57.129,22.949,46.387,44.434,9.766,0
1506385223.185,54.688,38.574,43.945,43.945,0.977,0
1506385223.188,50.293,27.344,39.551,39.062,47.363,0
1506385223.192,38.086,19.043,35.156,34.668,9.766,0
1506385223.196,23.438,20.996,27.344,27.832,-0.488,0
1506385223.200,22.949,9.277,18.066,34.180,20.508,0
1506385223.204,27.832,15.137,26.367,43.945,3.906,0
1506385223.208,39.551,31.738,42.969,54.199,16.113,0
1506385223.212,43.457,20.508,45.898,50.293,25.879,0
1506385223.216,28.809,18.555,36.133,35.645,24.902,0
1506385223.220,34.668,27.832,43.457,38.574,24.414,0
1506385223.224,59.082,38.574,62.012,50.293,-3.418,0
1506385223.227,44.922,37.598,47.363,43.457,-15.625,0
1506385223.231,24.414,23.438,27.832,23.438,17.578,0
1506385223.235,38.574,17.090,32.227,24.414,23.926,0
1506385223.239,52.734,18.066,39.551,39.062,29.785,0
1506385223.243,43.457,25.879,40.527,43.945,44.434,0
1506385223.247,30.762,28.320,37.598,32.227,41.016,0
1506385223.251,30.273,15.137,30.762,24.414,41.992,0
1506385223.255,26.855,18.555,28.320,27.832,29.785,0
1506385223.259,35.156,37.109,34.668,41.016,9.766,0
1506385223.263,41.992,41.992,40.039,42.969,32.715,0
1506385223.267,46.875,23.926,38.574,30.762,30.273,0
1506385223.270,39.551,17.578,36.133,25.391,-26.855,0
1506385223.274,19.531,36.621,29.297,23.438,-7.812,0
1506385223.278,36.133,30.762,26.855,37.598,32.715,0
1506385223.282,39.551,24.902,22.461,35.645,59.570,0
1506385223.286,30.762,29.297,26.367,31.738,59.570,0
1506385223.290,39.551,34.180,32.227,39.551,27.832,0
1506385223.294,33.203,32.227,28.320,31.250,29.785,0
1506385223.298,32.715,27.344,24.414,27.344,38.574,0
1506385223.302,41.016,25.879,22.461,27.832,23.438,0
1506385223.306,32.715,22.461,28.320,32.227,19.531,0
1506385223.310,22.949,25.391,27.344,31.250,33.203,0
1506385223.313,36.133,20.020,25.391,35.645,52.246,0
1506385223.317,41.016,26.367,39.062,37.598,39.062,0
1506385223.321,38.086,30.273,36.621,30.762,48.828,0
1506385223.325,46.875,29.297,29.297,22.461,57.129,0
1506385223.329,34.668,26.855,25.879,18.066,56.152,0
1506385223.333,36.133,27.344,22.461,31.250,37.109,0
1506385223.337,55.176,29.297,35.156,42.969,32.715,0
1506385223.341,60.547,27.832,45.898,41.992,60.547,0
1506385223.345,50.293,30.273,47.363,38.574,39.062,0
1506385223.349,48.340,33.203,42.969,45.410,24.902,0
1506385223.352,39.062,25.879,34.180,44.434,41.992,0
1506385223.356,29.297,21.484,34.668,43.945,40.527,0
1506385223.360,37.598,31.738,36.133,41.016,4.395,0
1506385223.364,37.109,37.598,37.109,42.480,8.301,0
1506385223.368,37.598,24.902,48.340,49.316,48.828,0
1506385223.372,43.945,26.367,47.363,48.828,42.969,0
1506385223.376,41.504,30.273,34.180,43.945,41.016,0
1506385223.380,36.133,33.203,38.574,37.109,44.922,0
1506385223.384,41.992,35.645,40.039,44.922,62.500,0
1506385223.388,42.480,36.133,34.180,46.387,46.387,0
1506385223.392,42.480,43.945,43.457,47.852,32.715,0
1506385223.395,49.805,40.039,42.480,52.734,49.805,0
1506385223.399,53.223,21.484,34.180,51.270,33.203,0
1506385223.403,50.781,25.391,34.180,45.898,20.020,0
1506385223.407,31.250,36.133,25.391,30.762,16.602,0
1506385223.411,24.414,27.832,12.207,20.996,31.738,0
1506385223.415,28.809,12.207,15.137,20.996,31.738,0
1506385223.419,34.668,12.695,34.668,27.344,3.418,0
1506385223.423,43.457,37.109,41.992,40.039,0.000,0
1506385223.427,41.992,30.762,25.391,37.109,29.785,0
1506385223.431,44.434,11.719,33.203,35.156,31.250,0
1506385223.435,39.062,15.137,32.227,33.691,4.395,0
1506385223.438,40.039,28.320,14.648,28.320,-7.812,0
1506385223.442,42.480,23.438,14.648,21.484,20.996,0
1506385223.446,38.086,9.277,20.508,25.391,19.531,0
1506385223.450,39.062,17.578,27.344,32.715,-11.230,0
1506385223.454,31.738,28.809,23.926,23.438,-32.715,0
1506385223.458,27.832,20.508,21.973,20.020,-8.789,0
1506385223.462,40.527,25.879,30.762,28.809,5.371,0
1506385223.466,40.039,28.320,38.574,45.898,3.418,0
1506385223.470,32.227,21.484,31.250,43.457,15.137,0
1506385223.474,36.133,26.855,30.762,36.133,22.461,0
1506385223.477,47.363,31.738,38.086,46.875,1.465,0
1506385223.481,47.852,33.691,37.598,44.922,27.344,0
1506385223.485,43.457,30.762,37.598,37.598,52.734,0
1506385223.489,50.293,28.809,34.180,25.879,2.441,0
1506385223.493,61.035,25.879,44.434,37.109,-12.695,0
1506385223.497,55.664,30.762,55.664,51.270,-7.812,0
1506385223.501,38.574,36.621,47.363,44.922,33.203,0
1506385223.505,27.832,23.926,37.109,47.363,45.898,0
1506385223.509,22.461,23.438,37.109,46.387,19.043,0
1506385223.513,29.297,37.598,39.551,43.945,20.996,0
1506385223.517,38.086,33.691,42.969,48.340,53.711,0
1506385223.520,34.180,18.066,40.527,41.504,47.852,0
1506385223.524,31.250,18.555,32.715,31.250,8.301,0
1506385223.528,33.203,25.391,27.344,26.367,19.531,0
1506385223.532,27.832,20.508,26.367,21.973,36.133,0
1506385223.536,37.109,10.254,28.809,31.738,20.508,0
1506385223.540,41.504,18.066,32.227,44.434,0.000,0
1506385223.544,38.086,34.668,29.297,40.527,8.301,0
1506385223.548,34.668,28.320,24.902,32.715,32.715,0
1506385223.552,39.551,21.484,31.738,39.062,43.457,0
1506385223.556,51.270,31.738,36.133,46.875,35.645,0
1506385223.560,48.828,36.133,32.715,49.805,19.531,0
1506385223.563,50.293,32.227,36.621,50.781,34.180,0
1506385223.567,56.641,29.297,39.551,55.176,6.348,0
1506385223.571,56.152,28.809,41.016,51.270,-9.277,0
1506385223.575,49.805,26.855,32.227,38.086,34.180,0
1506385223.579,44.922,19.531,19.043,34.180,52.246,0
1506385223.583,34.668,20.508,23.438,22.461,54.199,0
1506385223.587,36.621,21.484,27.344,20.020,48.828,0
1506385223.591,43.945,25.879,24.414,25.391,52.734,0
1506385223.595,41.016,30.762,34.180,28.320,74.219,0
1506385223.599,32.715,18.555,37.109,22.949,55.664,0
1506385223.602,33.691,25.879,32.715,23.438,15.137,0
1506385223.606,40.527,33.691,33.691,34.668,26.367,0
1506385223.610,55.664,26.367,40.527,41.992,35.156,0
1506385223.614,57.129,27.344,40.039,36.133,10.254,0
1506385223.618,50.293,27.344,32.715,33.691,3.418,0
1506385223.622,59.082,36.133,43.457,58.594,23.926,0
1506385223.626,61.523,42.480,55.664,68.359,24.902,0
1506385223.630,42.480,27.832,47.363,45.898,28.809,0
1506385223.634,31.738,31.250,42.480,40.039,21.484,0
1506385223.638,25.391,35.645,48.828,35.645,46.875,0
1506385223.642,21.484,22.949,42.969,28.320,57.617,0
1506385223.645,29.785,33.203,43.457,40.527,43.457,0
1506385223.649,36.133,43.457,48.828,47.852,45.898,0
1506385223.653,42.480,33.203,45.410,42.969,57.129,0
1506385223.657,50.781,30.762,45.410,44.922,26.367,0
1506385223.661,40.039,31.250,41.504,37.109,7.324,0
1506385223.665,34.668,32.227,37.598,21.484,53.711,0
1506385223.669,44.434,25.391,36.621,18.066,69.824,0
1506385223.673,30.273,20.508,22.461,14.160,57.617,0
1506385223.677,24.414,20.020,23.438,19.531,37.109,0
1506385223.681,19.531,16.113,25.879,30.273,36.133,0
1506385223.685,19.043,18.066,25.879,30.762,20.508,0
1506385223.688,33.691,18.555,25.391,29.297,18.066,0
1506385223.692,24.414,27.832,24.902,29.297,20.996,0
1506385223.696,19.531,27.832,28.809,27.832,22.949,0
1506385223.700,34.668,20.020,31.738,38.086,21.973,0
1506385223.704,41.504,24.414,30.762,39.062,16.113,0
1506385223.708,37.109,28.320,25.391,33.691,19.531,0
1506385223.712,36.133,30.762,35.156,44.434,19.531,0
1506385223.716,46.387,26.855,43.457,49.805,34.668,0
1506385223.720,55.664,28.809,43.945,41.992,12.695,0
1506385223.724,50.781,20.508,35.156,35.156,11.230,0
1506385223.727,52.734,23.926,37.109,42.969,53.223,0
1506385223.731,58.105,29.297,48.828,50.293,52.734,0
1506385223.735,44.434,26.855,38.086,38.086,-14.160,0
1506385223.739,27.832,38.086,16.602,22.949,-17.090,0
1506385223.743,32.227,34.668,21.484,27.344,30.273,0
1506385223.747,43.457,37.109,38.574,38.086,38.574,0
1506385223.751,37.109,33.691,31.738,38.086,39.551,0
1506385223.755,39.551,33.691,29.297,33.203,43.457,0
1506385223.759,35.645,34.180,42.969,35.645,38.574,0
1506385223.763,32.227,33.203,45.898,42.969,12.207,0
1506385223.767,40.039,36.133,40.039,40.039,20.020,0
1506385223.770,35.645,26.367,33.203,36.621,26.367,0
1506385223.774,33.691,29.297,36.133,49.805,44.922,0
1506385223.778,34.180,34.668,39.062,52.734,22.461,0
1506385223.782,34.668,32.227,37.109,33.203,-6.348,0
1506385223.786,39.062,32.227,40.039,27.832,24.902,0
1506385223.790,40.527,32.715,41.504,34.180,20.020,0
1506385223.794,38.574,27.344,39.551,38.086,38.574,0
1506385223.798,39.062,25.391,36.133,44.922,28.809,0
1506385223.802,31.250,21.484,28.320,41.016,23.438,0
1506385223.806,36.133,23.926,32.715,40.039,34.668,0
1506385223.810,49.316,33.203,37.109,38.574,30.762,0
1506385223.813,46.387,38.086,34.180,36.621,42.969,0
1506385223.817,36.621,26.367,29.297,30.762,48.340,0
1506385223.821,50.781,23.926,40.527,40.527,20.020,0
1506385223.825,67.871,46.875,60.547,61.523,-10.742,0
1506385223.829,48.828,37.109,51.758,43.945,32.715,0
1506385223.833,37.109,23.438,37.109,33.691,63.965,0
1506385223.837,43.945,20.996,29.785,43.945,22.949,0
1506385223.841,31.250,23.926,24.414,45.898,18.066,0
1506385223.845,29.785,33.203,27.832,41.504,26.855,0
1506385223.849,42.480,33.691,34.668,41.016,31.738,0
1506385223.852,46.387,34.180,39.551,37.109,37.109,0
1506385223.856,35.645,22.949,26.855,21.484,37.109,0
1506385223.860,31.738,21.484,18.555,19.531,48.828,0
1506385223.864,34.668,20.020,22.461,23.438,43.945,0
1506385223.868,31.250,17.578,19.531,21.973,17.090,0
1506385223.872,21.484,23.438,13.672,16.113,27.832,0
1506385223.876,26.367,20.020,21.973,30.273,45.898,0
1506385223.880,44.434,19.531,41.504,54.199,30.762,0
1506385223.884,41.992,19.531,41.504,46.387,28.320,0
1506385223.888,34.180,21.973,27.344,31.738,37.109,0
1506385223.892,32.227,31.250,27.344,30.762,56.152,0
1506385223.895,34.668,27.832,40.039,30.762,67.383,0
1506385223.899,35.645,20.996,36.621,29.785,14.648,0
1506385223.903,30.762,21.973,27.832,20.020,-14.648,0
1506385223.907,35.645,30.762,30.273,16.602,27.344,0
1506385223.911,43.457,26.367,32.227,17.578,44.922,0
1506385223.915,52.246,25.391,32.715,30.762,35.645,0
1506385223.919,39.062,39.551,28.320,44.922,31.250,0
1506385223.923,19.043,31.250,27.344,34.180,35.645,0
1506385223.927,30.762,24.902,33.203,26.855,34.668,0
1506385223.931,39.062,27.832,34.668,26.367,12.695,0
1506385223.935,22.949,18.066,30.762,21.973,19.531,0
1506385223.938,17.090,10.254,18.555,23.438,17.090,0
1506385223.942,19.043,26.367,26.855,37.598,-2.930,0
1506385223.946,19.043,33.691,31.738,41.016,-1.953,0
1506385223.950,38.574,32.227,36.621,49.316,26.367,0
1506385223.954,56.152,34.668,45.898,51.758,38.086,0
1506385223.958,44.922,35.156,35.645,38.574,38.086,0
1506385223.962,38.086,28.320,32.227,42.480,53.711,0
1506385223.966,42.480,30.762,34.668,48.340,54.688,0
1506385223.970,41.504,32.715,35.645,48.340,38.574,0
1506385223.974,42.969,30.273,31.250,35.645,0.000,0
1506385223.977,38.086,34.668,28.320,20.508,4.395,0
1506385223.981,34.180,30.273,28.809,23.926,19.043,0
1506385223.985,38.574,21.973,31.250,34.668,8.301,0
1506385223.989,46.875,31.250,36.133,42.480,19.531,0
1506385223.993,52.246,44.434,36.133,47.852,50.293,0
1506385223.997,61.035,46.875,43.457,55.176,59.082,0
1506385224.001,61.523,38.086,47.852,46.875,53.223,0
1506385224.005,41.016,22.949,24.414,26.367,25.879,0
1506385224.009,40.039,36.133,21.484,19.043,19.531,0
1506385224.013,58.105,55.664,44.434,31.738,66.406,0
1506385224.017,45.410,37.109,43.945,37.598,79.590,0
1506385224.020,36.133,27.832,36.133,36.133,47.363,0
1506385224.024,42.480,43.945,37.109,38.574,11.719,0
1506385224.028,44.434,44.922,45.410,39.551,33.691,0
1506385224.032,50.293,34.180,48.340,37.598,24.902,0
1506385224.036,41.992,33.691,33.203,31.250,-8.301,0
1506385224.040,28.320,35.645,22.461,24.902,10.254,0
1506385224.044,27.832,29.297,27.832,27.344,23.438,0
1506385224.048,37.109,22.949,32.715,22.461,18.066,0
1506385224.052,47.852,27.832,39.551,27.832,3.418,0
1506385224.056,44.434,32.227,36.621,28.809,6.836,0
1506385224.060,34.180,33.203,26.367,23.926,25.391,0
1506385224.063,43.945,33.203,43.457,45.410,1.465,0
1506385224.067,42.480,29.785,42.480,39.551,-19.531,0
1506385224.071,21.973,25.391,25.391,20.020,27.344,0
1506385224.075,26.855,26.367,23.926,23.926,57.129,0
1506385224.079,45.410,28.320,40.527,41.016,64.453,0
1506385224.083,33.203,29.785,41.992,39.551,38.086,0
1506385224.087,24.414,31.250,34.668,24.902,28.320,0
1506385224.091,38.086,33.691,39.062,34.668,19.531,0
1506385224.095,36.133,40.527,31.738,38.086,19.531,0
1506385224.099,28.320,34.668,18.555,29.297,30.762,0
1506385224.102,38.574,29.785,23.438,28.320,42.480,0
1506385224.106,43.945,34.180,35.156,42.969,27.344,0
1506385224.110,40.039,31.738,38.086,47.852,14.160,0
1506385224.114,39.062,35.156,41.016,46.387,27.344,0
1506385224.118,39.551,28.809,44.922,49.316,32.715,0
1506385224.122,35.156,20.508,42.969,41.992,41.504,0
1506385224.126,29.785,27.832,31.738,40.039,23.926,0
1506385224.130,24.902,29.297,23.438,31.738,26.367,0
1506385224.134,36.621,14.160,33.203,36.133,50.293,0
1506385224.138,50.293,22.949,41.992,50.781,28.809,0
1506385224.142,41.016,33.691,30.762,42.969,6.348,0
1506385224.145,36.133,27.344,22.461,44.922,40.527,0
1506385224.149,33.203,17.578,20.020,37.598,40.527,0
1506385224.153,29.785,13.672,24.902,27.344,18.555,0
1506385224.157,49.316,31.738,33.203,32.227,18.066,0
1506385224.161,61.523,33.691,36.133,34.668,25.391,0
1506385224.165,57.617,16.113,33.203,37.598,39.062,0
1506385224.169,44.922,9.766,22.461,20.020,42.480,0
1506385224.173,40.039,4.883,23.438,10.742,24.414,0
1506385224.177,36.621,12.207,21.973,15.625,33.203,0
1506385224.181,31.738,6.348,19.043,16.602,52.246,0
1506385224.185,41.992,4.395,34.668,26.855,24.902,0
1506385224.188,51.270,26.855,37.598,39.551,2.441,0
1506385224.192,50.781,26.855,35.645,41.504,14.160,0
1506385224.196,40.527,12.695,27.344,34.668,24.414,0
1506385224.200,30.762,13.672,25.879,35.156,28.320,0
1506385224.204,27.344,20.508,34.668,35.156,-3.906,0
1506385224.208,28.320,29.297,35.156,26.855,7.812,0
1506385224.212,37.109,24.902,45.410,42.480,40.527,0
1506385224.216,47.363,25.879,46.875,48.340,5.859,0
1506385224.220,36.621,33.691,38.086,37.109,5.859,0
1506385224.224,18.555,22.461,33.203,34.668,49.805,0
1506385224.227,32.715,23.438,37.598,53.223,50.781,0
1506385224.231,42.969,28.320,34.668,47.852,26.855,0
1506385224.235,33.691,24.902,31.738,29.297,23.926,0
1506385224.239,26.855,22.461,25.391,20.020,26.855,0
1506385224.243,36.133,25.391,26.855,32.227,20.508,0
1506385224.247,47.852,36.621,41.504,43.945,18.066,0
1506385224.251,47.852,35.645,35.156,36.621,48.340,0
1506385224.255,38.086,29.785,18.066,32.715,50.781,0
1506385224.259,32.715,40.527,20.020,27.344,49.805,0
1506385224.263,49.805,48.828,38.574,45.898,30.273,0
1506385224.267,52.246,36.621,39.551,49.805,32.715,0
1506385224.270,48.340,24.902,34.180,38.574,28.809,0
1506385224.274,42.480,29.297,37.598,38.086,22.949,0
1506385224.278,41.992,42.480,35.156,41.992,31.250,0
1506385224.282,50.781,42.480,37.109,44.922,39.551,0
1506385224.286,45.410,27.832,31.250,37.598,26.367,0
1506385224.290,33.203,30.762,18.066,30.273,13.184,0
1506385224.294,25.391,40.039,25.879,14.160,55.664,0
1506385224.298,28.320,39.062,36.133,16.602,38.574,0
1506385224.302,33.203,32.715,34.180,30.762,18.066,0
1506385224.306,34.180,32.227,36.621,32.715,26.855,0
1506385224.310,28.320,35.156,35.645,31.250,48.340,0
1506385224.313,23.926,29.297,33.691,36.621,63.965,0
1506385224.317,32.227,22.949,35.156,38.574,26.367,0
1506385224.321,36.621,35.645,41.016,36.621,-14.160,0
1506385224.325,34.180,38.086,42.480,34.668,8.301,0
1506385224.329,28.320,25.879,42.480,32.715,39.062,0
1506385224.333,36.133,28.320,44.434,45.410,24.414,0
1506385224.337,49.805,40.527,49.805,53.711,-7.812,0
1506385224.341,37.109,44.922,48.340,42.969,-4.395,0
1506385224.345,31.250,44.434,41.992,34.180,30.762,0
1506385224.349,21.973,35.645,35.645,20.508,52.734,0
1506385224.352,7.324,24.902,27.344,21.973,35.156,0
1506385224.356,15.137,33.691,30.273,33.203,40.527,0
1506385224.360,26.367,35.645,34.668,28.320,45.898,0
1506385224.364,32.715,26.855,37.109,30.762,22.461,0
1506385224.368,33.691,40.039,31.738,27.344,11.719,0
1506385224.372,33.691,41.992,18.555,17.578,30.762,0
1506385224.376,37.598,26.367,18.066,20.508,34.180,0
1506385224.380,38.086,27.344,28.320,30.762,0.000,0
1506385224.384,44.922,30.762,29.297,38.574,14.648,0
1506385224.388,41.992,27.832,19.531,33.691,42.480,0
1506385224.392,39.062,37.598,33.691,47.852,25.391,0
1506385224.395,46.387,44.922,40.039,60.059,15.625,0
1506385224.399,43.945,32.715,24.414,48.340,22.461,0
1506385224.403,47.852,17.578,26.367,44.922,23.926,0
1506385224.407,47.852,24.414,29.297,47.363,34.668,0
1506385224.411,48.340,27.344,25.391,44.922,44.434,0
1506385224.415,46.875,21.484,21.973,36.133,7.324,0
1506385224.419,38.574,22.461,24.902,32.227,14.160,0
1506385224.423,38.086,28.809,32.227,44.434,25.879,0
1506385224.427,32.227,32.715,38.086,49.316,5.371,0
1506385224.431,32.227,21.973,33.203,55.664,36.133,0
1506385224.435,44.434,20.996,25.879,54.688,44.434,0
1506385224.438,40.039,23.438,32.715,41.992,29.785,0
1506385224.442,35.156,33.203,37.109,44.922,25.879,0
1506385224.446,37.109,35.156,37.109,43.457,48.340,0
1506385224.450,37.109,22.949,35.645,39.551,41.992,0
1506385224.454,27.344,28.809,35.156,29.297,15.625,0
1506385224.458,22.949,34.668,31.738,24.902,41.992,0
1506385224.462,20.996,27.344,22.949,20.508,77.637,0
1506385224.466,13.184,21.973,28.320,15.137,73.242,0
1506385224.470,23.926,25.391,34.668,22.949,36.133,0
1506385224.474,29.785,33.691,32.715,32.715,25.879,0
1506385224.477,28.809,36.621,32.715,34.180,43.945,0
1506385224.481,34.180,29.297,35.645,33.691,36.621,0
1506385224.485,42.969,43.945,48.828,46.387,-3.906,0
1506385224.489,36.621,51.758,41.504,49.805,18.555,0
1506385224.493,27.344,31.250,34.180,43.945,58.594,0
1506385224.497,28.809,28.809,47.363,42.480,21.484,0
1506385224.501,26.367,25.391,35.645,32.227,0.488,0
1506385224.505,29.785,25.879,24.414,25.879,45.410,0
1506385224.509,26.855,25.391,21.484,21.973,49.316,0
1506385224.513,26.855,31.250,23.438,23.438,38.574,0
1506385224.517,32.227,29.297,26.367,32.227,41.504,0
1506385224.520,31.250,19.043,24.902,27.344,13.184,0
1506385224.524,35.156,24.902,28.320,21.484,28.809,0
1506385224.528,41.504,20.996,27.832,24.902,47.852,0
1506385224.532,34.180,18.555,22.949,34.668,10.742,0
1506385224.536,34.180,25.391,23.926,34.180,-6.836,0
1506385224.540,49.805,20.996,27.832,39.062,3.906,0
1506385224.544,49.316,27.344,23.926,38.086,9.277,0
1506385224.548,48.828,34.668,30.273,33.203,25.391,0
1506385224.552,48.828,18.066,28.809,29.297,57.129,0
1506385224.556,46.875,12.695,23.438,30.273,65.430,0
1506385224.560,52.734,27.344,29.785,34.668,62.988,0
1506385224.563,39.551,23.438,21.973,23.438,50.781,0
1506385224.567,35.156,10.254,10.742,23.438,34.180,0
1506385224.571,31.250,12.207,15.625,30.762,14.160,0
1506385224.575,16.113,21.484,16.113,23.926,29.785,0
1506385224.579,17.090,20.508,13.184,22.949,40.527,0
1506385224.583,32.715,16.602,24.902,35.645,48.340,0
1506385224.587,34.180,11.230,23.438,36.621,46.387,0
1506385224.591,34.668,17.090,20.508,36.133,21.973,0
1506385224.595,36.621,16.602,22.949,29.785,41.504,0
1506385224.599,39.062,8.789,20.508,14.648,42.969,0
1506385224.602,38.574,5.371,27.344,19.043,20.508,0
1506385224.606,38.086,18.555,36.133,29.297,10.742,0
1506385224.610,35.645,28.320,32.715,33.203,38.086,0
1506385224.614,35.156,14.648,36.133,34.668,24.414,0
1506385224.618,50.293,12.695,40.039,43.457,-18.555,0
1506385224.622,38.086,21.484,29.785,28.809,-3.906,0
1506385224.626,23.926,22.461,26.367,17.090,17.578,0
1506385224.630,36.621,25.879,35.156,37.109,40.527,0
1506385224.634,36.133,22.461,30.762,41.504,22.461,0
1506385224.638,37.109,18.555,29.297,37.109,0.000,0
1506385224.642,41.504,18.066,34.180,29.785,43.945,0
1506385224.645,36.133,10.742,24.414,25.879,37.598,0
1506385224.649,24.902,15.625,19.043,27.344,27.344,0
1506385224.653,13.184,14.160,9.277,21.973,34.180,0
1506385224.657,20.508,13.672,10.254,25.879,32.715,0
1506385224.661,34.668,15.625,20.020,32.715,59.570,0
1506385224.665,33.203,9.277,24.414,28.809,39.551,0
1506385224.669,27.832,16.602,25.879,35.156,9.277,0
1506385224.673,34.180,27.832,27.832,38.574,24.414,0
1506385224.677,40.039,24.414,34.180,41.504,29.785,0
1506385224.681,38.574,22.461,29.785,43.945,45.410,0
1506385224.685,36.621,27.832,27.344,40.527,47.363,0
1506385224.688,36.621,27.344,24.902,38.574,44.434,0
1506385224.692,40.039,14.648,18.555,38.086,40.039,0
1506385224.696,35.645,20.996,16.602,41.992,9.766,0
1506385224.700,26.855,27.344,12.207,53.711,54.688,0
1506385224.704,21.484,17.090,17.090,50.293,65.918,0
1506385224.708,35.645,26.367,26.367,41.992,23.438,0
1506385224.712,44.434,29.297,33.203,45.898,11.230,0
1506385224.716,26.367,21.484,24.414,28.809,22.461,0
1506385224.720,33.691,24.414,21.484,23.926,49.805,0
1506385224.724,52.734,32.227,32.227,41.992,33.691,0
1506385224.727,35.156,38.574,21.484,27.344,2.930,0
1506385224.731,15.137,29.297,7.812,11.230,41.504,0
1506385224.735,32.227,20.020,13.184,20.020,65.430,0
1506385224.739,36.621,21.484,12.207,26.367,48.340,0
1506385224.743,26.855,28.320,17.578,33.691,61.523,0
1506385224.747,29.785,33.691,34.180,39.551,60.547,0
1506385224.751,32.715,23.926,24.902,40.039,30.273,0
1506385224.755,36.621,20.020,22.461,42.480,17.578,0
1506385224.759,37.109,35.156,31.738,45.410,23.926,0
1506385224.763,35.645,38.086,30.762,41.992,44.434,0
1506385224.767,43.457,24.414,36.133,41.504,28.809,0
1506385224.770,47.363,26.855,34.668,43.945,9.766,0
1506385224.774,50.781,38.574,23.926,36.621,45.898,0
1506385224.778,54.688,30.762,26.855,24.902,77.148,0
1506385224.782,50.293,15.625,35.156,38.574,73.730,0
1506385224.786,41.504,20.508,38.086,49.805,22.949,0
1506385224.790,34.668,22.461,29.785,32.227,16.602,0
1506385224.794,38.086,14.648,29.785,33.691,37.109,0
1506385224.798,33.691,20.508,33.203,37.109,45.898,0
1506385224.802,31.250,15.625,26.855,31.250,59.570,0
1506385224.806,31.738,11.719,16.602,27.344,51.270,0
1506385224.810,37.109,28.809,18.555,27.344,36.133,0
1506385224.813,46.875,33.203,36.133,43.457,28.809,0
1506385224.817,44.922,25.879,30.273,45.410,2.441,0
1506385224.821,32.715,22.949,16.113,25.879,35.156,0
1506385224.825,23.438,19.531,21.484,22.461,24.902,0
1506385224.829,34.180,24.414,32.227,34.180,-14.648,0
1506385224.833,39.062,24.414,33.203,38.086,21.973,0
1506385224.837,39.551,29.785,32.227,30.762,54.688,0
1506385224.841,40.039,31.738,33.691,38.574,51.270,0
1506385224.845,40.039,33.203,34.180,53.223,20.020,0
1506385224.849,37.598,33.203,30.273,51.758,17.090,0
1506385224.852,38.086,27.832,33.691,51.758,25.879,0
1506385224.856,40.527,29.297,34.668,41.992,25.391,0
1506385224.860,41.504,34.180,31.250,33.691,6.836,0
1506385224.864,36.133,35.645,33.203,36.621,23.438,0
1506385224.868,33.203,24.902,29.297,32.227,58.594,0
1506385224.872,40.039,24.902,27.832,35.645,40.039,0
1506385224.876,40.039,38.574,33.691,42.480,17.090,0
1506385224.880,38.086,41.504,36.133,44.922,61.523,0
1506385224.884,37.109,38.574,44.434,50.293,65.430,0
1506385224.888,30.762,40.527,43.945,36.133,14.648,0
1506385224.892,33.691,43.457,38.574,35.645,6.348,0
1506385224.895,32.715,37.109,40.039,38.086,61.035,0
1506385224.899,36.621,30.273,45.898,40.527,55.664,0
1506385224.903,33.691,36.621,40.039,36.621,10.742,0
1506385224.907,30.273,39.062,42.969,32.715,17.090,0
1506385224.911,35.645,45.898,53.223,42.969,47.363,0
1506385224.915,33.691,38.086,43.457,41.504,73.730,0
1506385224.919,36.621,37.109,35.156,39.062,28.320,0
1506385224.923,36.133,48.828,40.527,41.992,-17.578,0
1506385224.927,43.457,43.945,39.551,48.340,34.180,0
1506385224.931,46.875,37.109,45.898,53.711,62.988,0
1506385224.935,37.109,32.715,45.410,52.246,46.387,0
1506385224.938,37.598,38.574,33.691,50.781,25.391,0
1506385224.942,35.645,42.969,34.668,42.969,16.113,0
1506385224.946,39.062,35.156,37.598,39.551,67.871,0
1506385224.950,46.387,29.297,36.621,46.387,50.293,0
1506385224.954,35.645,40.527,31.250,42.480,7.324,0
1506385224.958,31.250,41.992,27.344,41.504,44.434,0
1506385224.962,38.574,29.297,32.227,50.293,55.664,0
1506385224.966,46.387,32.227,41.504,55.664,14.160,0
1506385224.970,39.551,38.574,33.203,42.969,27.344,0
1506385224.974,37.109,32.715,23.926,43.945,48.828,0
1506385224.977,35.156,37.598,17.578,41.504,41.016,0
1506385224.981,22.461,37.598,23.438,34.180,26.367,0
1506385224.985,25.879,29.297,26.855,36.621,22.461,0
1506385224.989,41.992,28.320,25.391,39.062,31.250,0
1506385224.993,52.246,28.809,24.902,40.039,13.184,0
1506385224.997,49.805,37.598,28.320,40.527,12.695,0
1506385225.001,49.316,43.945,28.809,43.945,33.203,0
1506385225.005,43.945,44.922,29.785,29.297,4.395,0
1506385225.009,31.738,38.086,34.668,26.855,-25.391,0
1506385225.013,24.902,36.621,21.484,21.973,7.324,0
1506385225.017,21.484,31.250,19.043,13.672,50.781,0
