timestamps,TP9,AF7,AF8,TP10,Right AUX,Marker0
1506375083.403,28.320,25.879,39.551,40.527,160.156,0
1506375083.407,28.809,33.691,39.551,40.527,178.711,0
1506375083.410,41.504,39.551,36.621,41.016,224.609,0
1506375083.414,43.457,39.551,36.133,45.898,239.258,0
1506375083.418,50.293,38.086,34.668,51.270,207.520,0
1506375083.422,49.316,42.480,31.250,46.875,226.074,0
1506375083.426,49.316,48.340,33.203,40.039,244.629,0
1506375083.430,53.711,46.875,33.203,38.086,257.812,0
1506375083.434,42.969,51.758,33.691,43.457,258.789,0
1506375083.438,24.902,56.641,34.180,47.363,264.160,0
1506375083.442,18.555,41.016,32.227,43.945,305.664,0
1506375083.446,27.344,37.109,31.738,47.852,321.289,0
1506375083.450,27.344,45.898,26.855,45.410,323.730,0
1506375083.453,31.738,45.410,38.574,44.434,347.656,0
1506375083.457,38.086,36.133,47.852,50.293,349.609,0
1506375083.461,40.039,37.598,46.387,49.316,360.352,0
1506375083.465,44.922,40.527,48.828,42.480,353.516,0
1506375083.469,34.668,30.273,38.086,32.715,336.426,0
1506375083.473,21.973,32.715,36.133,39.551,348.145,0
1506375083.477,20.996,30.273,33.691,46.875,317.383,0
1506375083.481,19.531,37.598,24.414,41.504,318.848,0
1506375083.485,20.508,41.992,31.738,39.551,345.215,0
1506375083.489,22.949,27.344,41.992,40.527,287.598,0
1506375083.493,25.391,27.344,37.598,33.203,243.652,0
1506375083.496,14.160,36.133,33.691,24.414,252.441,0
1506375083.500,18.066,35.645,45.898,29.785,252.930,0
1506375083.504,28.809,36.133,43.457,30.273,208.984,0
1506375083.508,24.414,38.086,42.969,27.344,184.570,0
1506375083.512,25.879,32.227,42.480,22.949,163.086,0
1506375083.516,26.367,19.043,40.039,15.625,145.020,0
1506375083.520,27.344,16.113,41.992,15.625,119.629,0
1506375083.524,31.250,20.996,37.109,19.531,69.824,0
1506375083.528,29.785,19.531,39.062,13.672,95.215,0
1506375083.532,31.250,18.555,39.551,18.555,129.395,0
1506375083.535,48.340,10.742,41.504,25.391,97.656,0
1506375083.539,51.758,20.508,43.945,17.090,68.359,0
1506375083.543,45.410,39.551,34.180,14.160,90.332,0
1506375083.547,44.434,27.832,40.527,17.090,101.074,0
1506375083.551,38.574,20.020,53.711,30.273,44.434,0
1506375083.555,27.832,35.156,43.945,43.945,19.531,0
1506375083.559,25.879,33.203,43.457,49.316,9.766,0
1506375083.563,42.480,29.785,50.781,47.852,-10.742,0
1506375083.567,41.504,38.086,52.246,44.922,-17.090,0
1506375083.571,23.438,45.898,43.945,36.621,-47.363,0
1506375083.575,28.320,39.551,40.039,28.809,-45.410,0
1506375083.578,37.598,30.762,37.598,31.250,-46.387,0
1506375083.582,24.414,32.227,32.715,31.738,-78.613,0
1506375083.586,23.926,40.039,33.691,37.109,-69.824,0
1506375083.590,31.738,34.668,38.574,45.410,-91.797,0
1506375083.594,36.133,25.879,45.898,47.363,-143.066,0
1506375083.598,39.062,33.203,45.410,47.852,-141.602,0
1506375083.602,35.645,38.574,41.504,45.410,-135.742,0
1506375083.606,39.551,32.715,43.945,40.039,-122.559,0
1506375083.610,36.133,21.484,40.527,46.875,-148.438,0
1506375083.614,27.344,27.344,33.203,49.805,-161.621,0
1506375083.618,26.855,30.762,42.480,43.457,-151.855,0
1506375083.621,17.090,24.902,48.340,37.598,-162.598,0
1506375083.625,9.766,24.902,40.039,35.645,-179.688,0
1506375083.629,25.391,26.855,41.016,42.480,-185.547,0
1506375083.633,31.250,22.949,40.527,39.551,-182.129,0
1506375083.637,22.461,25.879,35.645,31.738,-150.879,0
1506375083.641,21.973,43.457,39.062,32.715,-167.969,0
1506375083.645,22.461,54.688,29.297,30.273,-195.312,0
1506375083.649,17.578,49.805,20.996,22.949,-181.152,0
1506375083.653,13.672,38.086,25.879,24.902,-234.863,0
1506375083.657,23.438,32.227,26.367,30.762,-249.023,0
1506375083.660,25.391,35.156,27.832,30.762,-255.371,0
1506375083.664,22.461,35.156,31.738,27.832,-250.000,0
1506375083.668,21.973,31.250,29.785,28.320,-238.281,0
1506375083.672,23.926,37.109,31.738,27.344,-251.953,0
1506375083.676,33.203,46.387,49.316,38.574,-224.609,0
1506375083.680,39.062,44.434,48.340,46.875,-215.332,0
1506375083.684,41.504,34.180,27.832,41.992,-225.098,0
1506375083.688,50.293,41.992,24.902,48.828,-233.398,0
1506375083.692,56.152,53.711,31.250,54.688,-238.281,0
1506375083.696,60.059,45.410,35.156,49.316,-245.605,0
1506375083.700,62.500,40.527,31.738,46.387,-261.230,0
1506375083.703,65.430,38.574,26.855,52.734,-255.859,0
1506375083.707,55.176,33.691,26.367,48.340,-244.629,0
1506375083.711,51.758,30.762,32.715,44.434,-274.414,0
1506375083.715,54.688,27.832,45.898,54.688,-310.547,0
1506375083.719,26.367,22.949,49.316,57.617,-293.457,0
1506375083.723,11.230,26.367,41.992,55.664,-262.695,0
1506375083.727,24.414,22.949,37.598,57.617,-260.254,0
1506375083.731,30.273,22.461,32.227,57.617,-253.906,0
1506375083.735,20.020,24.902,30.273,53.223,-256.836,0
1506375083.739,9.277,20.020,24.902,44.434,-251.465,0
1506375083.743,18.555,15.137,30.273,46.875,-231.445,0
1506375083.746,36.621,15.625,43.457,51.758,-212.402,0
1506375083.750,40.039,19.531,41.992,48.828,-201.660,0
1506375083.754,22.461,18.066,38.086,42.480,-189.941,0
1506375083.758,20.508,12.695,49.316,44.434,-175.293,0
1506375083.762,29.297,12.207,51.758,53.711,-158.691,0
1506375083.766,27.832,20.996,49.805,51.758,-147.949,0
1506375083.770,20.020,19.043,46.387,45.410,-117.676,0
1506375083.774,15.625,12.207,44.922,44.922,-76.660,0
1506375083.778,14.160,16.602,47.852,39.551,-49.316,0
1506375083.782,19.043,30.273,47.363,39.062,-0.977,0
1506375083.785,25.391,27.344,42.480,41.992,37.109,0
1506375083.789,18.066,30.273,32.715,32.227,77.148,0
1506375083.793,21.973,35.156,27.832,34.180,124.512,0
1506375083.797,29.297,35.645,32.227,37.598,149.414,0
1506375083.801,24.902,32.227,34.668,25.879,166.992,0
1506375083.805,31.738,22.461,40.527,27.344,197.266,0
1506375083.809,26.855,26.367,37.598,27.344,169.434,0
1506375083.813,21.484,32.227,28.320,24.902,192.871,0
1506375083.817,22.949,25.391,29.785,30.273,242.188,0
1506375083.821,26.367,31.738,34.668,34.668,219.727,0
1506375083.825,33.691,31.250,32.715,40.039,211.914,0
1506375083.828,26.367,29.297,28.320,39.062,219.238,0
1506375083.832,14.648,26.855,32.227,41.504,234.375,0
1506375083.836,12.207,42.969,31.250,43.945,202.148,0
1506375083.840,10.254,-14.160,32.227,39.551,194.824,0
1506375083.844,2.441,-125.000,31.250,39.062,237.305,0
1506375083.848,8.789,-133.789,28.809,35.645,237.793,0
1506375083.852,16.602,-124.023,31.738,33.203,169.434,0
1506375083.856,18.066,-106.445,38.086,37.598,169.922,0
1506375083.860,14.648,-100.098,39.062,45.898,223.145,0
1506375083.864,2.441,-106.934,39.062,46.387,214.355,0
1506375083.868,-2.441,-94.238,37.109,41.504,185.547,0
1506375083.871,13.184,-75.684,32.715,46.387,174.805,0
1506375083.875,18.066,-69.824,40.039,49.805,198.730,0
1506375083.879,7.812,-74.707,45.410,46.875,200.684,0
1506375083.883,6.348,-80.078,36.621,45.410,172.852,0
1506375083.887,8.789,-64.941,32.715,42.969,157.715,0
1506375083.891,8.789,-53.711,37.109,44.434,153.809,0
1506375083.895,6.348,-59.570,38.574,44.922,109.863,0
1506375083.899,9.277,-52.246,39.551,42.480,46.875,0
1506375083.903,13.672,-30.273,42.480,44.434,74.219,0
1506375083.907,19.043,-15.625,42.480,41.016,96.680,0
1506375083.910,18.555,-6.348,40.527,44.434,41.504,0
1506375083.914,7.812,6.836,33.203,43.457,36.621,0
1506375083.918,-0.488,7.324,37.598,38.574,75.195,0
1506375083.922,1.465,-9.277,38.086,34.668,47.852,0
1506375083.926,2.441,-22.949,28.809,28.809,33.203,0
1506375083.930,8.301,-29.785,30.273,31.738,28.809,0
1506375083.934,18.555,-39.062,40.039,33.691,-7.812,0
1506375083.938,19.043,-45.410,35.156,27.832,-32.715,0
1506375083.942,19.043,-31.250,28.320,29.297,-29.785,0
1506375083.946,22.461,-21.484,22.949,27.344,-14.648,0
1506375083.950,25.879,-20.996,26.855,25.879,-13.184,0
1506375083.953,22.949,-22.461,36.133,27.832,-55.176,0
1506375083.957,27.832,-14.160,34.180,29.297,-100.098,0
1506375083.961,20.996,12.207,25.879,24.902,-75.195,0
1506375083.965,18.555,25.391,25.391,23.926,-31.250,0
1506375083.969,30.273,19.043,32.227,24.414,-44.434,0
1506375083.973,32.227,15.625,31.738,24.902,-54.688,0
1506375083.977,34.668,27.344,29.297,23.438,-39.062,0
1506375083.981,34.180,31.738,31.250,25.391,-25.391,0
1506375083.985,30.762,35.645,36.133,31.250,-58.105,0
1506375083.989,15.137,47.363,32.227,34.668,-67.871,0
1506375083.993,0.977,56.641,25.391,37.598,-36.133,0
1506375083.996,-0.977,52.734,34.668,37.109,-39.551,0
1506375084.000,7.324,47.852,41.016,39.062,-40.039,0
1506375084.004,12.207,57.617,46.875,43.945,-40.527,0
1506375084.008,17.578,65.918,47.852,41.992,-24.902,0
1506375084.012,20.020,64.453,41.016,30.273,-8.301,0
1506375084.016,22.949,76.660,35.645,25.879,-42.480,0
1506375084.020,23.926,92.285,34.668,37.109,-37.598,0
1506375084.024,15.625,86.426,30.762,32.227,-13.184,0
1506375084.028,20.020,89.355,29.297,22.949,-7.324,0
1506375084.032,22.461,99.121,37.598,24.902,-29.785,0
1506375084.035,23.926,99.121,43.457,28.320,-64.453,0
1506375084.039,20.020,100.586,40.039,33.203,-57.129,0
1506375084.043,14.160,86.426,28.809,34.180,-34.180,0
1506375084.047,16.113,69.336,32.227,29.297,-45.898,0
1506375084.051,21.973,77.637,32.227,25.391,-48.340,0
1506375084.055,26.855,78.125,31.250,23.926,-37.109,0
1506375084.059,19.043,68.848,40.527,27.344,-43.945,0
1506375084.063,14.648,63.965,43.945,28.809,-38.574,0
1506375084.067,12.207,73.242,43.945,20.508,-4.395,0
1506375084.071,2.930,85.449,41.504,13.672,1.465,0
1506375084.075,3.906,87.891,41.504,9.277,-20.996,0
1506375084.078,0.000,93.262,39.062,10.254,-19.043,0
1506375084.082,-6.348,95.215,28.320,14.160,2.930,0
1506375084.086,-6.348,88.379,30.762,13.672,8.789,0
1506375084.090,3.906,78.613,38.086,14.648,17.090,0
1506375084.094,17.090,83.008,32.715,12.695,5.859,0
1506375084.098,21.484,81.543,28.320,12.207,26.367,0
1506375084.102,22.461,66.406,29.785,12.695,17.090,0
1506375084.106,19.531,68.359,31.250,10.742,31.738,0
1506375084.110,19.043,71.777,34.668,12.695,66.406,0
1506375084.114,19.531,75.195,32.715,15.625,85.938,0
1506375084.118,11.230,72.266,31.250,14.160,98.633,0
1506375084.121,0.977,63.477,31.250,9.766,68.848,0
1506375084.125,-6.348,68.359,31.738,12.207,91.309,0
1506375084.129,-9.766,68.848,29.785,11.230,138.184,0
1506375084.133,0.977,58.594,32.227,11.230,125.488,0
1506375084.137,13.184,52.246,37.109,16.602,97.656,0
1506375084.141,11.230,62.988,27.832,10.742,135.254,0
1506375084.145,9.766,73.242,22.949,3.906,185.547,0
1506375084.149,21.484,71.289,30.273,12.207,191.406,0
1506375084.153,14.648,67.871,29.297,14.648,166.016,0
1506375084.157,4.883,71.289,26.367,15.137,179.688,0
1506375084.160,10.742,68.848,34.180,24.902,211.914,0
1506375084.164,13.672,62.500,39.062,27.832,190.430,0
1506375084.168,23.926,62.012,35.156,22.461,196.777,0
1506375084.172,31.738,59.570,37.109,20.508,212.891,0
1506375084.176,26.855,60.547,33.691,16.602,205.078,0
1506375084.180,21.973,57.129,25.879,17.090,211.426,0
1506375084.184,16.113,55.664,27.344,19.043,199.219,0
1506375084.188,25.879,65.430,34.180,18.066,201.660,0
1506375084.192,22.461,61.523,35.645,21.973,213.867,0
1506375084.196,3.906,61.523,24.902,23.926,213.379,0
1506375084.200,11.230,70.801,29.785,26.367,224.121,0
1506375084.203,18.066,68.848,32.715,22.461,225.098,0
1506375084.207,30.273,64.453,36.621,21.973,215.332,0
1506375084.211,39.062,67.871,45.898,33.691,220.703,0
1506375084.215,30.273,67.871,43.457,35.156,220.215,0
1506375084.219,29.785,66.406,43.945,29.785,207.520,0
1506375084.223,43.945,75.684,42.969,32.227,184.082,0
1506375084.227,43.457,80.078,37.109,30.273,136.230,0
1506375084.231,32.227,91.797,34.180,28.320,139.648,0
1506375084.235,26.367,87.891,34.180,28.809,161.621,0
1506375084.239,25.391,77.637,37.109,27.832,131.348,0
1506375084.243,41.016,86.426,32.227,22.949,104.980,0
1506375084.246,49.316,85.938,34.668,23.438,136.719,0
1506375084.250,40.039,75.195,37.109,22.461,157.227,0
1506375084.254,46.387,72.266,35.645,21.484,123.047,0
1506375084.258,45.898,78.613,41.504,31.738,101.562,0
1506375084.262,26.367,79.102,33.691,29.297,75.195,0
1506375084.266,26.855,76.660,33.691,29.785,74.219,0
1506375084.270,28.809,85.449,38.086,32.227,74.707,0
1506375084.274,32.227,119.141,35.645,36.133,62.988,0
1506375084.278,37.598,167.480,39.062,34.180,104.492,0
1506375084.282,34.180,189.941,41.992,22.461,95.215,0
1506375084.285,42.480,197.754,39.062,24.414,69.824,0
1506375084.289,45.410,200.684,36.133,27.344,83.008,0
1506375084.293,36.133,191.895,35.156,24.414,92.285,0
1506375084.297,32.227,177.246,39.062,31.738,93.262,0
1506375084.301,32.227,172.852,34.668,36.133,90.332,0
1506375084.305,44.922,179.688,40.039,43.945,81.543,0
1506375084.309,55.176,167.969,49.316,41.992,74.707,0
1506375084.313,49.805,154.785,46.875,40.527,76.660,0
1506375084.317,42.969,150.879,42.480,36.621,44.434,0
1506375084.321,35.645,146.973,44.922,33.691,31.250,0
1506375084.325,31.738,140.137,44.434,40.039,62.012,0
1506375084.328,25.879,124.512,38.574,46.875,47.852,0
1506375084.332,20.508,120.605,33.691,45.410,3.418,0
1506375084.336,18.555,125.488,39.551,39.551,0.977,0
1506375084.340,7.324,120.605,36.621,37.598,47.363,0
1506375084.344,3.418,116.699,21.484,33.203,43.945,0
1506375084.348,13.672,118.164,29.785,40.527,1.953,0
1506375084.352,17.090,118.652,43.945,38.574,16.602,0
1506375084.356,13.184,110.840,41.992,27.344,26.367,0
1506375084.360,16.602,103.027,38.086,25.391,-4.395,0
1506375084.364,27.832,105.957,40.039,21.973,-39.062,0
1506375084.368,35.645,115.723,39.551,23.926,-21.973,0
1506375084.371,27.344,115.234,31.738,18.555,14.648,0
1506375084.375,29.785,105.957,33.203,22.949,4.883,0
1506375084.379,39.551,112.305,32.227,22.949,30.273,0
1506375084.383,43.457,122.070,35.645,24.414,43.945,0
1506375084.387,42.969,116.699,45.898,36.133,36.621,0
1506375084.391,43.945,110.840,40.039,32.715,45.898,0
1506375084.395,53.223,113.770,30.273,32.227,32.227,0
1506375084.399,50.781,114.258,23.926,34.180,7.812,0
1506375084.403,46.875,104.980,28.809,37.109,-1.953,0
1506375084.407,43.945,95.703,29.785,32.227,0.488,0
1506375084.410,39.551,92.285,28.809,24.902,-26.367,0
1506375084.414,34.668,87.891,39.062,30.273,-26.367,0
1506375084.418,32.715,73.242,40.039,30.762,-21.484,0
1506375084.422,38.574,72.266,30.273,30.273,-75.684,0
1506375084.426,43.945,83.008,26.855,28.809,-96.680,0
1506375084.430,56.641,79.102,30.273,28.809,-59.570,0
1506375084.434,58.594,70.801,29.785,22.949,-41.016,0
1506375084.438,46.875,68.359,30.762,23.438,-85.938,0
1506375084.442,35.645,74.707,43.945,36.621,-74.707,0
1506375084.446,25.879,68.359,37.598,40.039,-43.945,0
1506375084.450,29.785,69.336,32.227,42.480,-44.434,0
1506375084.453,24.902,76.172,41.504,44.434,-31.250,0
1506375084.457,10.254,73.242,44.434,39.062,-30.273,0
1506375084.461,8.789,74.707,40.039,37.109,-24.902,0
1506375084.465,19.043,64.453,42.969,39.551,-45.410,0
1506375084.469,24.902,64.941,43.945,38.574,-52.734,0
1506375084.473,22.461,76.172,33.203,39.551,-14.648,0
1506375084.477,30.762,72.754,44.434,52.246,-39.062,0
1506375084.481,24.902,76.660,47.852,45.898,-32.227,0
1506375084.485,20.020,81.055,41.992,38.574,-9.766,0
1506375084.489,22.461,84.473,40.039,37.598,-16.113,0
1506375084.493,13.184,75.684,32.227,26.367,9.277,0
1506375084.496,18.555,67.871,36.621,24.414,8.789,0
1506375084.500,28.320,76.172,31.250,20.508,-17.578,0
1506375084.504,22.461,88.379,22.949,12.695,-0.488,0
1506375084.508,18.066,89.355,24.902,10.254,4.395,0
1506375084.512,38.574,96.680,24.902,15.137,-30.762,0
1506375084.516,41.504,110.840,22.949,18.066,-48.340,0
1506375084.520,34.668,121.094,21.484,14.648,-25.879,0
1506375084.524,40.039,116.699,25.879,19.043,-10.254,0
1506375084.528,42.969,115.234,37.598,21.973,-32.227,0
1506375084.532,41.016,129.883,34.180,14.160,-23.926,0
1506375084.535,44.434,124.512,26.367,12.207,-5.859,0
1506375084.539,50.293,117.676,34.668,18.066,-43.457,0
1506375084.543,40.527,124.023,33.203,15.137,-41.992,0
1506375084.547,18.555,117.188,24.902,13.184,-0.488,0
1506375084.551,13.672,108.398,20.020,17.578,15.137,0
1506375084.555,20.020,142.578,25.391,21.973,-20.508,0
1506375084.559,24.414,210.449,33.691,20.508,-76.172,0
1506375084.563,26.367,241.699,33.691,20.996,-54.688,0
1506375084.567,21.973,234.863,44.434,31.738,-21.484,0
1506375084.571,20.996,226.074,44.922,31.738,-15.625,0
1506375084.575,28.809,218.262,32.227,21.484,1.465,0
1506375084.578,30.762,206.055,35.645,17.090,26.367,0
1506375084.582,32.715,189.453,35.156,20.508,-10.254,0
1506375084.586,36.621,180.664,28.809,23.438,-24.902,0
1506375084.590,33.691,169.434,43.457,28.320,-14.648,0
1506375084.594,24.414,160.645,42.969,31.738,-14.160,0
1506375084.598,27.344,158.691,28.809,34.668,-12.695,0
1506375084.602,30.762,153.809,34.668,42.969,-68.359,0
1506375084.606,23.438,155.273,38.574,40.527,-69.824,0
1506375084.610,27.344,151.855,35.156,39.062,-38.574,0
1506375084.614,35.645,135.742,28.320,39.062,-33.691,0
1506375084.618,42.480,136.719,35.156,45.410,-47.363,0
1506375084.621,30.762,138.672,42.480,45.410,-57.129,0
1506375084.625,11.719,124.023,40.039,44.434,-59.082,0
1506375084.629,7.812,118.652,27.344,40.039,-49.805,0
1506375084.633,16.113,118.652,22.461,36.621,-32.715,0
1506375084.637,24.414,114.746,31.250,42.480,-29.297,0
1506375084.641,23.926,103.027,34.180,37.109,-0.977,0
1506375084.645,23.438,86.914,38.086,36.621,8.301,0
1506375084.649,28.809,85.449,34.180,36.621,-24.414,0
1506375084.653,36.621,93.262,34.668,30.273,2.930,0
1506375084.657,35.156,83.984,33.691,25.391,14.160,0
1506375084.660,37.598,84.961,27.832,20.996,-11.719,0
1506375084.664,36.133,85.449,27.344,24.902,0.488,0
1506375084.668,32.715,77.637,30.273,24.902,23.438,0
1506375084.672,27.832,71.289,32.715,25.391,54.688,0
1506375084.676,22.461,74.707,26.367,33.691,46.387,0
1506375084.680,23.926,75.195,31.738,35.645,24.414,0
1506375084.684,21.484,63.965,35.645,32.715,57.617,0
1506375084.688,20.996,62.988,30.273,30.762,72.266,0
1506375084.692,20.996,64.453,29.785,23.926,48.828,0
1506375084.696,18.555,63.477,36.133,17.578,45.898,0
1506375084.700,20.020,61.523,41.504,19.531,59.082,0
1506375084.703,28.809,52.246,41.016,21.973,62.988,0
1506375084.707,35.156,49.805,35.156,20.996,63.965,0
1506375084.711,30.762,52.246,32.227,19.531,55.176,0
1506375084.715,23.438,47.852,41.016,23.926,60.547,0
1506375084.719,10.254,39.062,43.457,24.902,67.383,0
1506375084.723,12.207,39.551,39.062,24.902,45.898,0
1506375084.727,13.672,46.875,33.203,27.344,64.453,0
1506375084.731,14.648,39.062,36.621,20.020,75.684,0
1506375084.735,25.879,28.320,43.945,21.484,81.055,0
1506375084.739,28.320,37.598,40.039,28.320,67.383,0
1506375084.743,21.973,37.598,44.922,26.367,96.191,0
1506375084.746,20.508,23.438,48.340,37.109,127.930,0
1506375084.750,34.668,29.785,47.852,50.293,111.328,0
1506375084.754,45.898,35.645,45.898,41.992,105.957,0
1506375084.758,48.340,35.645,35.645,33.691,118.652,0
1506375084.762,39.551,34.180,43.945,43.457,130.371,0
1506375084.766,15.137,24.414,48.828,42.480,114.746,0
1506375084.770,6.836,22.461,40.527,35.156,98.633,0
1506375084.774,10.254,25.391,36.133,30.762,145.508,0
1506375084.778,12.695,20.020,39.551,27.832,154.785,0
1506375084.782,10.742,14.648,40.527,29.785,85.938,0
1506375084.785,4.883,20.508,32.227,24.902,74.219,0
1506375084.789,6.348,20.996,40.039,21.484,95.703,0
1506375084.793,9.277,11.719,42.480,23.926,91.309,0
1506375084.797,17.090,11.230,36.621,31.250,61.523,0
1506375084.801,23.926,27.832,37.598,29.785,66.406,0
1506375084.805,32.227,32.715,43.945,31.250,99.609,0
1506375084.809,37.598,24.902,48.828,39.062,81.055,0
1506375084.813,28.320,26.855,49.805,35.156,78.613,0
1506375084.817,20.508,28.320,48.828,36.621,103.027,0
1506375084.821,18.066,24.414,32.715,37.109,98.633,0
1506375084.825,20.020,26.367,28.809,35.645,84.961,0
1506375084.828,19.043,26.855,27.832,27.832,48.828,0
1506375084.832,20.996,31.250,16.602,22.949,55.664,0
1506375084.836,28.320,35.645,25.391,23.438,66.406,0
1506375084.840,40.039,35.156,35.645,28.809,54.199,0
1506375084.844,40.039,41.992,34.180,26.855,59.082,0
1506375084.848,36.133,53.223,42.969,19.531,74.707,0
1506375084.852,41.992,48.340,36.621,18.555,51.758,0
1506375084.856,36.133,43.457,29.785,25.879,36.133,0
1506375084.860,20.020,45.898,36.621,38.574,53.711,0
1506375084.864,9.277,42.969,38.574,36.621,75.684,0
1506375084.868,18.066,37.598,35.156,32.227,78.125,0
1506375084.871,32.715,33.203,37.109,38.574,57.617,0
1506375084.875,28.320,32.227,41.992,39.062,87.891,0
1506375084.879,29.297,33.691,53.711,42.969,82.031,0
1506375084.883,42.969,21.973,51.758,39.062,54.199,0
1506375084.887,41.992,17.090,38.574,38.574,55.664,0
1506375084.891,35.645,30.273,39.062,45.898,76.660,0
1506375084.895,23.926,29.297,42.480,40.039,110.840,0
1506375084.899,17.090,19.043,43.457,41.504,85.938,0
1506375084.903,17.090,19.043,41.504,45.898,61.035,0
1506375084.907,9.766,27.832,40.039,38.574,85.449,0
1506375084.910,18.066,21.973,45.898,39.551,83.008,0
1506375084.914,20.020,20.996,46.387,41.992,67.383,0
1506375084.918,22.949,25.391,53.223,41.992,62.500,0
1506375084.922,27.832,27.344,62.988,43.945,48.828,0
1506375084.926,21.484,40.039,61.035,40.527,51.270,0
1506375084.930,26.367,48.340,56.641,45.410,52.734,0
1506375084.934,32.715,60.547,47.852,48.828,37.109,0
1506375084.938,34.180,72.754,43.457,37.598,55.664,0
1506375084.942,31.738,61.035,45.898,33.203,42.480,0
1506375084.946,25.879,65.430,45.410,30.762,33.203,0
1506375084.950,26.855,72.754,44.922,30.273,61.523,0
1506375084.953,14.160,75.195,40.039,32.227,69.336,0
1506375084.957,9.277,72.266,48.340,30.762,69.824,0
1506375084.961,10.742,66.895,46.387,26.855,27.344,0
1506375084.965,20.508,77.637,38.574,26.855,22.949,0
1506375084.969,36.621,74.707,44.922,35.156,75.684,0
1506375084.973,39.062,58.105,48.828,39.551,57.129,0
1506375084.977,36.621,39.062,43.945,38.086,-9.277,0
1506375084.981,32.227,40.527,43.945,43.945,-8.301,0
1506375084.985,21.484,36.133,45.898,43.945,12.695,0
1506375084.989,7.324,17.578,36.133,33.203,19.531,0
1506375084.993,6.348,15.625,44.922,35.645,14.648,0
1506375084.996,16.113,26.367,54.688,42.969,13.184,0
1506375085.000,25.879,24.414,41.504,42.480,23.926,0
1506375085.004,37.598,21.484,36.621,46.875,34.668,0
1506375085.008,54.199,21.484,45.410,56.641,21.484,0
1506375085.012,46.875,18.555,37.109,51.270,10.742,0
1506375085.016,32.227,18.066,33.691,45.898,15.625,0
1506375085.020,30.273,8.789,44.922,50.781,8.789,0
1506375085.024,27.832,15.625,38.574,52.734,2.441,0
1506375085.028,24.414,27.832,25.879,44.434,22.949,0
1506375085.032,28.809,17.090,21.973,45.898,44.922,0
1506375085.035,27.832,8.789,32.715,47.852,20.020,0
1506375085.039,23.438,17.090,34.180,41.504,3.418,0
1506375085.043,27.832,14.648,31.250,43.945,34.180,0
1506375085.047,34.668,3.418,33.691,48.828,31.250,0
1506375085.051,37.598,4.395,35.645,47.363,26.367,0
1506375085.055,42.480,17.090,37.598,46.387,53.223,0
1506375085.059,50.781,19.043,31.250,44.922,68.848,0
1506375085.063,45.898,9.277,31.250,41.016,56.152,0
1506375085.067,37.598,8.789,33.691,36.133,26.855,0
1506375085.071,28.809,24.902,30.273,37.598,5.859,0
1506375085.075,26.855,30.273,32.227,42.969,24.902,0
1506375085.078,38.574,10.254,41.016,47.852,24.902,0
1506375085.082,33.203,6.836,45.898,49.316,-13.184,0
1506375085.086,25.879,15.625,36.133,40.527,8.301,0
1506375085.090,22.949,3.906,31.250,30.273,13.184,0
1506375085.094,30.273,-1.953,28.809,18.066,-18.555,0
1506375085.098,48.828,7.324,24.414,19.531,-9.277,0
1506375085.102,50.781,10.742,26.855,25.879,-8.301,0
1506375085.106,36.133,-1.465,26.855,23.438,-8.301,0
1506375085.110,15.137,-22.461,26.367,27.344,-15.625,0
1506375085.114,10.254,-10.254,28.809,29.785,-17.578,0
1506375085.118,3.418,3.906,33.691,27.344,-7.324,0
1506375085.121,8.301,-4.395,37.598,34.180,-28.320,0
1506375085.125,18.066,-6.836,39.551,40.527,-49.316,0
1506375085.129,12.695,3.418,40.039,36.621,-48.828,0
1506375085.133,19.043,8.301,38.086,34.180,-60.059,0
1506375085.137,20.508,-0.977,27.344,27.832,-88.379,0
1506375085.141,18.555,-0.977,20.020,19.531,-81.055,0
1506375085.145,24.414,6.836,23.438,17.090,-83.496,0
1506375085.149,28.809,4.395,23.438,20.508,-104.004,0
1506375085.153,24.902,-0.977,22.949,22.461,-85.938,0
1506375085.157,13.672,-8.789,25.391,24.902,-49.805,0
1506375085.160,15.137,-9.766,30.762,28.320,-69.336,0
1506375085.164,7.324,-1.465,31.738,20.996,-56.152,0
1506375085.168,5.371,-8.789,27.344,19.531,-50.781,0
1506375085.172,15.137,-10.742,25.391,24.414,-95.215,0
1506375085.176,22.461,7.812,29.785,23.438,-58.105,0
1506375085.180,25.879,4.395,28.809,22.461,-17.090,0
1506375085.184,25.879,-1.953,31.250,26.855,-3.418,0
1506375085.188,29.297,2.441,37.598,27.832,7.812,0
1506375085.192,31.250,8.789,35.645,19.043,0.488,0
1506375085.196,32.715,5.859,38.574,19.043,1.465,0
1506375085.200,32.715,-3.418,31.738,26.367,-15.137,0
1506375085.203,27.344,-1.953,31.738,26.367,-8.789,0
1506375085.207,28.809,4.395,36.621,18.555,20.020,0
1506375085.211,31.738,8.301,28.320,14.648,17.578,0
1506375085.215,38.574,-2.441,32.227,17.090,26.855,0
1506375085.219,46.875,-7.812,34.180,11.719,26.367,0
1506375085.223,38.086,7.324,33.691,10.742,63.965,0
1506375085.227,34.180,6.348,41.992,21.973,86.426,0
1506375085.231,32.715,3.906,41.992,23.438,49.316,0
1506375085.235,40.527,6.836,42.969,19.531,32.227,0
1506375085.239,46.875,3.906,48.340,29.297,37.598,0
1506375085.243,39.551,-1.953,41.016,29.297,62.500,0
1506375085.246,19.531,-9.766,33.691,24.414,58.105,0
1506375085.250,-2.441,-3.418,41.016,30.273,11.719,0
1506375085.254,0.488,14.648,44.434,28.809,24.414,0
1506375085.258,13.184,11.719,38.086,29.785,51.758,0
1506375085.262,14.160,8.301,38.574,28.809,43.945,0
1506375085.266,11.230,15.137,43.945,21.484,55.176,0
1506375085.270,13.184,11.230,41.016,23.926,87.891,0
1506375085.274,12.695,0.000,42.969,24.414,94.238,0
1506375085.278,10.742,-0.488,40.527,23.438,59.570,0
1506375085.282,12.695,11.719,38.574,24.902,55.664,0
1506375085.285,21.973,5.859,35.645,25.391,52.246,0
1506375085.289,31.250,-2.930,33.203,29.785,34.668,0
1506375085.293,33.691,-0.488,39.551,31.250,49.805,0
1506375085.297,34.668,3.906,44.922,26.855,58.105,0
1506375085.301,31.250,7.812,37.109,25.879,33.691,0
1506375085.305,25.391,4.395,32.227,27.832,40.039,0
1506375085.309,36.133,5.859,34.180,28.320,52.246,0
1506375085.313,42.480,20.508,36.621,33.691,28.809,0
1506375085.317,37.598,15.137,30.273,39.551,59.082,0
1506375085.321,38.086,8.789,32.715,38.086,57.617,0
1506375085.325,39.551,18.066,44.922,38.574,17.578,0
1506375085.328,45.410,19.043,47.363,45.410,35.156,0
1506375085.332,42.969,3.418,43.945,44.434,38.086,0
1506375085.336,44.922,0.488,45.410,44.434,36.621,0
1506375085.340,50.293,0.488,45.898,42.480,7.324,0
1506375085.344,46.875,4.883,41.016,36.621,1.953,0
1506375085.348,43.945,9.766,31.738,32.227,5.371,0
1506375085.352,38.086,4.395,30.762,26.855,-51.270,0
1506375085.356,26.855,22.461,30.762,23.438,-65.918,0
1506375085.360,23.438,24.414,38.574,30.762,-18.066,0
1506375085.364,24.902,3.906,38.086,29.785,-27.832,0
1506375085.368,33.691,11.230,33.203,26.367,-27.344,0
1506375085.371,31.738,18.555,27.832,23.438,0.000,0
1506375085.375,34.180,6.836,23.438,23.438,-41.016,0
1506375085.379,48.340,9.277,26.367,29.297,-62.012,0
1506375085.383,51.758,31.250,24.414,19.043,-57.129,0
1506375085.387,48.828,37.598,33.203,15.625,-40.527,0
1506375085.391,33.203,20.020,34.180,16.602,-29.785,0
1506375085.395,25.391,16.113,22.461,23.926,-72.754,0
1506375085.399,19.043,26.855,17.090,32.715,-57.617,0
1506375085.403,9.277,25.879,20.508,21.484,-45.898,0
1506375085.407,9.766,15.137,20.020,16.113,-70.801,0
1506375085.410,12.695,21.484,16.602,29.297,-43.945,0
1506375085.414,20.508,27.344,24.902,38.574,-55.176,0
1506375085.418,24.414,26.367,28.809,30.273,-41.016,0
1506375085.422,24.414,18.066,25.391,18.066,-32.227,0
1506375085.426,33.691,15.137,28.809,19.531,-70.801,0
1506375085.430,44.922,23.438,26.855,29.297,-69.336,0
1506375085.434,35.645,16.602,26.855,30.762,-74.707,0
1506375085.438,26.855,11.719,32.715,31.250,-78.125,0
1506375085.442,24.902,5.859,34.180,31.738,-71.289,0
1506375085.446,24.414,16.113,35.645,24.414,-57.129,0
1506375085.450,28.320,24.414,48.340,37.598,-34.668,0
1506375085.453,25.391,7.324,49.805,46.387,-59.082,0
1506375085.457,20.508,4.883,44.434,39.551,-82.031,0
1506375085.461,28.320,18.555,42.969,41.992,-48.828,0
1506375085.465,35.156,13.672,47.852,42.969,-13.184,0
1506375085.469,28.809,9.766,43.457,34.668,-40.039,0
1506375085.473,31.250,16.602,40.527,32.715,-39.062,0
1506375085.477,39.551,18.555,37.598,35.645,-12.695,0
1506375085.481,44.922,13.672,38.086,38.574,0.488,0
1506375085.485,48.340,0.000,48.340,38.086,2.930,0
1506375085.489,52.246,3.418,38.086,22.461,-5.371,0
1506375085.493,59.082,20.020,36.133,35.156,-8.301,0
1506375085.496,53.223,20.508,50.293,47.852,20.508,0
1506375085.500,33.203,-2.441,47.363,42.969,11.230,0
1506375085.504,18.555,5.859,41.016,39.551,-9.277,0
1506375085.508,19.043,22.461,42.480,39.062,34.668,0
1506375085.512,24.902,7.324,44.434,39.551,59.082,0
1506375085.516,28.809,1.953,34.668,32.227,68.359,0
1506375085.520,41.504,8.301,33.203,33.691,76.172,0
1506375085.524,43.945,8.301,39.062,35.645,76.172,0
1506375085.528,40.039,4.395,32.227,28.320,81.055,0
1506375085.532,34.668,-0.977,29.297,26.855,88.867,0
1506375085.535,19.531,3.418,35.645,32.227,97.168,0
1506375085.539,19.531,13.184,40.527,35.156,99.609,0
1506375085.543,21.484,6.836,40.527,31.738,119.629,0
1506375085.547,27.344,7.812,43.457,31.738,117.676,0
1506375085.551,27.832,20.996,46.875,30.273,131.348,0
1506375085.555,24.902,15.625,43.457,26.367,143.066,0
1506375085.559,37.598,4.883,38.086,32.715,133.789,0
1506375085.563,43.945,8.301,42.969,40.527,138.672,0
1506375085.567,42.969,20.020,52.734,39.551,141.113,0
1506375085.571,43.945,14.160,47.363,38.574,154.297,0
1506375085.575,43.457,7.812,34.668,34.668,169.434,0
1506375085.578,47.363,7.812,37.598,36.621,179.199,0
1506375085.582,45.410,9.766,40.527,31.250,169.922,0
1506375085.586,40.527,12.207,40.527,20.508,179.199,0
1506375085.590,38.086,-2.930,34.668,22.949,188.477,0
1506375085.594,33.691,-1.465,28.809,25.391,163.574,0
1506375085.598,29.785,10.742,27.344,18.555,178.711,0
1506375085.602,35.156,4.883,28.320,24.902,205.566,0
1506375085.606,42.480,4.395,43.457,40.527,176.758,0
1506375085.610,41.504,5.859,46.387,41.504,164.062,0
1506375085.614,37.109,4.395,36.621,33.203,202.148,0
1506375085.618,38.086,-2.441,26.367,32.715,197.754,0
1506375085.621,33.203,-3.418,32.715,41.016,145.020,0
1506375085.625,24.902,0.488,32.227,37.598,138.184,0
1506375085.629,31.738,6.836,29.785,30.762,155.273,0
1506375085.633,28.320,6.348,39.062,28.809,145.996,0
1506375085.637,12.695,-2.441,41.504,27.344,117.188,0
1506375085.641,4.883,6.348,40.039,28.809,86.914,0
1506375085.645,1.953,4.395,32.715,27.832,79.590,0
1506375085.649,10.742,0.488,33.691,31.738,66.895,0
1506375085.653,24.902,1.953,44.922,30.273,42.969,0
1506375085.657,22.949,8.301,40.039,20.996,33.691,0
1506375085.660,21.484,4.883,33.691,21.973,15.625,0
1506375085.664,11.719,2.930,41.992,27.344,-6.836,0
1506375085.668,11.230,11.230,42.969,34.180,30.273,0
1506375085.672,22.461,11.230,42.480,40.039,46.387,0
1506375085.676,23.438,16.113,49.316,42.480,34.668,0
1506375085.680,24.902,12.695,64.453,48.828,17.578,0
1506375085.684,27.832,15.137,68.848,46.387,-6.836,0
1506375085.688,29.785,28.809,60.059,36.621,13.184,0
1506375085.692,29.297,16.602,50.781,32.227,40.039,0
1506375085.696,25.879,13.672,54.688,38.574,34.180,0
1506375085.700,6.836,16.602,49.805,38.574,38.086,0
1506375085.703,4.395,14.160,44.922,37.109,23.438,0
1506375085.707,13.672,6.836,50.293,37.598,27.344,0
1506375085.711,20.996,4.883,45.898,32.227,32.715,0
1506375085.715,32.227,10.742,46.387,36.133,15.625,0
1506375085.719,43.945,6.348,46.387,41.504,6.836,0
1506375085.723,48.828,5.859,43.457,31.250,37.598,0
1506375085.727,42.480,1.953,37.598,21.973,52.734,0
1506375085.731,26.367,17.578,26.855,26.367,51.758,0
1506375085.735,9.766,19.531,29.297,32.227,91.309,0
1506375085.739,1.953,-2.441,33.691,37.109,98.633,0
1506375085.743,16.602,0.488,41.992,51.270,105.469,0
1506375085.746,32.715,14.648,49.805,60.059,140.625,0
1506375085.750,37.109,9.277,43.457,52.734,155.762,0
1506375085.754,52.734,-0.488,41.504,52.734,138.184,0
1506375085.758,51.758,6.836,38.574,51.758,162.598,0
1506375085.762,35.645,18.555,34.180,45.410,201.172,0
1506375085.766,31.250,11.719,36.133,41.992,227.051,0
1506375085.770,24.902,0.488,37.109,41.504,237.793,0
1506375085.774,18.555,0.977,31.250,34.668,217.773,0
1506375085.778,13.672,7.812,32.227,31.250,216.309,0
1506375085.782,20.020,5.371,35.156,32.715,251.953,0
1506375085.785,20.508,2.930,35.156,27.832,280.762,0
1506375085.789,20.996,8.789,37.109,32.227,298.828,0
1506375085.793,25.391,6.836,32.227,35.156,336.914,0
1506375085.797,23.926,-2.441,28.809,30.273,370.117,0
1506375085.801,32.715,-7.324,41.016,38.574,371.094,0
1506375085.805,40.039,-13.184,42.969,40.527,385.254,0
1506375085.809,39.551,-19.531,32.715,33.691,424.805,0
1506375085.813,42.480,-33.203,35.645,33.691,427.734,0
1506375085.817,33.691,-28.320,42.480,37.109,386.230,0
1506375085.821,17.578,-4.883,49.316,40.527,364.258,0
1506375085.825,13.672,-4.395,54.199,36.621,374.023,0
1506375085.828,20.508,-15.137,43.945,35.156,337.891,0
1506375085.832,23.926,-4.395,38.574,35.645,315.918,0
1506375085.836,12.695,-5.371,28.809,30.762,310.059,0
1506375085.840,8.301,-3.418,26.367,26.855,280.273,0
1506375085.844,15.137,-4.883,35.645,31.250,231.934,0
1506375085.848,23.438,-3.906,40.527,36.621,209.473,0
1506375085.852,34.180,5.371,41.016,36.621,202.637,0
1506375085.856,41.016,-2.930,41.504,33.203,162.109,0
1506375085.860,39.551,-14.160,43.457,26.855,126.465,0
1506375085.864,38.086,-3.418,40.039,29.297,122.559,0
1506375085.868,31.738,14.160,34.180,42.480,132.324,0
1506375085.871,11.230,-1.465,29.297,46.875,106.934,0
1506375085.875,10.254,-2.930,31.738,49.316,62.988,0
1506375085.879,21.973,12.207,42.480,57.129,2.441,0
1506375085.883,12.695,12.695,52.734,54.688,-8.301,0
1506375085.887,1.465,6.348,49.805,48.828,-0.977,0
1506375085.891,10.742,7.324,41.504,51.758,-33.203,0
1506375085.895,22.461,5.371,39.551,47.363,-33.691,0
1506375085.899,31.250,3.906,43.945,40.527,-77.637,0
1506375085.903,31.738,6.348,42.969,45.410,-121.094,0
1506375085.907,28.809,0.488,39.062,46.875,-119.141,0
1506375085.910,35.156,15.625,33.691,41.504,-113.281,0
1506375085.914,25.391,17.090,30.273,40.527,-93.262,0
1506375085.918,17.578,-8.789,28.809,42.969,-125.488,0
1506375085.922,24.902,-7.324,36.133,47.852,-168.945,0
1506375085.926,34.668,17.578,41.504,48.828,-148.438,0
1506375085.930,39.551,13.672,44.922,46.875,-128.418,0
1506375085.934,41.016,2.441,48.340,44.922,-168.945,0
1506375085.938,37.109,5.371,41.504,37.109,-186.035,0
1506375085.942,35.156,6.836,32.227,30.273,-150.879,0
1506375085.946,29.785,-0.488,35.645,24.902,-136.719,0
1506375085.950,25.391,-0.977,44.922,28.320,-181.641,0
1506375085.953,23.926,3.906,40.527,25.391,-202.637,0
1506375085.957,20.996,10.254,36.133,18.555,-168.945,0
1506375085.961,28.320,17.578,37.598,31.250,-138.184,0
1506375085.965,35.156,4.395,38.086,42.480,-151.367,0
1506375085.969,38.086,4.395,43.457,43.457,-170.410,0
1506375085.973,27.344,14.648,38.086,32.227,-176.270,0
1506375085.977,20.020,2.441,30.273,23.926,-177.246,0
1506375085.981,25.391,-1.953,33.203,27.832,-172.852,0
1506375085.985,26.855,7.324,34.668,29.297,-152.832,0
1506375085.989,21.973,6.836,34.180,27.832,-154.785,0
1506375085.993,15.625,-2.930,31.738,25.879,-175.293,0
1506375085.996,17.090,-6.836,37.598,30.762,-163.574,0
1506375086.000,16.602,-6.348,41.992,28.809,-170.410,0
1506375086.004,7.324,-1.465,28.320,19.043,-176.270,0
1506375086.008,12.695,-4.395,27.344,22.461,-200.684,0
1506375086.012,27.344,-10.742,37.598,21.973,-217.285,0
1506375086.016,30.273,3.418,36.133,20.020,-206.055,0
1506375086.020,31.250,7.812,36.621,16.602,-165.527,0
1506375086.024,56.152,-9.277,35.645,15.137,-161.133,0
1506375086.028,64.453,-4.395,37.109,15.625,-185.059,0
1506375086.032,35.645,9.766,41.504,20.996,-161.133,0
1506375086.035,6.348,4.395,26.855,25.879,-162.598,0
1506375086.039,-5.859,3.906,25.391,28.809,-155.762,0
1506375086.043,-1.465,2.441,32.715,34.668,-130.859,0
1506375086.047,-1.465,-0.488,28.320,30.762,-112.793,0
1506375086.051,-6.836,4.395,31.738,26.855,-90.820,0
1506375086.055,1.953,-6.348,35.156,29.785,-120.605,0
1506375086.059,17.578,-4.395,31.738,29.785,-134.766,0
1506375086.063,27.344,12.207,33.203,32.715,-64.941,0
1506375086.067,28.809,2.441,33.203,32.227,-44.434,0
1506375086.071,33.203,-0.977,26.367,23.926,-30.762,0
1506375086.075,33.691,1.465,27.832,24.414,-4.883,0
1506375086.078,31.250,9.277,38.574,34.180,24.902,0
1506375086.082,35.156,8.789,36.133,36.133,93.750,0
1506375086.086,27.344,4.395,30.762,27.832,94.238,0
1506375086.090,13.184,7.324,29.785,20.020,100.586,0
1506375086.094,10.742,2.930,28.320,24.414,178.223,0
1506375086.098,18.066,-2.930,29.785,26.855,206.055,0
1506375086.102,27.344,-1.953,35.156,28.809,202.148,0
1506375086.106,25.391,13.672,40.039,30.273,226.074,0
1506375086.110,27.832,13.672,40.039,26.855,287.109,0
1506375086.114,33.691,1.465,38.086,28.809,301.270,0
1506375086.118,36.133,2.930,36.133,25.879,299.316,0
1506375086.121,34.668,6.348,33.203,14.648,338.379,0
1506375086.125,27.832,5.371,28.809,15.625,348.633,0
1506375086.129,26.367,3.906,33.203,20.508,383.789,0
1506375086.133,21.973,0.977,28.809,22.461,396.484,0
1506375086.137,21.973,2.930,29.297,28.809,358.887,0
1506375086.141,19.531,3.418,32.715,27.832,346.191,0
1506375086.145,22.461,-4.395,29.785,23.438,344.238,0
1506375086.149,26.855,4.395,37.598,27.832,318.359,0
1506375086.153,27.344,24.414,41.504,28.809,343.262,0
1506375086.157,26.855,18.555,43.457,26.367,350.586,0
1506375086.160,15.137,8.789,36.133,19.531,288.086,0
1506375086.164,1.465,20.020,26.367,8.301,251.953,0
1506375086.168,0.488,26.855,27.832,7.812,264.648,0
1506375086.172,13.672,13.184,40.527,18.555,218.262,0
1506375086.176,23.438,4.883,41.992,21.484,157.715,0
1506375086.180,25.391,9.766,31.738,20.020,153.320,0
1506375086.184,17.578,2.441,26.367,18.555,99.121,0
1506375086.188,19.531,0.488,25.879,22.461,45.410,0
1506375086.192,22.949,0.000,29.297,27.344,0.977,0
1506375086.196,20.996,16.113,27.832,22.461,-44.434,0
1506375086.200,34.180,27.832,36.621,26.367,-34.668,0
1506375086.203,48.828,7.324,42.969,33.691,-68.359,0
1506375086.207,46.387,3.418,37.598,28.809,-142.578,0
1506375086.211,40.039,22.461,36.621,28.320,-155.273,0
1506375086.215,43.457,20.508,37.598,36.621,-161.133,0
1506375086.219,40.527,10.742,41.992,39.551,-202.148,0
1506375086.223,41.504,15.137,40.039,38.574,-204.590,0
1506375086.227,42.969,20.996,41.504,36.621,-156.738,0
1506375086.231,26.855,10.254,46.387,35.645,-147.461,0
1506375086.235,18.066,-3.418,42.480,34.668,-216.797,0
1506375086.239,25.391,12.695,38.086,36.621,-229.004,0
1506375086.243,32.227,18.066,35.156,39.551,-205.566,0
1506375086.246,24.902,11.719,34.180,30.273,-207.520,0
1506375086.250,28.320,-3.906,43.457,26.367,-245.605,0
1506375086.254,41.504,-2.930,49.316,29.785,-288.086,0
1506375086.258,41.992,12.695,39.062,24.414,-269.043,0
1506375086.262,42.969,5.371,34.668,26.367,-252.930,0
1506375086.266,35.645,2.930,38.574,31.250,-266.602,0
1506375086.270,17.578,7.812,42.969,31.250,-280.762,0
1506375086.274,8.789,9.277,37.598,31.738,-291.504,0
1506375086.278,9.766,8.301,34.668,34.180,-278.809,0
1506375086.282,17.578,12.207,39.551,36.133,-269.043,0
1506375086.285,18.555,12.695,35.156,33.691,-283.691,0
1506375086.289,12.207,15.625,41.016,33.203,-285.645,0
1506375086.293,12.695,8.789,40.527,26.855,-252.441,0
1506375086.297,21.484,4.883,29.785,25.391,-277.344,0
1506375086.301,28.320,25.879,24.902,26.855,-295.898,0
1506375086.305,29.297,22.461,25.391,21.973,-248.535,0
1506375086.309,31.738,13.184,31.250,24.414,-250.000,0
1506375086.313,38.574,21.484,30.762,31.250,-211.914,0
1506375086.317,42.969,26.855,34.668,30.762,-181.152,0
1506375086.321,38.574,23.438,41.992,30.273,-183.594,0
1506375086.325,37.598,14.648,32.227,27.832,-150.879,0
1506375086.328,37.109,12.207,27.344,28.320,-115.723,0
1506375086.332,32.227,26.855,38.086,27.832,-97.168,0
1506375086.336,37.109,36.133,46.875,32.227,-79.102,0
1506375086.340,33.691,15.625,43.457,38.086,-68.848,0
1506375086.344,29.785,17.578,34.180,35.156,-39.062,0
1506375086.348,30.762,36.133,43.457,35.156,62.500,0
1506375086.352,27.344,22.461,50.293,36.621,132.812,0
1506375086.356,21.973,22.949,33.691,34.180,177.734,0
1506375086.360,19.043,27.832,35.156,27.832,223.145,0
1506375086.364,26.367,27.344,51.270,33.203,279.785,0
1506375086.368,24.414,20.508,41.504,31.738,338.379,0
1506375086.371,23.438,12.695,38.574,27.344,340.820,0
1506375086.375,25.391,18.555,40.039,34.180,351.074,0
1506375086.379,21.484,27.344,29.785,32.715,393.066,0
1506375086.383,24.414,21.484,28.809,34.668,397.949,0
1506375086.387,37.598,8.301,32.715,40.039,363.281,0
1506375086.391,30.762,25.391,30.273,34.668,361.816,0
1506375086.395,19.043,25.391,36.621,29.297,377.930,0
1506375086.399,23.926,7.812,35.645,34.668,350.098,0
1506375086.403,26.855,8.789,32.227,36.621,337.891,0
1506375086.407,21.973,18.066,37.598,31.738,375.488,0
1506375086.410,24.414,12.207,29.785,32.227,366.699,0
1506375086.414,18.066,11.230,26.367,31.738,336.426,0
1506375086.418,12.695,11.719,31.250,32.715,339.844,0
1506375086.422,26.367,8.789,32.715,38.086,324.219,0
1506375086.426,34.668,15.625,35.156,39.551,332.520,0
1506375086.430,41.992,5.859,39.551,38.086,325.195,0
1506375086.434,54.199,14.648,35.645,35.645,333.008,0
1506375086.438,58.594,38.574,26.855,30.273,453.613,0
1506375086.442,50.293,26.367,25.879,28.809,562.988,0
1506375086.446,39.062,13.672,30.273,34.180,570.312,0
1506375086.450,26.855,16.602,36.133,33.691,521.973,0
1506375086.453,28.320,20.020,37.598,36.621,472.656,0
1506375086.457,30.273,16.602,39.551,41.992,444.824,0
1506375086.461,31.250,16.602,44.434,41.992,414.062,0
1506375086.465,37.598,20.020,37.598,37.109,349.609,0
1506375086.469,35.645,23.926,31.250,37.109,278.809,0
1506375086.473,36.133,25.391,32.227,39.551,227.051,0
1506375086.477,39.062,14.160,37.598,32.227,155.762,0
1506375086.481,40.527,28.320,43.457,26.367,98.145,0
1506375086.485,30.762,21.973,40.527,18.555,69.336,0
1506375086.489,34.180,3.906,39.062,20.508,16.113,0
1506375086.493,37.598,10.742,38.086,19.043,-7.812,0
1506375086.496,27.344,8.301,39.062,12.695,-42.480,0
1506375086.500,21.484,5.371,36.133,25.879,-77.637,0
1506375086.504,19.043,-0.977,33.203,37.109,-101.562,0
1506375086.508,15.137,0.977,33.203,35.645,-143.555,0
1506375086.512,8.301,10.742,30.762,35.645,-150.391,1
1506375086.516,14.648,1.465,43.945,42.969,-187.988,0
1506375086.520,26.855,-0.977,43.945,48.828,-241.699,0
1506375086.524,24.414,9.277,35.156,47.852,-244.141,0
1506375086.528,31.250,20.508,30.762,43.457,-263.184,0
1506375086.532,49.805,11.230,26.855,41.504,-260.742,0
1506375086.535,48.828,7.324,20.508,41.992,-283.691,0
1506375086.539,24.902,7.324,24.414,42.969,-312.012,0
1506375086.543,20.996,10.742,31.250,42.480,-296.387,0
1506375086.547,28.809,6.836,36.621,45.410,-295.898,0
1506375086.551,21.973,4.395,39.062,48.340,-333.496,0
1506375086.555,28.809,10.254,31.738,42.480,-344.727,0
1506375086.559,29.297,0.488,29.297,39.062,-321.777,0
1506375086.563,20.020,-10.254,25.879,40.039,-337.891,0
1506375086.567,19.043,-9.277,25.879,28.809,-398.926,0
1506375086.571,29.297,8.301,23.926,28.320,-404.785,0
1506375086.575,40.039,12.207,21.484,40.039,-365.234,0
1506375086.578,29.297,-9.766,21.484,31.250,-396.484,0
1506375086.582,26.855,-7.324,30.273,27.832,-433.105,0
1506375086.586,23.438,9.766,40.039,30.762,-416.504,0
1506375086.590,15.625,1.465,37.109,24.902,-407.227,0
1506375086.594,13.672,-2.441,36.133,22.949,-411.133,0
1506375086.598,16.113,3.906,40.039,22.949,-422.363,0
1506375086.602,20.020,6.348,42.969,24.414,-429.199,0
1506375086.606,24.902,7.812,45.898,27.344,-433.105,0
1506375086.610,28.320,0.977,45.898,31.250,-466.797,0
1506375086.614,33.691,13.672,41.504,33.691,-486.328,0
1506375086.618,37.109,34.668,41.016,37.598,-460.449,0
1506375086.621,38.574,17.090,41.504,33.691,-453.613,0
1506375086.625,41.992,0.488,39.062,30.273,-514.160,0
1506375086.629,36.133,10.254,35.645,25.879,-504.395,0
1506375086.633,28.809,14.160,33.203,20.508,-480.469,0
1506375086.637,21.484,7.324,38.086,26.367,-499.023,0
1506375086.641,20.996,5.371,37.109,26.367,-478.516,0
1506375086.645,18.555,6.836,38.086,29.297,-478.516,0
1506375086.649,17.090,5.859,41.016,33.691,-479.492,0
1506375086.653,20.508,2.441,41.992,35.156,-497.559,0
1506375086.657,19.043,0.977,42.969,43.945,-505.859,0
1506375086.660,20.020,8.789,46.875,44.922,-508.789,0
1506375086.664,25.879,14.160,47.852,41.016,-486.328,0
1506375086.668,29.785,-0.488,48.340,43.457,-473.145,0
1506375086.672,32.715,-0.488,45.410,42.969,-504.883,0
1506375086.676,46.387,25.391,44.434,53.223,-486.816,0
1506375086.680,60.547,24.902,48.828,62.988,-437.988,0
1506375086.684,59.570,-3.906,51.270,58.594,-414.551,0
1506375086.688,49.805,-3.906,49.316,48.828,-392.090,0
1506375086.692,51.758,17.090,46.875,44.922,-362.305,0
1506375086.696,40.039,4.395,46.387,41.992,-352.539,0
1506375086.700,29.785,-3.418,43.945,33.691,-317.871,0
1506375086.703,28.320,5.371,37.598,31.738,-249.512,0
1506375086.707,11.719,9.277,29.297,26.855,-221.680,0
1506375086.711,10.254,14.648,26.367,26.367,-175.293,0
1506375086.715,20.508,11.230,32.227,35.156,-148.438,0
1506375086.719,17.090,14.160,41.992,37.598,-125.000,0
1506375086.723,22.949,17.090,50.293,42.480,-64.453,0
1506375086.727,41.016,17.090,46.387,41.016,-28.320,0
1506375086.731,39.551,10.254,40.527,35.156,-18.066,0
1506375086.735,27.832,16.602,37.598,33.203,6.836,0
1506375086.739,19.043,26.855,36.621,33.203,50.293,0
1506375086.743,18.555,14.160,41.504,35.645,69.336,0
1506375086.746,20.508,5.371,47.852,34.180,72.266,0
1506375086.750,20.020,10.254,50.781,30.273,68.359,0
1506375086.754,27.344,17.090,46.875,27.344,80.078,0
1506375086.758,30.273,8.301,40.039,21.973,114.258,0
1506375086.762,28.809,5.371,36.133,23.438,119.629,0
1506375086.766,28.320,28.320,30.762,20.020,109.863,0
1506375086.770,32.715,32.227,27.832,20.996,138.184,0
1506375086.774,39.551,16.602,30.273,26.367,125.488,0
1506375086.778,24.902,18.066,38.574,28.320,113.770,0
1506375086.782,0.488,21.484,44.922,38.086,133.301,0
1506375086.785,5.859,16.113,47.852,46.387,143.066,0
1506375086.789,18.066,9.766,39.551,50.781,152.832,0
1506375086.793,19.043,16.113,34.180,50.781,145.996,0
1506375086.797,27.344,26.855,42.480,55.664,187.988,0
1506375086.801,26.855,23.438,48.828,54.688,210.449,0
1506375086.805,20.020,13.184,50.293,46.875,170.898,0
1506375086.809,22.949,18.066,41.992,41.992,149.902,0
1506375086.813,31.250,33.203,41.992,36.133,189.453,0
1506375086.817,39.551,19.531,48.828,34.180,211.426,0
1506375086.821,41.992,10.742,42.969,33.691,176.270,0
1506375086.825,48.340,22.949,36.621,36.133,161.133,0
1506375086.828,53.223,25.879,35.645,33.203,160.156,0
1506375086.832,42.480,11.230,36.133,30.762,155.273,0
1506375086.836,29.297,5.371,36.133,31.738,153.320,0
1506375086.840,32.715,8.301,43.457,34.180,137.695,0
1506375086.844,32.715,2.441,47.363,35.156,88.867,0
1506375086.848,23.926,-1.465,41.504,26.855,69.824,0
1506375086.852,27.832,-1.953,45.898,28.809,51.758,0
1506375086.856,32.227,17.578,51.758,32.227,45.410,0
1506375086.860,22.949,15.625,37.598,28.320,54.199,0
1506375086.864,28.809,-2.441,28.320,31.250,5.371,0
1506375086.868,30.762,3.906,37.598,38.574,-34.180,0
1506375086.871,26.367,18.555,41.504,36.133,-33.691,0
1506375086.875,32.715,9.766,43.457,29.297,-18.066,0
1506375086.879,28.320,-1.465,42.480,28.320,-17.578,0
1506375086.883,29.785,5.371,42.480,33.691,-75.195,0
1506375086.887,37.109,11.230,46.875,38.086,-102.051,0
1506375086.891,34.668,12.207,40.039,35.156,-105.469,0
1506375086.895,37.109,5.371,35.645,35.156,-156.738,0
1506375086.899,41.016,13.672,42.969,38.086,-171.387,0
1506375086.903,38.574,30.273,41.992,37.598,-131.836,0
1506375086.907,46.875,18.066,39.551,44.434,-151.855,0
1506375086.910,47.363,9.766,42.480,41.016,-205.078,0
1506375086.914,45.898,19.043,40.527,34.668,-192.383,0
1506375086.918,51.758,20.508,47.363,31.250,-150.879,0
1506375086.922,50.293,9.766,50.293,25.879,-171.875,0
1506375086.926,43.457,10.254,41.992,33.691,-184.082,0
1506375086.930,31.250,15.625,42.969,34.668,-170.410,0
1506375086.934,25.391,13.184,39.551,27.832,-176.758,0
1506375086.938,32.715,3.906,40.527,25.879,-200.684,0
1506375086.942,35.645,13.184,40.527,30.273,-198.730,0
1506375086.946,36.133,33.203,36.133,31.738,-205.078,0
1506375086.950,25.879,27.344,46.387,26.367,-200.684,0
1506375086.953,20.996,11.719,45.410,29.297,-208.496,0
1506375086.957,19.531,16.602,30.762,29.297,-209.473,0
1506375086.961,10.742,16.602,33.691,24.902,-186.035,0
1506375086.965,9.766,15.625,41.992,24.902,-192.871,0
1506375086.969,16.602,11.719,47.852,24.414,-169.922,0
1506375086.973,15.625,12.695,41.992,16.113,-158.203,0
1506375086.977,23.926,27.344,42.969,17.090,-127.441,0
1506375086.981,38.086,18.555,55.664,30.273,-115.723,0
1506375086.985,32.227,0.000,47.852,33.691,-101.562,0
1506375086.989,27.344,8.789,39.062,37.598,-96.191,0
1506375086.993,19.043,24.902,34.668,35.156,-151.367,0
1506375086.996,18.066,18.555,34.668,30.273,-111.816,0
1506375087.000,20.996,21.973,38.574,35.645,-62.500,0
1506375087.004,13.672,28.809,35.156,36.621,-35.156,0
1506375087.008,24.414,25.879,33.691,34.668,-2.930,0
1506375087.012,42.969,21.484,40.527,43.945,-0.488,0
1506375087.016,53.711,23.926,36.621,53.223,18.555,0
1506375087.020,48.828,23.926,37.598,57.129,3.418,0
1506375087.024,35.645,25.391,40.039,49.805,3.418,0
1506375087.028,35.645,20.996,39.062,44.922,20.996,0
1506375087.032,37.109,5.371,41.016,48.340,-18.555,0
1506375087.035,38.086,27.344,43.945,43.945,0.977,0
1506375087.039,37.109,41.992,44.922,38.574,55.664,0
1506375087.043,37.598,24.902,37.109,36.133,49.805,0
1506375087.047,33.691,23.438,42.480,29.785,43.945,0
1506375087.051,33.203,39.551,38.086,25.391,58.105,0
1506375087.055,45.410,41.504,33.691,31.250,73.730,0
1506375087.059,48.828,28.809,41.504,33.203,72.754,0
1506375087.063,39.062,22.461,40.039,24.902,70.801,0
1506375087.067,37.109,29.297,40.039,24.902,87.891,0
1506375087.071,33.203,25.879,36.621,25.391,125.977,0
1506375087.075,16.113,15.137,37.598,23.926,146.973,0
1506375087.078,15.625,18.066,46.875,33.691,155.273,0
1506375087.082,21.484,21.484,47.363,39.062,174.316,0
1506375087.086,27.832,21.973,38.574,36.621,189.453,0
1506375087.090,36.621,16.113,45.898,39.551,190.430,0
1506375087.094,40.527,27.832,46.875,38.086,203.613,0
1506375087.098,36.621,48.828,39.551,33.203,252.930,0
1506375087.102,42.480,41.016,45.898,41.504,271.484,0
1506375087.106,45.410,32.227,47.852,45.898,267.090,0
1506375087.110,31.250,37.109,43.457,39.062,272.949,0
1506375087.114,25.879,39.551,46.387,38.574,275.391,0
1506375087.118,28.809,34.668,52.734,41.504,296.875,0
1506375087.121,39.062,31.738,48.828,39.551,291.992,0
1506375087.125,48.340,31.738,53.711,40.039,291.992,0
1506375087.129,47.852,29.297,57.617,40.527,308.594,0
1506375087.133,40.527,26.367,43.945,32.715,299.805,0
1506375087.137,39.062,18.555,43.945,36.621,275.879,0
1506375087.141,35.156,36.621,47.363,39.551,283.203,0
1506375087.145,28.809,50.293,41.504,33.203,312.988,0
1506375087.149,36.133,28.320,56.152,39.062,293.945,0
1506375087.153,41.016,27.832,58.594,42.480,286.133,0
1506375087.157,41.504,43.945,49.316,36.133,296.875,0
1506375087.160,30.273,36.133,49.805,33.203,284.180,0
1506375087.164,14.160,28.320,51.270,33.691,269.531,0
1506375087.168,7.812,21.973,45.898,27.832,266.113,0
1506375087.172,15.137,20.020,45.898,30.762,262.695,0
1506375087.176,23.926,26.367,54.199,29.785,262.207,0
1506375087.180,22.461,7.812,51.270,22.461,256.348,0
1506375087.184,19.531,8.301,41.992,17.578,234.375,0
1506375087.188,21.973,31.250,36.621,14.160,227.051,0
1506375087.192,29.785,20.508,45.410,14.648,257.812,0
1506375087.196,43.457,16.113,51.758,18.066,272.461,0
1506375087.200,43.457,28.809,47.363,25.879,236.328,0
1506375087.203,27.344,26.367,44.434,25.391,226.562,0
1506375087.207,20.508,15.137,45.898,36.621,211.426,0
1506375087.211,10.742,14.160,51.758,40.527,185.547,0
1506375087.215,9.277,23.926,49.316,35.645,223.145,0
1506375087.219,16.602,18.066,38.574,33.203,229.492,0
1506375087.223,22.461,12.207,35.645,33.203,201.660,0
1506375087.227,26.855,14.160,38.574,37.109,172.852,0
1506375087.231,31.250,32.227,41.504,32.227,152.832,0
1506375087.235,40.039,37.598,42.480,32.227,176.758,0
1506375087.239,47.852,25.391,46.875,38.086,160.645,0
1506375087.243,55.176,26.855,45.898,34.668,139.648,0
1506375087.246,50.293,32.227,38.086,31.250,154.785,0
1506375087.250,39.551,25.879,38.086,33.691,157.227,0
1506375087.254,38.574,12.207,44.434,36.621,144.043,0
1506375087.258,43.945,18.066,49.316,38.086,112.793,0
1506375087.262,40.527,30.762,43.457,39.551,145.996,0
1506375087.266,38.574,16.602,43.945,42.480,145.020,0
1506375087.270,41.992,17.578,43.457,32.715,112.305,0
1506375087.274,44.922,30.273,44.434,31.738,126.953,0
1506375087.278,41.992,30.762,50.781,41.016,136.230,0
1506375087.282,41.016,24.414,44.922,33.203,121.582,0
1506375087.285,50.781,11.230,35.645,31.250,95.215,0
1506375087.289,47.852,19.043,32.227,36.133,62.500,0
1506375087.293,40.039,36.133,41.016,33.203,88.379,0
1506375087.297,40.039,20.020,43.945,33.691,113.281,0
1506375087.301,35.156,9.766,44.434,36.133,43.457,0
1506375087.305,27.344,26.855,41.504,34.180,37.598,0
1506375087.309,30.762,30.273,40.527,29.297,95.703,0
1506375087.313,24.902,13.184,39.062,24.902,71.289,0
1506375087.317,31.738,10.742,36.621,27.344,14.160,0
1506375087.321,42.969,32.715,41.992,36.621,8.789,0
1506375087.325,35.645,37.109,47.852,43.945,39.551,0
1506375087.328,43.457,13.672,49.316,45.898,2.930,0
1506375087.332,41.504,8.301,43.945,41.992,-18.555,0
1506375087.336,40.039,23.926,31.738,40.527,-25.879,0
1506375087.340,51.270,23.926,40.527,49.805,-41.992,0
1506375087.344,48.828,15.137,49.316,53.223,-30.273,0
1506375087.348,43.945,14.160,44.434,49.316,-42.480,0
1506375087.352,44.434,22.949,40.039,53.223,-41.504,0
1506375087.356,44.434,19.043,35.156,47.363,-41.992,0
1506375087.360,42.480,-1.465,38.574,34.668,-75.195,0
1506375087.364,35.645,5.371,32.227,22.949,-94.238,0
1506375087.368,31.738,16.602,30.273,21.973,-101.074,0
1506375087.371,33.203,7.324,36.133,23.926,-119.629,0
1506375087.375,26.855,-2.930,30.762,24.414,-142.578,0
1506375087.379,20.020,3.418,30.273,30.762,-149.902,0
1506375087.383,18.555,15.137,34.668,31.250,-156.250,0
1506375087.387,23.438,5.859,35.156,34.668,-171.875,0
1506375087.391,30.273,11.230,28.809,38.574,-172.363,0
1506375087.395,28.809,21.484,31.738,40.039,-191.406,0
1506375087.399,25.879,24.902,28.320,38.574,-227.051,0
1506375087.403,31.738,23.438,25.391,40.527,-230.957,0
1506375087.407,37.109,18.066,25.879,30.273,-266.113,0
1506375087.410,35.645,26.367,34.668,17.090,-276.855,0
1506375087.414,29.297,27.832,44.922,16.602,-269.043,0
1506375087.418,29.297,12.695,34.668,18.555,-303.223,0
1506375087.422,28.809,6.836,34.668,17.578,-352.539,0
1506375087.426,21.973,20.996,35.156,14.648,-368.164,0
1506375087.430,27.344,20.508,25.391,24.414,-381.348,0
1506375087.434,38.086,7.812,33.203,32.715,-417.969,0
1506375087.438,39.551,13.672,28.809,34.668,-425.781,0
1506375087.442,43.457,31.250,16.602,31.250,-407.715,0
1506375087.446,53.223,26.855,25.879,27.344,-428.223,0
1506375087.450,51.758,13.184,31.738,24.902,-427.734,0
1506375087.453,39.551,17.578,27.832,24.902,-368.652,0
1506375087.457,35.156,24.414,29.297,22.949,-365.234,0
1506375087.461,31.250,23.438,29.297,20.996,-341.797,0
1506375087.465,24.902,13.184,26.367,25.391,-273.926,0
1506375087.469,23.438,14.648,25.391,21.973,-279.297,0
1506375087.473,25.391,37.109,29.297,24.902,-309.570,0
1506375087.477,22.461,28.320,35.645,31.250,-276.367,0
1506375087.481,20.020,20.508,38.574,30.762,-233.398,0
1506375087.485,17.090,19.043,40.527,25.879,-255.371,0
1506375087.489,0.000,11.230,34.668,21.484,-230.957,0
1506375087.493,-8.789,-1.953,34.668,27.832,-208.008,0
1506375087.496,-2.930,-6.348,34.668,26.367,-229.492,0
1506375087.500,7.324,3.418,32.227,28.809,-210.449,0
1506375087.504,10.742,9.766,38.086,33.691,-196.777,0
1506375087.508,8.301,5.371,39.551,31.738,-145.508,0
1506375087.512,14.648,-0.977,31.738,36.621,-116.211,0
1506375087.516,15.137,18.066,26.367,35.645,-126.953,0
1506375087.520,19.043,21.973,27.344,33.203,-98.633,0
1506375087.524,24.902,1.465,34.668,40.527,-93.262,0
1506375087.528,24.414,0.000,37.598,39.551,-110.352,0
1506375087.532,28.809,11.230,36.621,38.574,-100.586,0
1506375087.535,27.344,9.277,35.156,41.992,-70.312,0
1506375087.539,23.438,-1.953,37.598,40.039,-32.227,0
1506375087.543,26.367,-1.465,43.945,40.527,5.371,0
1506375087.547,35.156,2.930,43.945,37.598,15.625,0
1506375087.551,38.086,5.371,33.203,35.645,20.020,0
1506375087.555,40.527,-2.930,27.832,37.109,6.348,0
1506375087.559,44.434,2.930,33.203,33.691,27.344,0
1506375087.563,41.992,20.020,34.668,29.785,106.445,0
1506375087.567,43.945,7.812,22.949,31.738,163.574,0
1506375087.571,44.434,-5.371,19.531,35.156,158.203,0
1506375087.575,43.457,-0.977,34.668,37.109,183.594,0
1506375087.578,35.645,2.441,50.293,42.969,244.141,0
1506375087.582,34.668,-7.812,47.852,42.480,292.969,0
1506375087.586,33.203,-13.184,38.086,40.527,317.383,0
1506375087.590,25.391,-7.812,43.945,44.922,321.289,0
1506375087.594,30.762,-9.277,46.875,42.480,345.703,0
1506375087.598,33.691,-14.160,47.363,34.180,342.773,0
1506375087.602,37.598,-14.160,52.246,31.250,310.059,0
1506375087.606,37.109,3.418,44.434,25.391,329.590,0
1506375087.610,33.691,0.488,38.086,18.066,369.629,0
1506375087.614,29.297,-14.160,43.457,21.973,354.004,0
1506375087.618,25.879,-5.859,48.340,26.855,348.633,0
1506375087.621,14.160,-0.977,42.969,31.738,392.090,0
1506375087.625,0.000,-11.719,32.715,24.902,394.531,0
1506375087.629,-1.465,-6.836,39.062,25.391,456.055,0
1506375087.633,-0.488,58.594,34.668,30.762,821.289,0
1506375087.637,9.277,109.375,21.484,30.273,-976.562,0
1506375087.641,20.508,115.723,20.996,33.203,985.840,0
1506375087.645,24.414,96.680,33.203,34.668,999.023,0
1506375087.649,32.715,89.355,38.086,32.715,-1000.000,0
1506375087.653,36.621,107.422,32.715,28.809,999.512,0
1506375087.657,36.133,88.379,31.738,29.785,999.512,0
1506375087.660,29.297,46.387,31.250,30.762,999.512,0
1506375087.664,13.672,16.113,27.344,27.344,999.512,0
1506375087.668,2.930,-8.301,30.762,27.832,999.512,0
1506375087.672,3.906,-26.367,36.133,26.367,999.512,0
1506375087.676,10.254,-21.484,25.879,28.809,999.512,0
1506375087.680,9.766,-15.625,28.809,32.227,999.512,0
1506375087.684,4.395,-28.320,34.180,27.344,999.512,0
1506375087.688,5.371,-44.922,26.367,26.367,999.512,0
1506375087.692,17.090,-47.363,28.320,30.762,999.512,0
1506375087.696,9.277,-34.180,30.273,20.020,999.512,0
1506375087.700,5.859,-26.367,18.066,17.090,999.512,0
1506375087.703,35.156,-25.879,27.832,30.762,994.141,0
1506375087.707,48.828,-25.879,38.574,31.738,-994.141,0
1506375087.711,47.363,-19.531,25.879,28.809,938.477,0
1506375087.715,46.875,-21.484,20.996,27.344,768.555,0
1506375087.719,41.992,-28.809,24.414,28.809,601.562,0
1506375087.723,30.762,-29.785,26.855,26.855,435.059,0
1506375087.727,24.902,-28.320,26.367,20.508,269.531,0
1506375087.731,20.020,-29.785,26.367,12.207,76.172,0
1506375087.735,22.461,-36.133,23.438,20.020,-120.117,0
1506375087.739,17.578,-24.902,28.320,17.090,-323.242,0
1506375087.743,16.113,-4.883,40.039,13.672,-492.188,0
1506375087.746,30.273,-13.672,38.574,20.020,-640.137,0
1506375087.750,34.668,-26.855,35.645,16.602,-828.613,0
1506375087.754,41.016,-16.602,46.387,18.555,-954.102,0
1506375087.758,45.410,-6.836,47.363,17.090,-965.820,0
1506375087.762,44.434,-16.602,37.109,18.066,-964.844,0
1506375087.766,41.504,-17.578,35.156,17.578,-967.773,0
1506375087.770,40.527,-7.812,39.551,20.996,-967.285,2
1506375087.774,37.598,-9.277,40.039,23.438,-966.797,0
1506375087.778,30.273,-16.602,37.598,24.902,-966.797,0
1506375087.782,16.602,-25.391,46.875,28.809,-966.797,0
1506375087.785,4.883,-20.020,52.246,27.344,-966.797,0
1506375087.789,10.254,-15.137,35.645,22.949,-967.285,0
1506375087.793,22.461,-26.367,37.109,20.020,-966.797,0
1506375087.797,25.391,-35.645,44.922,19.531,-967.285,0
1506375087.801,31.250,-12.695,40.527,22.461,-967.285,0
1506375087.805,37.109,-3.418,44.434,28.809,-966.797,0
1506375087.809,39.062,-25.879,51.758,34.180,-967.285,0
1506375087.813,39.062,-24.414,50.293,40.527,-967.285,0
1506375087.817,34.180,-6.836,41.992,36.133,-966.797,0
1506375087.821,26.855,-8.789,36.621,27.832,-966.797,0
1506375087.825,28.809,-13.184,33.691,19.043,-966.797,0
1506375087.828,27.832,-13.184,33.691,12.695,-967.285,0
1506375087.832,19.043,-3.906,37.109,17.578,-967.285,0
1506375087.836,20.996,6.836,34.180,12.695,-966.797,0
1506375087.840,28.809,-4.395,33.203,9.277,-966.797,0
1506375087.844,24.902,11.719,29.297,12.207,-966.797,0
1506375087.848,16.602,48.340,33.203,10.742,-966.797,0
1506375087.852,24.414,44.922,34.180,12.207,-966.797,0
1506375087.856,24.902,38.086,25.879,16.602,-966.797,0
1506375087.860,24.902,52.246,31.250,20.020,-967.773,0
1506375087.864,27.832,52.246,45.898,19.531,-965.332,0
1506375087.868,24.902,38.574,43.945,17.578,-966.309,0
1506375087.871,28.320,37.598,40.527,19.531,-964.355,0
1506375087.875,29.297,38.086,48.340,26.855,-883.789,0
1506375087.879,26.367,41.016,36.621,22.461,-778.320,0
1506375087.883,33.691,40.527,29.785,29.297,-678.223,0
1506375087.887,36.621,32.227,35.645,38.086,-645.996,0
1506375087.891,42.480,55.176,41.016,34.180,-587.402,0
1506375087.895,52.734,62.012,50.293,40.039,-456.055,0
1506375087.899,53.711,41.504,47.852,40.527,-394.531,0
1506375087.903,36.621,41.016,35.156,33.691,-347.168,0
1506375087.907,21.973,43.945,29.297,35.156,-307.617,0
1506375087.910,21.973,44.434,28.320,33.691,-246.582,0
1506375087.914,20.508,41.016,35.645,32.715,-213.379,0
1506375087.918,26.855,37.109,35.156,36.133,-189.941,0
1506375087.922,30.762,35.645,25.391,27.832,-134.277,0
1506375087.926,27.832,40.039,30.762,23.926,-105.957,0
1506375087.930,31.250,32.227,29.297,22.949,-58.594,0
1506375087.934,38.086,26.367,29.297,21.973,-46.387,0
1506375087.938,35.156,41.504,27.832,23.926,-22.461,0
1506375087.942,27.344,32.715,26.367,26.855,22.461,0
1506375087.946,19.043,29.785,23.438,27.344,50.781,0
1506375087.950,10.742,32.715,24.902,28.320,44.434,0
1506375087.953,19.531,35.156,30.762,25.879,72.754,0
1506375087.957,25.879,28.809,35.156,23.926,101.562,0
1506375087.961,11.230,19.043,30.762,21.973,78.125,0
1506375087.965,11.719,19.043,18.066,17.578,73.730,0
1506375087.969,29.297,27.344,13.672,18.066,99.609,0
1506375087.973,33.203,28.809,20.996,22.949,113.281,0
1506375087.977,27.832,16.602,25.391,21.484,73.242,0
1506375087.981,29.785,34.668,26.855,14.160,92.773,0
1506375087.985,27.832,44.922,33.691,20.508,151.367,0
1506375087.989,31.738,20.020,41.992,30.762,111.328,0
1506375087.993,40.039,15.625,46.387,31.250,70.801,0
1506375087.996,35.156,30.273,43.945,33.691,125.000,0
1506375088.000,31.250,19.531,44.922,40.527,160.645,0
1506375088.004,32.715,9.766,40.039,39.062,141.113,0
1506375088.008,27.344,14.648,32.715,31.738,146.973,0
1506375088.012,27.344,20.020,25.879,35.156,158.691,0
1506375088.016,34.180,13.184,24.414,41.504,142.578,0
1506375088.020,35.156,6.836,30.273,39.551,121.094,0
1506375088.024,33.203,12.695,37.598,37.109,130.371,0
1506375088.028,39.062,26.367,40.527,35.156,147.949,0
1506375088.032,50.781,27.344,34.668,37.109,128.418,0
1506375088.035,55.664,21.973,26.367,42.969,109.375,0
1506375088.039,45.898,31.250,24.414,41.016,137.207,0
1506375088.043,44.434,36.621,29.785,40.527,155.273,0
1506375088.047,44.434,28.320,38.086,34.180,160.645,0
1506375088.051,39.551,27.832,38.086,27.832,165.039,0
1506375088.055,41.504,34.668,42.969,33.691,160.156,0
1506375088.059,46.387,34.668,42.969,32.715,155.273,0
1506375088.063,48.828,27.832,44.922,33.203,118.652,0
1506375088.067,49.805,30.762,49.316,41.016,89.355,0
1506375088.071,43.457,52.734,42.969,41.992,91.309,0
1506375088.075,40.039,56.152,42.969,38.574,105.957,0
1506375088.078,43.945,36.621,46.875,44.434,91.309,0
1506375088.082,39.062,41.016,40.039,46.875,85.449,0
1506375088.086,34.668,53.223,34.668,45.410,71.289,0
1506375088.090,26.855,50.781,38.086,41.504,90.332,0
1506375088.094,34.180,28.809,42.969,38.086,105.469,0
1506375088.098,43.945,21.973,50.293,41.504,40.527,0
1506375088.102,43.457,37.598,37.109,40.527,50.293,0
1506375088.106,41.504,27.344,25.879,37.109,100.098,0
1506375088.110,34.180,13.184,34.180,35.156,97.656,0
1506375088.114,27.344,27.344,30.762,30.273,74.219,0
1506375088.118,33.203,42.969,31.250,25.879,104.004,0
1506375088.121,27.344,35.156,36.133,21.973,141.602,0
1506375088.125,20.996,14.648,31.738,23.438,125.488,0
1506375088.129,14.648,17.090,28.809,31.250,90.332,0
1506375088.133,9.766,36.133,24.414,32.227,80.566,0
1506375088.137,1.953,29.297,16.113,26.367,95.215,0
1506375088.141,-0.977,20.508,26.855,19.531,110.840,0
1506375088.145,13.184,26.855,34.668,19.531,126.953,0
1506375088.149,12.207,27.832,21.484,19.043,122.559,0
1506375088.153,19.043,22.461,19.531,21.973,103.516,0
1506375088.157,29.785,9.766,29.785,30.762,90.820,0
1506375088.160,16.602,15.625,36.621,31.738,76.660,0
1506375088.164,1.465,29.785,35.156,28.320,74.707,0
1506375088.168,7.812,20.996,31.250,25.879,67.871,0
1506375088.172,15.137,18.555,31.738,31.738,70.801,0
1506375088.176,13.672,26.855,34.668,31.250,75.195,0
1506375088.180,12.207,26.367,39.551,27.344,74.219,0
1506375088.184,11.230,19.531,39.551,33.203,81.543,0
1506375088.188,9.766,18.066,43.945,33.691,50.293,0
1506375088.192,20.996,27.344,47.363,26.367,43.945,0
1506375088.196,30.273,34.180,39.551,21.973,76.172,0
1506375088.200,33.203,24.414,35.645,27.344,58.105,0
1506375088.203,29.297,13.672,41.016,24.902,17.578,0
1506375088.207,27.344,16.602,43.457,31.250,15.137,0
1506375088.211,28.320,22.461,37.109,37.598,51.270,0
1506375088.215,24.414,8.301,35.645,30.273,28.809,0
1506375088.219,20.996,5.371,30.273,30.273,12.695,0
1506375088.223,25.391,25.391,25.879,30.273,55.664,0
1506375088.227,34.180,14.648,33.203,32.227,36.621,0
1506375088.231,36.133,6.836,30.762,30.273,-5.371,0
1506375088.235,35.645,21.484,31.738,26.367,23.926,0
1506375088.239,46.387,25.879,37.109,31.250,48.828,0
1506375088.243,46.387,12.207,32.715,29.785,32.227,0
1506375088.246,37.109,11.230,35.156,25.391,27.832,0
1506375088.250,31.250,13.672,37.598,32.227,39.062,0
1506375088.254,28.809,20.020,27.344,33.691,44.922,0
1506375088.258,30.762,16.113,26.367,33.203,40.527,0
1506375088.262,33.691,3.418,35.645,39.062,-3.906,0
1506375088.266,25.391,18.066,38.574,33.203,-14.160,0
1506375088.270,32.227,26.367,36.621,28.320,5.371,3
1506375088.274,40.039,11.230,35.645,29.785,19.531,0
1506375088.278,28.809,9.766,44.434,27.344,39.551,0
1506375088.282,29.297,24.414,43.945,22.949,69.336,0
1506375088.285,36.133,12.695,40.039,21.973,51.270,0
1506375088.289,32.227,5.859,39.551,24.414,26.367,0
1506375088.293,36.133,12.695,39.062,32.715,30.762,0
1506375088.297,45.898,17.090,41.992,46.387,23.926,0
1506375088.301,37.109,22.461,49.316,45.898,28.809,0
1506375088.305,23.926,12.207,41.992,39.062,11.719,0
1506375088.309,22.949,11.719,42.480,53.223,-4.395,0
1506375088.313,23.926,27.832,47.852,56.641,19.043,0
1506375088.317,20.996,18.066,39.551,50.293,51.270,0
1506375088.321,23.438,9.277,31.738,51.270,60.059,0
1506375088.325,25.391,16.113,34.180,47.852,38.086,0
1506375088.328,26.367,21.484,31.738,46.387,30.273,0
1506375088.332,28.809,15.137,35.645,44.922,55.176,0
1506375088.336,35.156,20.508,43.457,49.805,48.828,0
1506375088.340,40.527,27.832,37.598,53.711,13.672,0
1506375088.344,30.762,23.926,36.621,45.898,12.207,0
1506375088.348,30.762,19.043,32.715,40.527,45.410,0
1506375088.352,39.551,7.324,30.273,39.062,16.113,0
1506375088.356,38.574,25.391,33.203,33.691,2.930,0
1506375088.360,46.387,31.738,32.227,34.180,40.527,0
1506375088.364,45.898,10.742,30.273,35.645,26.855,0
1506375088.368,36.621,11.230,30.273,36.133,11.230,0
1506375088.371,17.578,22.461,29.297,34.668,26.855,0
1506375088.375,4.883,14.160,33.203,36.621,20.508,0
1506375088.379,9.277,7.324,29.785,39.062,-8.301,0
1506375088.383,6.836,12.695,21.973,25.391,-5.371,0
1506375088.387,19.531,20.996,25.879,30.762,50.293,0
1506375088.391,21.973,18.066,32.715,38.574,43.457,0
1506375088.395,28.809,5.859,27.344,35.645,6.836,0
1506375088.399,41.992,13.672,18.066,36.133,2.441,0
1506375088.403,33.691,31.738,19.531,27.344,6.348,0
1506375088.407,32.715,23.438,27.832,29.297,13.672,0
1506375088.410,40.039,12.207,31.738,38.574,-11.719,0
1506375088.414,38.086,18.066,36.133,31.738,-5.859,0
1506375088.418,25.879,22.949,38.086,24.902,29.297,0
1506375088.422,22.949,18.066,36.621,28.320,21.484,0
1506375088.426,18.555,11.719,42.480,27.344,11.719,0
1506375088.430,19.531,15.137,39.551,27.344,-11.230,0
1506375088.434,27.832,15.137,38.086,30.273,-19.043,0
1506375088.438,35.645,10.254,38.086,36.133,-4.395,0
1506375088.442,54.199,13.672,39.062,39.062,-41.504,0
1506375088.446,50.293,29.785,42.969,36.621,-41.992,0
1506375088.450,41.016,39.062,36.621,36.133,0.977,0
1506375088.453,41.016,16.602,39.551,40.039,-6.836,0
1506375088.457,36.621,13.672,46.875,37.598,-24.414,0
1506375088.461,32.227,26.855,41.016,30.273,-17.578,0
1506375088.465,34.180,17.578,35.645,30.273,-9.766,0
1506375088.469,39.551,13.184,37.598,36.621,-7.324,0
1506375088.473,39.062,18.555,39.062,39.062,-21.973,0
1506375088.477,34.180,19.531,38.086,38.086,9.766,0
1506375088.481,32.715,20.508,30.762,34.180,16.113,0
1506375088.485,31.250,13.672,36.621,39.062,-43.457,0
1506375088.489,35.156,22.949,42.969,41.504,-47.852,0
1506375088.493,40.039,36.133,28.809,29.297,-17.578,0
1506375088.496,41.992,27.344,28.320,18.066,14.648,0
1506375088.500,38.574,18.066,45.410,27.832,-1.465,0
1506375088.504,33.203,28.809,46.387,38.086,-51.758,0
1506375088.508,40.039,41.016,48.828,35.156,-36.621,0
1506375088.512,36.621,35.156,47.852,28.809,-17.578,0
1506375088.516,27.344,33.691,40.039,31.738,9.766,0
1506375088.520,29.297,30.273,43.457,34.668,9.766,0
1506375088.524,29.785,32.227,37.598,23.926,3.418,0
1506375088.528,25.391,29.785,32.227,13.672,28.320,0
1506375088.532,26.855,20.508,40.039,20.996,46.387,0
1506375088.535,30.273,26.855,47.852,27.344,31.250,0
1506375088.539,26.855,39.062,48.340,27.344,35.645,0
1506375088.543,23.438,23.926,42.969,28.320,33.691,0
1506375088.547,24.902,19.043,49.316,29.297,5.371,0
1506375088.551,35.156,41.992,52.246,32.715,17.090,0
1506375088.555,44.922,37.109,46.387,33.203,37.598,0
1506375088.559,51.270,17.090,51.758,36.133,16.602,0
1506375088.563,53.223,22.461,48.340,40.527,-15.137,0
1506375088.567,48.828,46.387,46.387,38.574,-3.418,0
1506375088.571,35.156,38.086,51.270,41.992,29.297,0
1506375088.575,26.367,26.367,51.270,38.574,54.199,0
1506375088.578,22.949,28.809,56.152,34.180,41.992,0
1506375088.582,18.555,29.785,54.199,36.133,30.273,0
1506375088.586,20.996,30.762,46.387,36.133,46.875,0
1506375088.590,28.320,17.090,45.410,37.109,39.551,0
1506375088.594,29.785,16.113,38.086,29.785,7.324,0
1506375088.598,29.785,34.668,30.273,22.949,28.320,0
1506375088.602,29.297,31.738,34.668,26.855,66.406,0
1506375088.606,22.949,30.273,42.480,35.645,44.922,0
1506375088.610,17.090,38.086,41.992,31.250,33.203,0
1506375088.614,19.531,35.156,41.504,25.879,47.852,0
1506375088.618,29.785,31.250,41.016,26.367,41.992,0
1506375088.621,35.156,31.738,41.504,24.414,23.926,0
1506375088.625,31.738,31.738,26.367,20.020,50.293,0
1506375088.629,31.738,40.039,21.973,20.020,50.781,0
1506375088.633,30.762,34.180,33.203,26.367,61.523,0
1506375088.637,29.785,15.137,36.133,21.484,30.762,0
1506375088.641,32.715,34.668,37.598,16.113,10.254,0
1506375088.645,32.715,41.016,37.109,24.414,51.758,0
1506375088.649,30.273,26.367,33.203,32.715,55.176,0
1506375088.653,39.551,29.785,25.879,26.367,51.270,0
1506375088.657,33.691,40.527,25.391,17.578,54.688,0
1506375088.660,20.996,30.762,35.645,16.602,82.520,0
1506375088.664,21.973,23.438,32.715,20.996,72.266,0
1506375088.668,20.020,27.344,27.344,28.320,46.387,0
1506375088.672,17.090,28.320,35.156,31.738,47.363,0
1506375088.676,15.625,29.785,37.109,25.879,63.477,0
1506375088.680,24.414,20.508,29.785,27.344,49.316,0
1506375088.684,25.879,28.809,21.973,28.809,52.246,0
1506375088.688,22.461,35.645,26.855,20.020,55.664,0
1506375088.692,24.902,22.949,30.273,17.090,46.875,0
1506375088.696,22.461,17.090,26.367,18.066,25.879,0
1506375088.700,23.438,22.949,26.367,12.207,3.906,0
1506375088.703,29.785,24.902,25.879,5.859,56.641,0
1506375088.707,20.020,11.230,26.367,7.324,67.383,0
1506375088.711,1.953,11.230,31.250,10.254,60.059,0
1506375088.715,-4.395,12.207,31.250,19.531,56.641,0
1506375088.719,4.395,11.719,35.645,20.996,39.062,0
1506375088.723,9.277,18.066,33.691,14.160,44.434,0
1506375088.727,6.348,15.137,31.738,16.602,26.855,0
1506375088.731,12.207,32.715,37.598,17.090,16.602,0
1506375088.735,17.578,37.109,35.645,19.531,31.250,0
1506375088.739,14.648,19.531,33.203,26.855,-0.488,0
1506375088.743,14.648,31.250,34.668,29.785,-11.719,0
1506375088.746,20.020,47.852,35.156,28.809,41.992,0
1506375088.750,21.484,38.086,38.086,29.297,81.543,0
1506375088.754,21.484,27.344,39.551,27.832,61.523,0
1506375088.758,27.832,36.133,41.504,25.879,44.922,0
1506375088.762,29.297,38.574,38.574,21.973,53.711,0
1506375088.766,26.855,28.809,36.621,23.926,20.508,0
1506375088.770,35.645,24.902,36.133,32.227,10.742,4
1506375088.774,34.180,37.598,38.574,32.227,29.785,0
1506375088.778,25.879,49.316,39.062,24.902,44.434,0
1506375088.782,21.973,38.086,33.203,21.484,50.293,0
1506375088.785,13.672,36.621,28.320,19.043,47.363,0
1506375088.789,3.906,36.621,34.180,13.672,63.477,0
1506375088.793,6.348,27.344,40.039,18.555,74.219,0
1506375088.797,10.742,25.879,29.297,19.043,49.316,0
1506375088.801,8.789,32.227,28.809,17.090,47.852,0
1506375088.805,11.230,29.785,39.062,16.602,48.340,0
1506375088.809,16.113,23.438,37.109,17.578,55.176,0
1506375088.813,21.973,27.832,33.691,20.020,24.414,0
1506375088.817,20.508,32.715,43.457,27.344,-16.113,0
1506375088.821,10.742,46.875,39.062,31.250,-4.883,0
1506375088.825,9.766,52.246,37.109,27.344,33.203,0
1506375088.828,20.020,34.180,34.180,30.273,48.340,0
1506375088.832,22.949,28.809,20.020,25.879,41.992,0
1506375088.836,20.508,33.691,16.602,20.020,56.641,0
1506375088.840,25.391,31.250,29.297,22.461,69.336,0
1506375088.844,21.484,23.926,30.762,25.391,61.523,0
1506375088.848,19.531,25.879,25.879,27.344,72.754,0
1506375088.852,17.090,26.855,21.973,27.344,72.754,0
1506375088.856,11.230,23.926,14.648,27.344,29.785,0
1506375088.860,22.461,16.602,13.184,31.250,33.691,0
1506375088.864,25.879,19.531,24.902,29.785,31.738,0
1506375088.868,16.602,36.133,27.344,29.297,29.297,0
1506375088.871,12.695,28.809,22.461,27.344,36.133,0
1506375088.875,27.344,14.160,29.297,28.320,17.578,0
1506375088.879,38.574,17.090,31.250,34.180,20.996,0
1506375088.883,39.551,30.273,27.832,37.109,39.062,0
1506375088.887,43.945,29.297,28.809,39.062,45.410,0
1506375088.891,44.434,24.414,25.391,36.133,53.711,0
1506375088.895,36.133,23.926,22.461,35.156,48.340,0
1506375088.899,32.715,29.297,29.785,41.016,45.898,0
1506375088.903,37.598,24.902,32.227,37.109,78.125,0
1506375088.907,41.016,15.137,36.133,34.668,41.504,0
1506375088.910,39.551,21.973,36.133,33.203,38.086,0
1506375088.914,32.227,27.832,28.809,26.367,82.031,0
1506375088.918,31.738,16.602,22.949,18.066,39.062,0
1506375088.922,29.785,8.301,24.902,16.602,-0.488,0
1506375088.926,20.508,29.785,22.461,18.066,21.484,0
1506375088.930,24.414,32.227,22.949,19.531,56.152,0
1506375088.934,31.250,10.254,26.367,32.227,38.574,0
1506375088.938,25.879,11.719,24.902,33.203,-6.348,0
1506375088.942,16.113,29.785,25.879,24.414,20.996,0
1506375088.946,19.531,24.902,31.250,33.691,54.199,0
1506375088.950,30.762,15.137,35.156,42.480,34.668,0
1506375088.953,30.273,10.254,32.715,39.551,9.766,0
1506375088.957,27.344,16.113,27.344,32.227,-8.301,0
1506375088.961,24.902,30.273,21.484,26.367,20.508,0
1506375088.965,35.156,14.160,19.531,28.809,12.695,0
1506375088.969,38.086,10.254,29.785,27.832,-4.883,0
1506375088.973,33.203,29.297,35.645,23.438,20.020,0
1506375088.977,34.180,27.832,41.504,28.809,36.621,0
1506375088.981,29.297,17.090,34.180,29.297,12.695,0
1506375088.985,26.367,19.043,27.832,21.484,4.883,0
1506375088.989,17.578,23.438,25.391,21.973,54.688,0
1506375088.993,11.230,17.578,26.367,28.320,47.363,0
1506375088.996,4.395,14.160,30.762,24.902,17.090,0
1506375089.000,11.719,13.672,32.715,20.996,16.113,0
1506375089.004,29.785,24.414,40.039,31.250,22.461,0
1506375089.008,30.762,24.414,41.016,42.480,29.785,0
1506375089.012,19.531,9.766,35.645,35.156,-22.949,0
1506375089.016,20.508,28.809,24.414,29.297,-31.250,0
1506375089.020,26.855,29.785,25.391,28.320,1.953,0
1506375089.024,25.391,16.602,32.227,27.832,16.113,0
1506375089.028,33.691,17.090,26.367,32.227,28.320,0
1506375089.032,40.039,28.809,20.020,34.180,-3.418,0
1506375089.035,37.598,32.227,29.297,27.832,18.555,0
1506375089.039,34.180,10.742,34.668,20.020,26.855,0
1506375089.043,36.133,4.883,29.297,19.531,1.953,0
1506375089.047,42.480,16.113,23.926,22.949,20.996,0
1506375089.051,41.992,30.762,23.926,27.832,37.109,0
1506375089.055,30.273,21.973,33.203,31.250,14.160,0
1506375089.059,8.789,19.043,34.180,29.297,-19.531,0
1506375089.063,-0.488,35.645,29.297,27.832,20.996,0
1506375089.067,-1.465,24.414,17.578,23.438,45.898,0
1506375089.071,4.883,21.484,15.137,23.926,33.691,0
1506375089.075,9.277,21.973,33.203,34.668,14.648,0
1506375089.078,13.672,25.879,29.785,35.645,37.109,0
1506375089.082,20.020,23.438,20.508,32.715,51.758,0
1506375089.086,27.832,18.555,25.391,28.809,50.781,0
1506375089.090,31.250,19.531,22.949,20.996,55.664,0
1506375089.094,40.039,20.508,32.715,29.297,19.043,0
1506375089.098,49.805,23.438,42.480,37.598,12.207,0
1506375089.102,42.480,15.625,37.109,38.086,8.301,0
1506375089.106,32.227,27.344,36.621,41.016,10.742,0
1506375089.110,21.484,34.180,34.180,38.574,45.410,0
1506375089.114,14.160,14.648,38.574,42.480,34.668,0
1506375089.118,15.625,16.113,34.668,44.434,-6.836,0
1506375089.121,21.973,35.156,33.691,37.109,11.719,0
1506375089.125,20.996,25.879,32.715,31.250,38.574,0
1506375089.129,21.484,12.207,24.902,29.785,21.484,0
1506375089.133,24.902,25.879,29.297,29.297,35.156,0
1506375089.137,27.832,36.621,27.832,35.156,41.504,0
1506375089.141,29.297,31.250,32.227,34.668,31.250,0
1506375089.145,29.297,20.996,31.738,31.738,29.297,0
1506375089.149,35.156,26.367,32.227,39.062,-3.906,0
1506375089.153,31.250,49.316,32.715,36.621,0.000,0
1506375089.157,27.832,34.668,23.926,31.250,32.715,0
1506375089.160,24.902,11.719,27.832,35.156,3.906,0
1506375089.164,24.414,23.926,26.367,34.180,-1.953,0
1506375089.168,38.574,35.156,25.879,34.668,40.039,0
1506375089.172,44.434,28.809,40.527,41.992,41.504,0
1506375089.176,34.668,26.855,33.203,40.039,39.062,0
1506375089.180,29.785,27.832,31.738,31.250,7.324,0
1506375089.184,29.785,26.855,33.691,31.738,-4.395,0
1506375089.188,40.039,20.996,19.043,35.156,25.879,0
1506375089.192,41.992,12.695,19.531,33.691,-6.836,0
1506375089.196,31.250,25.879,31.250,34.180,-31.250,0
1506375089.200,23.926,38.086,37.598,39.062,6.836,0
1506375089.203,17.090,19.531,41.504,45.898,4.395,0
1506375089.207,14.160,9.277,39.551,42.480,-17.578,0
1506375089.211,20.020,25.391,39.062,38.574,-11.719,0
1506375089.215,23.926,31.250,40.039,37.598,0.000,0
1506375089.219,26.367,15.137,40.527,40.039,-4.883,0
1506375089.223,30.762,19.531,35.645,40.039,-6.836,0
1506375089.227,30.273,22.461,33.691,32.715,-8.301,0
1506375089.231,36.621,15.625,41.504,36.133,0.977,0
1506375089.235,35.645,7.324,50.293,39.551,-1.465,0
1506375089.239,28.809,12.695,46.875,34.668,-19.043,0
1506375089.243,23.438,26.367,38.086,27.344,-0.488,0
1506375089.246,24.902,15.625,34.180,27.344,9.277,0
1506375089.250,17.578,13.184,27.344,30.762,2.441,0
1506375089.254,17.090,15.625,29.785,25.391,-11.230,0
1506375089.258,20.508,16.602,32.715,18.555,8.789,0
1506375089.262,16.602,17.090,38.086,23.926,19.043,0
1506375089.266,16.602,11.230,38.086,25.879,-12.695,0
1506375089.270,8.789,13.184,28.809,22.949,-45.898,0
1506375089.274,9.277,23.438,27.344,22.949,-18.066,5
1506375089.278,13.672,21.973,27.832,27.344,22.461,0
1506375089.282,17.578,6.836,34.180,30.273,0.000,0
1506375089.285,20.508,20.996,44.922,28.320,4.883,0
1506375089.289,16.602,34.668,38.086,26.367,43.945,0
1506375089.293,25.391,20.020,28.320,24.902,37.109,0
1506375089.297,29.785,18.066,27.344,26.367,-8.301,0
1506375089.301,32.715,34.180,35.156,33.203,6.348,0
1506375089.305,37.598,24.902,34.180,29.785,39.551,0
1506375089.309,38.086,7.324,26.855,27.344,20.020,0
1506375089.313,56.152,14.160,20.020,29.785,11.719,0
1506375089.317,66.895,23.438,23.438,29.785,27.832,0
1506375089.321,56.641,25.879,21.484,30.762,47.852,0
1506375089.325,39.551,22.461,16.602,26.367,35.156,0
1506375089.328,30.273,23.438,29.297,31.738,18.066,0
1506375089.332,28.809,29.297,32.227,36.621,-12.207,0
1506375089.336,26.855,39.551,33.691,34.180,2.441,0
1506375089.340,34.180,24.414,35.156,38.086,29.785,0
1506375089.344,23.926,18.555,28.320,34.668,20.020,0
1506375089.348,12.695,35.156,32.715,31.250,22.949,0
1506375089.352,18.066,29.297,41.016,38.086,18.066,0
1506375089.356,19.043,20.508,35.156,34.668,34.180,0
1506375089.360,10.254,23.926,27.832,23.926,21.484,0
1506375089.364,15.137,27.344,32.227,23.438,23.926,0
1506375089.368,38.086,22.949,32.715,31.738,41.016,0
1506375089.371,40.527,25.391,29.297,36.621,30.762,0
1506375089.375,30.762,25.879,27.344,29.785,57.617,0
1506375089.379,26.855,28.809,24.902,24.902,58.105,0
1506375089.383,27.832,25.391,24.414,29.785,29.785,0
1506375089.387,27.832,14.648,21.973,28.809,21.484,0
1506375089.391,29.785,36.133,20.020,27.832,24.414,0
1506375089.395,33.203,42.480,19.043,29.785,36.621,0
1506375089.399,33.203,19.043,26.855,26.855,19.531,0
1506375089.403,27.344,16.113,37.598,24.902,38.574,0
1506375089.407,13.184,27.832,39.551,23.926,26.855,0
1506375089.410,14.648,23.926,34.180,22.461,5.371,0
1506375089.414,24.414,23.438,37.598,20.508,20.996,0
1506375089.418,31.738,22.949,42.480,24.902,30.273,0
1506375089.422,26.855,17.578,36.133,28.320,46.387,0
1506375089.426,14.648,22.949,37.109,22.461,44.922,0
1506375089.430,17.090,15.137,34.180,24.902,16.602,0
1506375089.434,19.531,20.020,35.156,30.762,-1.953,0
1506375089.438,20.020,33.203,38.574,28.320,28.809,0
1506375089.442,27.832,17.090,37.109,26.367,26.367,0
1506375089.446,27.344,23.438,35.645,28.320,14.648,0
1506375089.450,27.832,32.715,36.133,31.250,26.855,0
1506375089.453,40.527,33.691,44.434,39.062,47.852,0
1506375089.457,43.457,27.832,48.340,35.156,49.805,0
1506375089.461,40.527,27.344,39.062,25.879,43.945,0
1506375089.465,32.227,35.156,28.320,26.855,63.477,0
1506375089.469,24.902,26.367,28.320,31.738,58.105,0
1506375089.473,26.855,24.414,28.809,32.715,14.160,0
1506375089.477,29.297,29.785,36.621,34.668,2.441,0
1506375089.481,23.926,43.945,42.969,29.297,45.410,0
1506375089.485,9.277,45.898,36.621,24.414,48.340,0
1506375089.489,8.789,35.156,36.621,27.344,34.668,0
1506375089.493,21.973,33.691,37.598,29.297,39.062,0
1506375089.496,21.484,41.992,36.621,27.344,44.434,0
1506375089.500,16.113,37.598,27.344,31.250,44.434,0
1506375089.504,28.809,26.855,25.391,39.551,17.090,0
1506375089.508,43.457,38.086,38.086,42.969,16.113,0
1506375089.512,44.922,48.828,39.551,42.969,44.434,0
1506375089.516,41.992,38.086,39.551,40.039,63.477,0
1506375089.520,30.273,22.949,36.621,38.574,23.438,0
1506375089.524,30.273,34.668,33.203,40.039,-11.719,0
1506375089.528,26.855,46.875,40.039,37.109,5.859,0
1506375089.532,25.391,32.227,44.434,36.133,13.672,0
1506375089.535,23.438,30.273,36.133,34.180,29.785,0
1506375089.539,25.879,31.250,28.809,31.250,36.621,0
1506375089.543,33.691,34.180,32.715,32.715,23.438,0
1506375089.547,28.320,33.203,35.645,38.086,10.254,0
1506375089.551,27.344,37.109,41.016,43.457,13.672,0
1506375089.555,28.320,41.016,42.969,41.992,29.785,0
1506375089.559,28.320,28.809,30.762,33.691,41.504,0
1506375089.563,25.879,21.973,31.738,33.203,26.367,0
1506375089.567,33.203,19.531,36.621,37.598,-4.883,0
1506375089.571,28.320,31.250,26.855,32.715,-2.930,0
1506375089.575,28.320,41.992,28.809,34.180,29.785,0
1506375089.578,34.180,22.461,40.039,43.457,30.762,0
1506375089.582,32.715,21.973,43.945,42.480,22.461,0
1506375089.586,35.156,35.156,36.133,39.551,30.273,0
1506375089.590,31.250,28.320,33.691,37.598,42.480,0
1506375089.594,33.203,25.879,33.691,35.645,34.668,0
1506375089.598,33.691,26.367,33.691,32.227,29.785,0
1506375089.602,24.902,29.297,32.715,27.344,28.809,0
1506375089.606,14.160,21.973,32.715,21.973,43.457,0
1506375089.610,15.625,5.859,28.809,22.461,25.879,0
1506375089.614,22.949,19.531,33.203,23.926,5.859,0
1506375089.618,23.438,33.691,37.109,18.066,54.688,0
1506375089.621,31.250,26.367,36.621,25.879,61.523,0
1506375089.625,30.762,14.160,29.785,29.785,15.625,0
1506375089.629,34.180,25.879,29.297,33.203,7.324,0
1506375089.633,44.434,40.527,37.109,43.457,52.734,0
1506375089.637,41.504,26.367,40.039,43.945,46.387,0
1506375089.641,37.109,23.926,39.062,38.574,42.969,0
1506375089.645,31.738,27.832,32.715,38.086,52.246,0
1506375089.649,29.785,27.344,29.785,38.574,61.523,0
1506375089.653,31.250,20.996,33.691,36.133,66.406,0
1506375089.657,26.367,15.137,29.297,34.180,56.641,0
1506375089.660,19.531,19.531,23.926,28.320,37.598,0
1506375089.664,18.555,30.762,26.855,25.879,38.574,0
1506375089.668,13.672,21.973,38.086,28.809,38.574,0
1506375089.672,19.043,20.020,31.250,28.320,8.301,0
1506375089.676,24.902,37.598,24.902,28.809,34.668,0
1506375089.680,23.926,26.367,39.062,28.320,79.102,0
1506375089.684,34.180,9.277,40.039,26.855,43.945,0
1506375089.688,41.016,23.926,35.156,31.250,21.484,0
1506375089.692,35.645,36.133,37.109,33.691,57.129,0
1506375089.696,20.996,22.949,37.598,30.273,44.434,0
1506375089.700,9.766,18.555,39.062,30.273,24.902,0
1506375089.703,13.672,15.625,42.480,35.156,14.648,0
1506375089.707,20.508,22.461,47.852,37.109,34.180,0
1506375089.711,19.531,32.715,44.922,31.738,30.762,0
1506375089.715,21.973,18.066,36.133,27.344,10.254,0
1506375089.719,30.273,26.367,38.086,30.762,20.020,0
1506375089.723,30.762,50.293,41.992,34.180,29.297,0
1506375089.727,29.297,35.156,39.551,25.391,44.434,0
1506375089.731,27.344,24.414,34.180,17.090,35.156,0
1506375089.735,28.320,32.715,37.598,16.113,14.160,0
1506375089.739,27.344,26.855,37.109,13.672,32.715,0
1506375089.743,20.508,23.438,31.738,14.160,39.551,0
1506375089.746,29.785,30.762,33.691,19.043,39.551,0
1506375089.750,33.203,31.250,27.832,20.020,12.207,0
1506375089.754,30.762,37.109,27.344,20.508,28.809,0
1506375089.758,25.391,32.715,36.621,29.297,49.316,0
1506375089.762,20.508,23.438,33.203,34.668,-9.277,0
1506375089.766,18.555,42.969,36.133,34.668,-23.926,0
1506375089.770,16.602,46.387,38.086,39.551,25.879,0
1506375089.774,13.672,23.438,30.273,40.527,23.438,0
1506375089.778,12.207,23.438,29.297,34.180,21.973,0
1506375089.782,17.578,39.551,33.691,30.273,39.062,0
1506375089.785,19.531,37.598,34.180,33.691,40.039,0
1506375089.789,21.484,30.762,25.879,34.668,47.852,0
1506375089.793,28.320,29.785,25.879,23.438,46.387,0
1506375089.797,24.902,22.461,28.320,20.020,34.668,0
1506375089.801,20.020,28.320,22.949,20.996,46.387,0
1506375089.805,21.484,16.602,24.902,19.043,23.438,0
1506375089.809,33.691,23.438,27.832,27.344,-18.066,0
1506375089.813,36.621,45.410,29.785,33.203,7.812,0
1506375089.817,36.621,34.180,35.645,38.086,51.270,0
1506375089.821,41.504,17.578,39.551,38.574,45.898,0
1506375089.825,40.039,21.484,33.691,32.227,11.230,0
1506375089.828,29.785,29.785,28.320,34.668,-2.930,0
1506375089.832,17.090,19.043,34.668,33.691,20.996,0
1506375089.836,10.254,20.020,31.738,23.926,60.059,0
1506375089.840,8.789,28.320,26.367,18.555,65.430,0
1506375089.844,14.160,22.949,25.879,19.043,59.082,0
1506375089.848,17.578,21.484,27.832,19.531,67.383,0
1506375089.852,17.578,12.207,28.320,22.461,24.902,0
1506375089.856,18.066,26.855,33.203,25.879,-2.930,0
1506375089.860,9.277,38.086,33.203,27.832,37.109,0
1506375089.864,8.301,19.043,31.738,31.250,20.996,0
1506375089.868,9.766,17.578,32.715,26.855,-14.648,0
1506375089.871,21.484,30.762,34.180,28.320,26.367,0
1506375089.875,41.992,29.297,40.039,36.621,67.383,0
1506375089.879,42.480,26.367,37.598,36.621,42.969,0
1506375089.883,26.367,35.645,32.715,28.320,26.367,0
1506375089.887,21.973,39.062,31.250,33.691,39.062,0
1506375089.891,29.297,34.180,33.691,45.410,21.484,0
1506375089.895,21.973,22.461,40.039,46.387,-5.859,0
1506375089.899,20.996,33.691,35.645,43.457,-34.668,0
1506375089.903,8.789,53.223,31.250,34.180,0.488,0
1506375089.907,7.812,38.086,36.621,27.344,39.551,0
1506375089.910,17.090,28.809,38.086,26.855,7.324,0
1506375089.914,12.207,29.297,29.297,21.484,-3.418,0
1506375089.918,9.277,35.156,31.250,26.367,7.324,0
1506375089.922,17.090,36.621,37.598,36.621,23.438,0
1506375089.926,18.555,31.738,33.203,40.039,15.137,0
1506375089.930,23.926,42.969,30.762,39.551,11.719,0
1506375089.934,29.785,37.598,29.785,35.156,16.602,0
1506375089.938,21.484,20.996,26.367,30.762,27.344,0
1506375089.942,27.832,18.555,20.508,33.203,3.418,0
1506375089.946,36.133,32.715,19.043,32.227,-19.531,0
1506375089.950,32.715,39.062,27.832,29.785,29.297,0
1506375089.953,33.203,20.508,36.621,30.273,32.227,0
1506375089.957,29.785,14.160,28.809,25.391,12.207,0
1506375089.961,23.438,19.531,28.320,24.414,28.320,0
1506375089.965,21.484,17.578,29.297,28.320,31.738,0
1506375089.969,23.438,17.578,28.320,34.180,19.043,0
1506375089.973,19.043,20.508,29.297,33.203,41.992,0
1506375089.977,10.254,20.020,31.250,24.902,47.852,0
1506375089.981,13.184,20.508,34.668,26.855,19.531,0
1506375089.985,16.602,12.207,23.926,31.250,12.207,0
1506375089.989,21.973,20.996,28.320,33.203,-10.254,0
1506375089.993,25.879,41.992,41.992,30.762,32.227,0
1506375089.996,25.879,37.109,41.504,26.367,46.875,0
1506375090.000,22.461,24.902,44.434,31.250,15.137,0
1506375090.004,14.648,34.668,46.875,34.180,16.113,0
1506375090.008,12.695,41.504,47.852,34.668,28.809,0
1506375090.012,16.113,30.273,46.387,36.621,46.875,0
1506375090.016,18.066,30.273,50.293,35.645,35.645,0
1506375090.020,20.996,33.203,41.992,36.621,7.812,0
1506375090.024,24.902,35.156,28.809,39.062,33.203,0
1506375090.028,26.367,29.785,41.992,46.387,61.523,0
1506375090.032,32.227,26.367,43.457,53.223,48.340,0
1506375090.035,36.133,26.855,37.598,53.223,57.129,0
1506375090.039,28.809,30.762,36.133,53.711,46.875,0
1506375090.043,26.855,34.668,40.039,50.781,47.852,0
1506375090.047,30.762,24.902,41.504,47.363,33.691,0
1506375090.051,33.203,43.457,40.039,45.898,0.977,0
1506375090.055,31.250,48.828,39.551,41.504,29.785,0
1506375090.059,23.926,28.320,36.621,40.039,46.875,0
1506375090.063,20.996,28.320,35.156,38.086,37.109,0
1506375090.067,22.949,48.340,35.156,34.180,17.578,0
1506375090.071,31.250,40.527,40.527,31.738,22.461,0
1506375090.075,33.691,27.832,35.645,34.180,11.719,0
1506375090.078,29.785,28.320,28.320,28.320,-9.766,0
1506375090.082,41.016,38.574,39.062,30.762,5.371,0
1506375090.086,40.527,43.457,46.875,46.387,38.086,0
1506375090.090,32.715,19.531,44.434,44.922,38.086,0
1506375090.094,23.438,10.742,43.457,38.086,-5.371,0
1506375090.098,16.602,32.715,44.434,31.738,-0.488,0
1506375090.102,24.414,30.762,44.922,27.344,48.828,0
1506375090.106,20.996,16.113,45.410,28.809,24.414,0
1506375090.110,8.789,24.902,44.434,23.438,-3.906,0
1506375090.114,12.695,29.785,38.086,17.578,43.457,0
1506375090.118,21.484,19.531,42.480,23.926,44.922,0
1506375090.121,17.578,16.602,43.945,30.273,0.000,0
1506375090.125,19.531,18.555,36.133,24.414,-8.301,0
1506375090.129,30.273,25.391,39.062,16.602,27.344,0
1506375090.133,47.363,31.738,43.945,22.949,50.293,0
1506375090.137,54.688,21.484,50.293,37.109,10.254,0
1506375090.141,38.574,32.227,47.363,36.133,7.812,0
1506375090.145,31.738,39.551,42.480,30.762,14.648,0
1506375090.149,32.715,29.785,44.434,37.598,28.809,0
1506375090.153,17.578,25.391,51.270,41.504,54.688,0
1506375090.157,2.930,29.785,53.223,38.086,37.109,0
1506375090.160,-8.301,35.645,49.316,32.227,65.918,0
1506375090.164,1.953,22.949,48.340,36.133,24.414,0
1506375090.168,13.672,19.043,49.805,34.180,6.348,0
1506375090.172,14.160,25.879,44.922,24.414,63.477,0
1506375090.176,19.531,40.039,31.738,28.809,50.781,0
1506375090.180,25.391,27.832,30.273,33.203,22.949,0
1506375090.184,32.715,27.832,37.598,38.574,0.000,0
1506375090.188,31.250,46.387,38.086,40.039,25.391,0
1506375090.192,23.926,30.273,27.832,37.109,53.711,0
1506375090.196,25.879,28.809,20.020,37.109,46.875,0
1506375090.200,39.062,30.762,27.344,28.809,35.645,0
1506375090.203,45.898,24.414,29.297,22.461,33.691,0
1506375090.207,42.969,20.996,27.832,21.973,36.621,0
1506375090.211,25.879,22.949,30.762,30.273,46.387,0
1506375090.215,7.812,28.809,37.109,40.039,51.270,0
1506375090.219,1.465,24.902,35.156,32.715,22.461,0
1506375090.223,10.254,28.320,30.273,32.227,35.645,0
1506375090.227,15.137,24.414,25.391,28.320,22.461,0
1506375090.231,17.578,37.598,26.367,22.949,6.348,0
1506375090.235,25.879,51.270,28.320,32.227,17.090,0
1506375090.239,21.973,29.785,26.367,34.668,10.742,0
1506375090.243,30.273,25.391,34.668,34.180,29.297,0
1506375090.246,44.922,46.875,40.527,40.039,33.203,0
1506375090.250,35.645,39.551,34.668,35.645,37.109,0
1506375090.254,33.691,28.809,30.273,35.645,36.133,0
1506375090.258,40.039,37.598,39.062,41.504,27.344,0
1506375090.262,49.316,39.062,48.828,44.434,36.133,0
1506375090.266,53.223,37.109,49.316,41.504,31.250,0
1506375090.270,44.434,28.809,48.340,40.527,24.902,0
1506375090.274,48.828,36.621,49.805,44.922,22.461,0
1506375090.278,59.570,63.477,49.805,45.410,54.199,0
1506375090.282,52.246,50.781,37.598,43.945,51.270,0
1506375090.285,49.805,35.156,47.852,50.293,10.254,0
1506375090.289,42.480,39.551,49.316,46.387,24.414,0
1506375090.293,36.133,45.898,37.109,39.551,40.039,0
1506375090.297,41.504,39.062,37.598,40.039,51.270,0
1506375090.301,32.227,31.250,36.133,33.203,12.695,0
1506375090.305,17.090,36.621,36.621,26.855,24.902,0
1506375090.309,14.648,31.738,38.086,25.879,68.848,0
1506375090.313,19.531,23.926,39.062,25.391,37.109,0
1506375090.317,17.578,23.438,41.992,26.367,15.137,0
1506375090.321,19.531,35.645,38.574,22.949,11.230,0
1506375090.325,21.973,40.039,37.109,23.438,38.574,0
1506375090.328,20.020,21.484,25.879,22.461,24.414,0
1506375090.332,21.484,21.973,21.973,18.555,16.113,0
1506375090.336,21.484,35.645,26.367,15.137,49.316,0
1506375090.340,20.508,32.227,20.020,19.043,52.734,0
1506375090.344,23.438,12.695,28.320,21.484,24.902,0
1506375090.348,20.020,13.672,28.320,17.578,16.113,0
1506375090.352,19.531,32.715,28.320,20.508,45.410,0
1506375090.356,40.039,24.902,37.598,29.785,30.762,0
1506375090.360,45.410,9.277,41.016,35.645,7.812,0
1506375090.364,36.621,16.602,40.039,34.668,27.832,0
1506375090.368,27.832,30.762,39.062,38.086,14.648,0
1506375090.371,16.602,21.973,39.551,41.016,20.020,0
1506375090.375,12.207,14.648,33.691,40.039,-9.277,0
1506375090.379,20.996,20.508,36.621,43.945,-16.602,0
1506375090.383,22.461,23.438,37.598,41.504,29.785,0
1506375090.387,25.879,19.043,26.855,35.645,25.391,0
1506375090.391,26.855,18.555,27.832,29.297,18.555,0
1506375090.395,31.250,26.855,38.574,28.320,37.598,0
1506375090.399,45.410,26.367,35.645,32.227,45.410,0
1506375090.403,54.688,24.902,32.715,29.785,44.922,0
1506375090.407,52.734,11.230,36.133,31.738,37.109,0
1506375090.410,28.809,20.996,29.297,30.273,41.504,0
1506375090.414,19.531,35.645,26.367,30.762,41.504,0
1506375090.418,27.344,21.484,38.086,40.039,49.316,0
1506375090.422,29.297,20.996,31.738,33.203,29.297,0
1506375090.426,22.949,37.598,34.180,27.344,12.695,0
1506375090.430,17.578,32.715,40.039,24.902,21.973,0
1506375090.434,19.043,19.531,35.156,20.020,11.230,0
1506375090.438,17.578,19.531,37.109,25.879,9.766,0
1506375090.442,20.020,24.414,29.297,27.344,15.137,0
1506375090.446,20.508,25.391,20.996,23.438,25.879,0
1506375090.450,17.578,23.438,19.531,28.320,18.555,0
1506375090.453,17.090,22.949,27.832,37.109,4.883,0
1506375090.457,15.625,25.391,27.832,38.574,21.973,0
1506375090.461,19.043,29.785,20.020,34.668,25.391,0
1506375090.465,24.902,14.648,25.391,35.156,-11.719,0
1506375090.469,20.508,17.090,24.414,32.227,-30.273,0
1506375090.473,18.555,39.551,17.578,23.926,16.602,0
1506375090.477,37.109,33.691,22.949,28.320,37.109,0
1506375090.481,42.969,23.438,23.438,34.668,12.207,0
1506375090.485,33.203,33.203,20.508,32.715,37.598,0
1506375090.489,37.109,40.527,22.949,34.668,59.570,0
1506375090.493,41.992,26.367,21.484,32.715,44.922,0
1506375090.496,36.621,21.484,18.555,25.879,56.641,0
1506375090.500,26.367,24.902,15.625,22.461,49.805,0
1506375090.504,20.020,29.297,19.043,19.531,59.082,0
1506375090.508,35.645,24.902,27.832,26.367,61.523,0
1506375090.512,48.828,13.184,21.973,33.203,6.836,0
1506375090.516,29.785,27.832,17.090,22.461,8.301,0
1506375090.520,20.996,35.156,23.438,20.020,58.105,0
1506375090.524,27.344,9.766,19.531,21.484,45.410,0
1506375090.528,28.320,9.766,15.625,20.996,16.602,0
1506375090.532,28.320,25.879,16.113,16.113,21.973,0
1506375090.535,32.227,18.066,11.719,20.020,61.035,0
1506375090.539,30.762,14.648,13.184,23.438,42.969,0
1506375090.543,33.203,19.531,20.020,20.508,29.297,0
1506375090.547,36.621,10.742,21.484,19.531,35.156,0
1506375090.551,37.598,15.137,18.555,20.020,32.227,0
1506375090.555,47.363,4.883,22.949,20.996,20.020,0
1506375090.559,46.387,7.324,26.367,24.414,-13.672,0
1506375090.563,23.438,29.297,26.367,22.949,36.621,0
1506375090.567,11.230,9.277,35.156,28.320,41.504,0
1506375090.571,14.648,14.160,33.203,30.273,5.859,0
1506375090.575,19.531,31.250,25.879,26.367,34.668,0
1506375090.578,14.648,23.438,36.621,32.715,61.035,0
1506375090.582,8.789,13.672,36.133,39.062,57.617,0
1506375090.586,13.184,17.578,31.738,41.504,35.156,0
1506375090.590,13.672,30.273,43.945,45.898,33.203,0
1506375090.594,16.113,24.414,50.293,47.363,47.363,0
1506375090.598,20.020,25.391,50.781,41.992,47.852,0
1506375090.602,25.391,32.715,44.922,39.062,41.992,0
1506375090.606,26.367,34.180,36.621,35.645,27.344,0
1506375090.610,27.344,36.133,31.738,32.227,57.129,0
1506375090.614,25.879,23.438,25.391,33.691,52.734,0
1506375090.618,28.809,16.113,30.762,34.668,-1.953,0
1506375090.621,27.344,40.039,33.691,31.250,26.367,0
1506375090.625,17.090,35.645,27.344,32.715,81.055,0
1506375090.629,17.578,19.531,27.832,31.738,72.266,0
1506375090.633,26.367,28.320,34.668,33.691,38.574,0
1506375090.637,29.785,25.879,29.297,32.227,40.527,0
1506375090.641,38.086,22.461,29.785,34.668,55.664,0
1506375090.645,42.969,20.508,33.691,34.668,64.453,0
1506375090.649,35.645,20.508,24.414,32.715,18.066,0
1506375090.653,23.926,36.133,21.484,29.297,-0.488,0
1506375090.657,20.508,32.227,34.180,29.297,12.207,0
1506375090.660,25.879,19.531,35.645,29.785,24.902,0
1506375090.664,30.762,24.902,25.391,24.902,43.457,0
1506375090.668,36.133,37.598,23.926,28.320,36.133,0
1506375090.672,30.273,29.785,24.414,33.203,27.344,0
1506375090.676,26.367,25.391,23.926,33.203,-5.859,0
1506375090.680,30.762,36.133,31.250,40.527,-2.441,0
1506375090.684,15.137,28.809,28.809,46.875,22.461,0
1506375090.688,16.113,15.625,25.391,47.363,2.441,0
1506375090.692,23.926,11.230,34.668,47.852,-19.531,0
1506375090.696,17.090,28.809,42.480,44.922,-9.277,0
1506375090.700,20.508,40.039,29.297,41.504,7.812,0
1506375090.703,21.484,16.602,23.926,33.203,-9.277,0
1506375090.707,24.414,20.020,29.785,37.598,-26.855,0
1506375090.711,31.738,34.668,32.715,35.156,4.883,0
1506375090.715,39.551,24.902,40.039,30.273,24.414,0
1506375090.719,46.875,16.602,37.109,35.156,1.953,0
1506375090.723,43.945,20.508,40.527,38.086,9.277,0
1506375090.727,37.109,28.320,43.945,38.574,12.695,0
1506375090.731,28.809,26.367,46.875,36.133,-4.883,0
1506375090.735,22.461,9.277,38.574,34.668,4.883,0
1506375090.739,23.438,22.949,27.832,36.133,-12.207,0
1506375090.743,25.879,46.387,40.527,39.062,6.836,0
1506375090.746,24.902,34.668,44.922,37.598,33.691,0
1506375090.750,16.602,18.555,40.039,32.715,2.930,0
1506375090.754,20.508,20.020,38.086,32.227,-14.160,0
1506375090.758,24.902,27.344,37.109,29.785,19.043,0
1506375090.762,18.066,16.602,40.527,28.320,34.180,0
1506375090.766,21.484,20.508,43.945,33.691,33.691,0
1506375090.770,30.762,28.809,43.945,37.109,12.695,0
1506375090.774,24.902,32.227,32.715,32.227,5.859,0
1506375090.778,24.902,26.855,27.832,32.715,16.602,0
1506375090.782,28.809,17.090,39.551,37.109,-19.043,0
1506375090.785,28.320,23.438,43.945,36.621,-15.137,0
1506375090.789,21.973,34.180,42.480,40.039,2.930,0
1506375090.793,19.531,22.461,28.320,40.527,0.488,0
1506375090.797,29.297,14.160,20.020,43.945,-32.227,0
1506375090.801,36.133,33.203,35.156,48.828,-40.039,0
1506375090.805,40.527,35.156,35.645,47.363,0.977,0
1506375090.809,43.457,15.625,30.273,44.434,1.953,0
1506375090.813,46.875,17.578,38.086,41.016,2.930,0
1506375090.817,46.387,37.109,47.363,43.945,12.695,0
1506375090.821,46.875,32.227,40.527,43.457,25.879,0
1506375090.825,48.340,20.020,33.203,41.016,27.344,0
1506375090.828,36.133,15.625,32.715,39.062,11.230,0
1506375090.832,25.879,23.438,33.691,39.551,2.930,0
1506375090.836,31.738,33.203,23.926,42.480,2.930,0
1506375090.840,40.039,18.066,16.602,28.320,13.672,0
1506375090.844,44.922,17.578,27.832,19.531,-8.301,0
1506375090.848,58.594,44.434,28.320,29.297,-9.277,0
1506375090.852,56.152,36.133,21.484,30.273,11.230,0
1506375090.856,41.504,33.691,35.645,33.203,12.695,0
1506375090.860,22.461,38.574,41.016,46.875,22.949,0
1506375090.864,12.695,29.297,30.762,53.223,24.414,0
1506375090.868,16.602,23.926,33.203,50.293,-19.531,0
1506375090.871,23.438,27.344,35.645,49.805,-15.625,0
1506375090.875,21.973,24.902,33.203,49.316,-10.254,0
1506375090.879,16.602,29.785,27.344,43.945,-6.836,0
1506375090.883,22.461,30.273,21.484,35.645,1.465,0
1506375090.887,34.180,16.602,22.461,27.344,-23.438,0
1506375090.891,40.039,35.645,24.902,25.391,-6.348,0
1506375090.895,48.828,47.363,29.785,35.645,46.875,0
1506375090.899,42.969,20.996,23.438,28.320,49.316,0
1506375090.903,37.598,20.508,17.090,20.020,24.902,0
1506375090.907,43.457,27.832,24.414,31.250,3.906,0
1506375090.910,47.363,22.461,31.738,35.156,12.695,0
1506375090.914,56.641,22.461,33.203,27.832,29.785,0
1506375090.918,66.895,22.949,34.180,25.391,33.203,0
1506375090.922,69.336,27.344,41.992,34.668,12.207,0
1506375090.926,57.129,31.250,42.480,36.621,17.090,0
1506375090.930,45.898,20.996,38.086,34.180,11.719,0
1506375090.934,31.250,28.809,41.504,40.527,-9.766,0
1506375090.938,24.902,43.457,42.480,42.480,26.367,0
1506375090.942,29.785,33.691,35.156,36.621,24.414,0
1506375090.946,38.574,30.762,35.645,34.180,13.672,0
1506375090.950,38.086,40.527,49.805,37.598,20.020,0
1506375090.953,36.621,42.969,50.781,39.062,30.273,0
1506375090.957,43.945,27.832,44.434,39.551,38.086,0
1506375090.961,41.016,22.949,41.504,39.551,31.250,0
1506375090.965,48.828,28.320,42.480,40.039,22.949,0
1506375090.969,54.688,26.855,41.016,36.621,36.133,0
1506375090.973,59.570,26.367,40.527,33.203,35.645,0
1506375090.977,65.918,18.555,48.828,34.180,14.160,0
1506375090.981,55.664,25.879,39.062,31.738,12.695,0
1506375090.985,44.922,39.551,38.574,32.715,35.156,0
1506375090.989,37.598,25.391,45.410,37.598,22.949,0
1506375090.993,34.668,19.043,43.945,35.645,13.184,0
1506375090.996,36.621,38.574,53.223,35.156,23.438,0
1506375091.000,32.715,36.133,49.805,38.086,33.203,0
1506375091.004,33.691,25.391,47.363,40.039,24.902,0
1506375091.008,40.039,33.203,34.180,31.250,16.602,0
1506375091.012,42.480,37.109,37.109,28.809,39.062,0
1506375091.016,55.664,28.320,52.246,38.086,34.668,0
1506375091.020,65.918,20.020,51.758,39.062,19.043,0
1506375091.024,60.547,29.785,48.340,34.180,-4.395,0
1506375091.028,44.922,46.387,34.668,26.855,23.926,0
1506375091.032,29.785,28.320,34.668,27.344,35.645,0
1506375091.035,19.043,25.879,36.133,28.320,20.508,0
1506375091.039,14.648,29.785,30.273,31.250,25.879,0
1506375091.043,18.066,32.715,29.297,36.133,22.949,0
1506375091.047,25.879,36.621,38.086,35.645,25.879,0
1506375091.051,35.156,32.227,47.852,40.039,-2.930,0
1506375091.055,47.363,40.039,41.992,42.480,10.254,0
1506375091.059,51.270,38.086,36.133,35.645,38.086,0
1506375091.063,44.434,27.344,34.668,31.250,29.297,0
1506375091.067,39.551,19.531,29.297,22.461,-20.508,0
1506375091.071,39.551,41.016,35.645,20.508,-25.879,0
1506375091.075,30.762,44.922,35.156,23.438,21.973,0
1506375091.078,31.250,21.484,40.527,19.043,19.531,0
1506375091.082,32.227,24.902,46.387,21.484,4.395,0
1506375091.086,25.879,35.156,45.410,26.855,20.508,0
1506375091.090,22.461,24.902,49.805,19.531,25.391,0
1506375091.094,29.785,17.090,36.133,14.648,31.738,0
1506375091.098,33.691,15.137,28.320,17.090,37.109,0
1506375091.102,36.621,21.973,35.645,23.926,26.855,0
1506375091.106,54.688,34.180,40.039,32.227,29.785,0
1506375091.110,51.758,15.137,41.992,33.203,-13.672,0
1506375091.114,30.273,18.066,31.738,31.250,-31.250,0
1506375091.118,20.020,41.504,28.809,25.879,1.465,0
1506375091.121,26.855,36.133,34.668,28.320,29.785,0
1506375091.125,29.297,17.578,30.762,28.320,20.996,0
1506375091.129,27.344,20.508,30.273,21.484,22.461,0
1506375091.133,26.367,35.156,27.344,20.020,41.992,0
1506375091.137,32.715,25.879,24.902,21.973,47.852,0
1506375091.141,45.410,24.414,34.668,28.809,62.988,0
1506375091.145,42.480,25.391,35.645,30.762,38.574,0
1506375091.149,29.297,29.785,30.762,23.926,28.809,0
1506375091.153,30.273,30.273,37.109,29.297,67.383,0
1506375091.157,33.691,17.578,42.480,32.715,70.312,0
1506375091.160,27.832,16.602,30.762,22.949,32.227,0
1506375091.164,29.785,31.250,27.832,19.531,31.250,0
1506375091.168,33.691,27.344,39.551,26.367,60.059,0
1506375091.172,37.598,12.695,39.062,32.715,11.719,0
1506375091.176,40.527,33.691,32.227,30.273,0.488,0
1506375091.180,32.227,36.133,35.645,26.367,30.762,0
1506375091.184,24.902,13.672,39.062,30.273,21.973,0
1506375091.188,30.273,21.973,29.785,33.203,21.484,0
1506375091.192,38.086,42.969,31.738,33.203,44.434,0
1506375091.196,40.039,33.691,26.855,28.809,50.293,0
1506375091.200,52.734,21.973,20.020,22.461,27.832,0
1506375091.203,52.734,22.949,15.137,16.113,23.438,0
1506375091.207,45.898,27.832,17.578,23.438,58.594,0
1506375091.211,32.715,28.809,30.762,31.738,68.359,0
1506375091.215,16.602,14.160,31.250,32.227,55.664,0
1506375091.219,11.230,16.602,24.902,30.762,22.949,0
1506375091.223,7.812,35.645,28.320,24.414,29.785,0
1506375091.227,15.625,16.602,36.133,22.949,25.391,0
1506375091.231,16.602,9.277,22.461,17.090,-7.812,0
1506375091.235,18.066,30.273,27.344,17.578,13.672,0
1506375091.239,32.227,28.320,40.039,22.949,64.453,0
1506375091.243,45.410,11.230,31.738,20.508,61.035,0
1506375091.246,33.203,13.672,28.809,18.555,24.902,0
1506375091.250,16.113,17.578,29.297,20.996,15.137,0
1506375091.254,21.484,27.832,29.785,24.902,41.992,0
1506375091.258,22.461,28.809,24.414,24.902,72.754,0
1506375091.262,19.531,10.742,27.832,26.855,22.461,0
1506375091.266,18.555,28.320,32.715,28.320,21.484,0
1506375091.270,23.926,35.156,38.574,28.320,57.617,0
1506375091.274,36.621,20.996,37.109,29.297,32.715,0
1506375091.278,44.434,21.973,35.156,31.738,32.227,0
1506375091.282,41.016,31.738,36.133,26.367,42.969,0
1506375091.285,29.785,31.250,21.973,22.949,61.523,0
1506375091.289,22.461,12.695,15.625,20.508,42.480,0
1506375091.293,18.555,9.766,23.926,21.973,21.484,0
1506375091.297,22.461,18.555,20.508,33.691,34.668,0
1506375091.301,24.414,17.578,20.996,32.715,42.480,0
1506375091.305,22.949,3.418,25.391,23.926,0.488,0
1506375091.309,20.508,16.113,30.273,29.297,2.441,0
1506375091.313,20.020,41.992,35.645,37.598,51.758,0
1506375091.317,25.879,28.320,34.180,33.203,53.711,0
1506375091.321,30.762,16.602,38.574,25.391,48.340,0
1506375091.325,40.527,26.367,33.691,21.973,47.363,0
1506375091.328,39.551,34.180,37.109,22.949,60.059,0
1506375091.332,25.879,25.391,44.434,31.250,76.172,0
1506375091.336,13.184,16.602,35.156,33.203,29.785,0
1506375091.340,5.859,22.949,29.785,24.902,9.766,0
1506375091.344,5.859,25.879,36.133,26.855,22.461,0
1506375091.348,12.695,24.414,38.086,29.785,15.625,0
1506375091.352,18.555,14.160,30.273,23.926,-22.461,0
1506375091.356,20.508,32.227,29.785,21.973,-22.949,0
1506375091.360,29.785,52.246,36.621,23.438,34.180,0
1506375091.364,41.504,26.367,46.387,30.762,0.488,0
1506375091.368,40.039,21.484,41.992,31.738,-20.508,0
1506375091.371,36.133,40.039,27.344,15.625,6.348,0
1506375091.375,39.551,38.574,26.367,18.066,52.734,0
1506375091.379,37.598,32.227,32.227,32.715,31.738,0
1506375091.383,39.062,38.086,36.621,29.785,0.000,0
1506375091.387,35.645,34.668,39.062,23.438,6.836,0
1506375091.391,37.109,30.273,35.156,21.973,16.602,0
1506375091.395,46.387,26.367,29.297,27.344,27.344,0
1506375091.399,37.109,26.855,36.621,26.855,9.766,0
1506375091.403,31.250,45.898,33.691,30.762,19.043,0
1506375091.407,39.551,40.039,27.344,41.992,23.438,0
1506375091.410,42.480,27.344,25.879,41.992,-3.906,0
1506375091.414,38.086,30.762,29.297,41.504,23.926,0
1506375091.418,24.414,33.691,33.203,38.086,47.363,0
1506375091.422,22.461,27.832,33.691,32.227,47.852,0
1506375091.426,29.785,24.902,36.133,34.180,20.996,0
1506375091.430,31.738,32.227,42.480,37.109,42.480,0
1506375091.434,30.273,29.785,42.969,32.227,64.453,0
1506375091.438,24.902,20.996,40.527,31.250,51.270,0
1506375091.442,28.320,16.602,35.156,34.668,31.250,0
1506375091.446,37.109,33.691,40.039,33.691,33.203,0
1506375091.450,24.902,43.945,32.227,28.320,68.848,0
1506375091.453,15.137,23.438,21.973,21.484,43.945,0
1506375091.457,12.207,18.555,19.531,20.020,37.598,0
1506375091.461,7.812,29.297,27.344,27.344,54.199,0
1506375091.465,9.277,29.785,35.156,26.855,70.801,0
1506375091.469,12.695,12.695,37.598,29.785,61.035,0
1506375091.473,14.648,15.625,50.293,37.109,29.297,0
1506375091.477,22.461,41.504,52.734,34.180,55.176,0
1506375091.481,25.879,30.273,49.316,31.738,52.734,0
1506375091.485,36.621,7.324,53.223,35.156,14.648,0
1506375091.489,35.645,18.555,47.363,30.273,4.395,0
1506375091.493,23.926,37.109,35.645,17.578,7.324,0
1506375091.496,31.738,30.273,44.922,19.531,17.578,0
1506375091.500,36.621,28.809,48.340,22.461,26.855,0
1506375091.504,41.016,37.598,42.480,21.973,41.504,0
1506375091.508,53.223,42.480,44.434,27.344,41.504,0
1506375091.512,49.805,37.109,45.898,32.715,66.895,0
1506375091.516,31.738,32.715,47.363,31.738,54.199,0
1506375091.520,26.367,31.738,43.945,28.320,18.066,0
1506375091.524,32.227,27.344,31.250,38.086,32.715,0
1506375091.528,23.926,17.090,36.133,48.828,29.785,0
1506375091.532,16.113,10.254,42.480,51.270,17.090,0
1506375091.535,28.320,24.902,40.039,52.734,28.809,0
1506375091.539,40.527,32.227,47.852,52.734,19.531,0
1506375091.543,43.945,23.438,48.340,45.410,24.414,0
1506375091.547,45.898,14.648,35.156,40.039,5.371,0
1506375091.551,40.039,35.156,38.574,43.457,23.438,0
1506375091.555,36.621,41.016,33.203,41.016,59.082,0
1506375091.559,44.434,23.438,27.344,40.527,15.137,0
1506375091.563,40.527,31.738,42.480,45.898,0.488,0
1506375091.567,36.133,39.551,47.852,44.922,12.695,0
1506375091.571,44.922,32.227,44.434,41.992,29.297,0
1506375091.575,47.852,22.949,51.270,44.922,17.578,0
1506375091.578,35.156,20.508,53.711,46.387,16.602,0
1506375091.582,27.344,30.762,39.062,40.527,9.277,0
1506375091.586,36.621,39.551,37.109,36.133,24.902,0
1506375091.590,48.340,20.996,42.969,39.551,12.695,0
1506375091.594,36.621,18.555,43.457,38.574,-17.578,0
1506375091.598,13.672,37.109,42.480,31.250,14.648,0
1506375091.602,12.207,25.879,34.668,33.691,15.625,0
1506375091.606,26.367,23.926,34.668,42.480,13.184,0
1506375091.610,24.902,28.320,37.598,41.992,21.484,0
1506375091.614,18.555,28.809,32.715,30.762,7.812,0
1506375091.618,28.320,28.809,29.785,30.762,2.441,0
1506375091.621,30.273,20.020,36.133,35.156,11.719,0
1506375091.625,30.762,22.949,36.133,30.762,10.742,0
1506375091.629,32.227,27.832,40.527,27.344,9.277,0
1506375091.633,32.227,30.273,45.410,29.785,14.160,0
1506375091.637,29.297,24.414,45.410,30.762,-9.277,0
1506375091.641,24.902,36.133,36.621,27.832,-14.160,0
1506375091.645,22.949,47.363,36.133,28.320,53.711,0
1506375091.649,27.344,24.902,37.109,32.227,36.621,0
1506375091.653,34.668,23.926,30.273,34.668,0.000,0
1506375091.657,29.297,37.598,26.855,28.809,32.227,0
1506375091.660,22.461,24.902,26.367,24.414,34.668,0
1506375091.664,18.066,16.602,30.273,27.344,8.789,0
1506375091.668,17.578,23.926,36.133,31.738,23.438,0
1506375091.672,19.531,24.414,35.645,35.645,31.250,0
1506375091.676,28.809,31.738,29.297,37.598,15.137,0
1506375091.680,34.180,23.926,33.691,42.480,-11.230,0
1506375091.684,19.531,19.531,25.391,36.621,-30.273,0
1506375091.688,29.297,38.574,27.832,37.598,-2.441,0
1506375091.692,45.898,26.367,47.363,46.875,9.766,0
1506375091.696,41.016,15.625,35.156,41.992,-0.488,0
1506375091.700,43.457,27.832,29.785,32.715,29.785,0
1506375091.703,42.969,29.785,40.039,30.273,40.039,0
1506375091.707,30.273,21.484,35.156,33.203,26.855,0
1506375091.711,18.555,20.020,35.645,32.715,23.926,0
1506375091.715,15.625,21.973,38.574,33.203,35.156,0
1506375091.719,11.230,21.973,29.785,32.227,33.691,0
1506375091.723,8.301,27.832,21.484,25.879,25.879,0
1506375091.727,16.602,24.414,28.320,26.367,9.277,0
1506375091.731,19.043,35.156,31.738,25.391,7.324,0
1506375091.735,19.531,33.691,33.203,25.391,37.109,0
1506375091.739,31.738,15.137,41.504,28.320,29.785,0
1506375091.743,43.457,21.484,39.062,32.227,9.277,0
1506375091.746,33.691,32.715,28.320,32.227,25.391,0
1506375091.750,30.762,16.113,31.738,26.855,52.734,0
1506375091.754,39.062,6.348,22.461,25.879,28.809,0
1506375091.758,35.645,13.672,15.625,25.391,10.254,0
1506375091.762,37.109,15.625,36.621,29.785,22.461,0
1506375091.766,41.504,11.230,42.480,32.715,32.227,0
1506375091.770,42.480,3.418,38.574,35.156,6.836,0
1506375091.774,35.645,16.602,39.551,34.180,6.348,0
1506375091.778,30.762,40.527,39.551,30.762,35.156,0
1506375091.782,29.785,32.227,31.250,32.227,23.438,0
1506375091.785,19.531,21.484,26.855,28.809,-2.930,0
1506375091.789,20.996,25.879,36.621,30.273,10.742,0
1506375091.793,26.367,29.297,30.273,28.809,19.043,0
1506375091.797,26.367,25.391,29.297,22.949,22.949,0
1506375091.801,33.691,29.297,37.598,27.344,15.625,0
1506375091.805,32.227,42.480,39.551,34.180,23.926,0
1506375091.809,27.832,35.156,41.992,34.180,7.324,0
1506375091.813,26.855,29.785,39.551,28.320,-15.625,0
1506375091.817,26.855,29.785,40.527,34.180,-15.137,0
1506375091.821,28.809,39.062,37.598,42.480,-13.672,0
1506375091.825,22.461,48.340,38.086,36.621,24.902,0
1506375091.828,18.555,27.344,42.480,33.691,33.203,0
1506375091.832,24.902,24.902,45.898,38.574,6.348,0
1506375091.836,27.832,42.969,39.062,34.668,14.160,0
1506375091.840,25.879,38.574,44.922,31.738,50.781,0
1506375091.844,27.344,24.414,49.805,31.738,31.250,0
1506375091.848,34.668,27.344,44.434,33.203,21.973,0
1506375091.852,40.527,40.527,37.598,35.645,29.785,0
1506375091.856,44.922,38.574,39.551,35.156,7.324,0
1506375091.860,45.410,21.973,48.340,39.062,-4.395,0
1506375091.864,41.504,32.715,53.711,43.457,13.672,0
1506375091.868,41.504,45.898,54.199,38.086,24.902,0
1506375091.871,46.875,38.574,46.875,34.668,36.133,0
1506375091.875,49.316,32.227,47.852,39.551,33.203,0
1506375091.879,42.480,35.156,44.922,34.668,16.602,0
1506375091.883,37.109,44.922,41.016,33.691,26.855,0
1506375091.887,31.738,35.645,43.457,41.992,63.477,0
1506375091.891,41.016,31.738,43.457,40.527,56.641,0
1506375091.895,55.664,34.668,35.156,41.992,23.926,0
1506375091.899,57.129,35.156,35.156,44.434,28.320,0
1506375091.903,44.922,26.855,41.016,41.992,31.250,0
1506375091.907,40.527,11.719,39.062,37.598,32.715,0
1506375091.910,41.504,21.973,35.645,36.133,9.277,0
1506375091.914,34.668,37.598,29.297,34.668,18.066,0
1506375091.918,34.668,19.043,38.574,38.086,32.715,0
1506375091.922,37.109,16.602,41.992,39.551,10.742,0
1506375091.926,43.945,30.273,40.039,42.480,1.465,0
1506375091.930,38.086,30.762,40.527,45.898,5.859,0
1506375091.934,31.250,21.484,39.551,41.504,7.812,0
1506375091.938,29.785,11.719,33.691,32.715,-22.461,0
1506375091.942,31.250,36.621,35.645,34.668,-9.766,0
1506375091.946,31.250,38.574,37.109,37.109,34.180,0
1506375091.950,25.879,19.043,35.156,34.668,41.504,0
1506375091.953,21.484,15.625,37.109,30.762,18.555,0
1506375091.957,21.484,23.926,31.738,21.484,10.742,0
1506375091.961,20.508,26.855,26.367,14.648,19.043,0
1506375091.965,21.484,11.230,35.156,21.484,10.742,0
1506375091.969,32.227,10.742,45.898,29.785,3.418,0
1506375091.973,34.180,26.855,39.062,21.973,-3.418,0
1506375091.977,41.016,24.414,30.762,18.555,25.391,0
1506375091.981,46.387,23.926,34.180,21.973,40.527,0
1506375091.985,24.902,18.066,35.645,18.555,36.621,0
1506375091.989,19.043,16.602,31.738,26.367,26.367,0
1506375091.993,22.949,18.555,31.738,25.879,32.715,0
1506375091.996,22.461,14.648,28.320,21.484,33.691,0
1506375092.000,20.996,13.672,23.438,26.855,31.250,0
1506375092.004,26.367,20.020,20.508,32.715,37.109,0
1506375092.008,30.762,24.902,26.855,31.250,38.574,0
1506375092.012,27.344,15.137,31.738,27.832,8.789,0
1506375092.016,32.227,33.691,38.086,26.855,10.742,0
1506375092.020,26.855,38.574,41.504,24.902,37.109,0
1506375092.024,28.320,22.949,37.598,28.320,26.367,0
1506375092.028,31.738,19.531,34.668,25.879,27.832,0
1506375092.032,23.926,24.414,27.832,20.508,53.711,0
1506375092.035,29.785,25.879,19.043,19.531,48.340,0
1506375092.039,29.785,24.414,24.902,19.043,28.809,0
1506375092.043,16.113,29.297,32.227,22.461,39.551,0
1506375092.047,15.625,35.156,39.551,35.156,35.156,0
1506375092.051,19.043,39.551,39.551,43.457,27.344,0
1506375092.055,15.625,21.484,34.180,42.480,-0.488,0
1506375092.059,15.625,26.855,40.039,36.133,1.953,0
1506375092.063,14.160,53.223,32.715,22.461,71.777,0
1506375092.067,17.090,37.598,26.855,19.531,83.984,0
1506375092.071,18.555,22.949,31.250,23.926,26.855,0
1506375092.075,28.809,37.109,30.762,20.996,20.996,0
1506375092.078,41.016,47.852,32.227,21.484,52.734,0
1506375092.082,37.598,36.621,33.203,24.414,33.203,0
1506375092.086,38.086,33.691,35.645,30.273,12.695,0
1506375092.090,37.109,36.133,35.156,32.715,22.949,0
1506375092.094,41.992,30.762,34.668,27.344,35.645,0
1506375092.098,34.180,26.367,35.645,24.902,35.645,0
1506375092.102,15.625,18.066,36.621,35.156,13.672,0
1506375092.106,9.277,29.297,30.762,33.691,6.348,0
1506375092.110,12.207,42.969,33.203,29.785,44.434,0
1506375092.114,22.949,25.879,42.969,37.109,31.738,0
1506375092.118,29.785,23.926,37.598,32.715,0.977,0
1506375092.121,35.156,36.133,23.926,17.578,23.438,0
1506375092.125,22.461,27.832,20.996,10.254,26.367,0
1506375092.129,17.578,20.508,23.926,15.137,10.254,0
1506375092.133,26.367,20.020,23.438,20.508,27.832,0
1506375092.137,32.715,15.137,28.809,20.508,54.688,0
1506375092.141,24.902,7.812,33.691,22.949,37.598,0
1506375092.145,14.648,1.953,37.109,29.785,3.418,0
1506375092.149,21.973,13.672,35.156,34.180,-22.461,0
1506375092.153,20.996,39.551,27.344,32.715,12.207,0
1506375092.157,13.184,27.344,27.832,31.738,42.969,0
1506375092.160,6.348,19.043,29.297,28.809,28.809,0
1506375092.164,20.508,22.949,31.250,34.180,23.926,0
1506375092.168,36.133,29.785,37.109,37.598,40.527,0
1506375092.172,36.133,31.738,37.109,35.156,61.035,0
1506375092.176,25.879,21.973,36.133,35.645,52.734,0
1506375092.180,23.438,24.414,44.922,36.133,51.758,0
1506375092.184,28.320,16.602,47.363,30.762,80.078,0
1506375092.188,22.461,9.766,37.598,25.391,56.641,0
1506375092.192,21.484,6.836,37.109,31.738,24.414,0
1506375092.196,18.066,19.531,44.434,35.156,16.113,0
1506375092.200,14.648,33.203,42.480,31.250,45.898,0
1506375092.203,18.555,16.602,46.387,31.738,64.941,0
1506375092.207,23.926,14.648,48.340,31.250,30.762,0
1506375092.211,25.879,30.762,39.551,22.461,44.922,0
1506375092.215,21.484,29.785,38.574,22.949,69.824,0
1506375092.219,25.391,20.996,41.504,27.832,22.949,0
1506375092.223,29.785,20.996,35.156,24.902,13.672,0
1506375092.227,33.203,36.621,30.762,24.414,10.254,0
1506375092.231,38.574,44.922,26.855,28.320,3.906,0
1506375092.235,42.480,31.738,28.809,34.668,12.207,0
1506375092.239,48.340,44.434,36.621,28.320,-2.441,0
1506375092.243,46.387,64.453,34.180,21.484,13.672,0
1506375092.246,33.691,48.828,30.273,24.414,16.113,0
1506375092.250,26.855,26.367,35.645,27.832,-2.930,0
1506375092.254,32.227,38.086,39.062,29.785,5.371,0
1506375092.258,31.250,56.152,28.809,31.250,8.789,0
1506375092.262,15.137,48.340,25.879,28.809,2.930,0
1506375092.266,14.648,48.828,29.785,28.809,8.301,0
1506375092.270,27.344,58.594,30.273,36.621,20.020,0
1506375092.274,20.996,54.199,33.203,31.738,27.832,0
1506375092.278,21.973,42.969,31.738,25.879,18.066,0
1506375092.282,22.949,34.180,36.133,28.809,5.371,0
1506375092.285,18.555,41.016,37.109,25.391,3.418,0
1506375092.289,25.391,54.199,29.785,24.414,16.602,0
1506375092.293,31.250,46.875,27.832,23.926,33.203,0
1506375092.297,29.785,30.762,25.391,24.902,-18.066,0
1506375092.301,16.113,51.270,24.902,25.879,-34.180,0
1506375092.305,6.348,59.082,31.738,23.438,1.465,0
1506375092.309,4.395,28.809,28.809,14.648,1.953,0
1506375092.313,11.230,33.203,25.879,14.648,13.184,0
1506375092.317,15.625,55.176,27.344,16.602,41.992,0
1506375092.321,15.625,46.387,32.715,20.996,23.438,0
1506375092.325,23.926,39.062,38.086,27.344,3.418,0
1506375092.328,17.578,32.715,26.367,22.461,6.836,0
1506375092.332,11.719,36.621,18.555,18.066,-0.488,0
1506375092.336,16.113,47.363,18.555,19.043,18.555,0
1506375092.340,16.602,35.156,18.555,21.484,18.555,0
1506375092.344,23.438,39.062,24.414,29.297,-18.555,0
1506375092.348,37.598,66.895,29.785,36.133,18.555,0
