timestamps,TP9,AF7,AF8,TP10,Right AUX,Marker0
1506463351.532,14.648,11.230,20.996,32.227,27.344,0
1506463351.536,12.695,9.277,15.137,32.715,38.086,0
1506463351.540,13.672,10.254,16.113,33.691,26.855,0
1506463351.544,17.090,13.184,20.996,36.621,33.203,0
1506463351.547,22.461,17.090,23.926,43.457,71.777,0
1506463351.551,33.691,26.367,29.785,53.223,68.359,0
1506463351.555,34.180,26.855,29.785,51.758,45.410,0
1506463351.559,36.133,29.297,34.180,55.176,38.086,0
1506463351.563,34.668,27.344,33.203,54.199,35.645,0
1506463351.567,22.461,19.531,24.414,44.434,59.570,0
1506463351.571,20.020,18.555,24.902,49.316,54.199,0
1506463351.575,27.344,21.973,29.297,58.594,0.977,0
1506463351.579,33.203,26.855,29.297,53.711,24.902,0
1506463351.583,35.645,32.227,29.785,55.176,54.688,0
1506463351.587,25.391,27.344,20.996,54.199,23.438,0
1506463351.590,20.508,22.461,14.648,48.340,38.086,0
1506463351.594,18.555,20.996,17.578,46.387,48.340,0
1506463351.598,17.090,20.020,19.043,48.828,13.672,0
1506463351.602,25.391,24.902,24.414,54.688,28.320,0
1506463351.606,20.020,18.555,16.602,46.875,54.199,0
1506463351.610,17.578,13.672,16.113,42.480,50.781,0
1506463351.614,23.926,16.602,20.996,42.480,42.969,0
1506463351.618,20.508,12.695,13.184,34.668,46.875,0
1506463351.622,18.555,7.812,8.301,31.250,57.617,0
1506463351.626,28.320,12.695,12.207,38.574,76.660,0
1506463351.630,40.527,26.855,22.949,49.805,56.152,0
1506463351.633,34.668,26.367,21.973,45.410,19.531,0
1506463351.637,25.879,13.672,11.719,34.668,27.832,0
1506463351.641,27.344,10.254,8.301,35.156,55.664,0
1506463351.645,27.344,14.160,10.742,39.062,58.105,0
1506463351.649,25.879,12.695,12.695,36.621,21.973,0
1506463351.653,19.043,12.695,8.301,32.715,32.227,0
1506463351.657,23.926,20.508,13.672,36.621,67.871,0
1506463351.661,39.551,25.879,25.391,43.945,40.527,0
1506463351.665,39.062,21.484,24.902,41.504,44.434,0
1506463351.669,33.203,13.672,17.578,31.738,51.270,0
1506463351.672,35.645,16.113,17.578,30.762,19.043,0
1506463351.676,33.691,15.137,17.578,33.203,34.180,0
1506463351.680,27.344,10.742,16.113,31.250,54.199,0
1506463351.684,28.809,18.555,21.484,36.133,33.203,0
1506463351.688,28.320,19.531,22.461,39.062,56.641,0
1506463351.692,22.461,18.555,22.461,40.527,54.688,0
1506463351.696,23.438,21.484,29.785,46.875,25.391,0
1506463351.700,24.414,21.484,29.297,49.316,63.477,0
1506463351.704,22.949,20.996,25.391,48.340,54.199,0
1506463351.708,25.879,20.508,24.902,49.316,26.367,0
1506463351.712,25.879,19.043,22.949,43.945,41.504,0
1506463351.715,22.949,14.160,19.531,34.668,44.434,0
1506463351.719,24.414,11.719,20.020,34.180,56.152,0
1506463351.723,29.785,18.066,24.414,39.062,47.852,0
1506463351.727,32.227,20.508,24.414,39.062,49.316,0
1506463351.731,27.832,13.672,19.043,34.180,53.223,0
1506463351.735,24.902,7.812,17.090,30.762,19.043,0
1506463351.739,22.949,6.836,17.090,30.762,33.691,0
1506463351.743,16.602,5.371,11.230,26.855,39.551,0
1506463351.747,21.484,11.719,19.531,32.715,22.949,0
1506463351.751,29.785,17.578,29.297,42.480,24.902,0
1506463351.755,26.855,10.742,21.484,34.668,2.441,0
1506463351.758,24.414,5.371,16.113,27.832,21.484,0
1506463351.762,26.367,2.930,13.672,26.855,56.641,0
1506463351.766,26.855,1.953,10.742,23.438,44.922,0
1506463351.770,35.156,12.207,18.555,32.227,33.691,0
1506463351.774,37.109,17.578,20.508,39.062,59.570,0
1506463351.778,37.109,20.996,18.555,38.086,48.340,0
1506463351.782,34.668,20.996,22.461,39.062,24.902,0
1506463351.786,24.902,16.602,26.855,38.086,26.367,0
1506463351.790,21.973,15.137,23.438,32.715,18.555,0
1506463351.794,22.461,14.648,14.160,27.344,24.902,0
1506463351.797,26.367,17.090,19.531,30.762,-0.977,0
1506463351.801,30.273,17.578,26.367,31.250,4.395,0
1506463351.805,34.668,20.996,27.832,34.180,36.133,0
1506463351.809,41.016,28.809,34.668,44.434,34.180,0
1506463351.813,43.945,30.762,38.574,48.340,-3.906,0
1506463351.817,47.852,31.738,41.016,51.270,7.324,0
1506463351.821,44.922,30.273,36.621,48.828,7.812,0
1506463351.825,41.016,24.902,33.203,45.410,-7.812,0
1506463351.829,41.992,24.414,35.645,48.340,8.789,0
1506463351.833,33.691,16.602,24.414,40.527,7.324,0
1506463351.837,26.855,13.184,14.648,35.645,28.809,0
1506463351.840,35.156,19.043,20.996,44.922,22.461,0
1506463351.844,41.016,19.043,28.320,51.758,-7.324,0
1506463351.848,38.086,15.625,27.832,51.270,-3.906,0
1506463351.852,42.480,20.996,36.133,56.641,19.043,0
1506463351.856,46.387,24.414,41.992,62.012,29.785,0
1506463351.860,43.945,22.949,41.504,62.988,18.066,0
1506463351.864,51.270,30.273,50.293,71.289,41.992,0
1506463351.868,55.664,34.180,55.664,75.195,31.738,0
1506463351.872,52.734,27.344,52.246,70.312,-0.488,0
1506463351.876,51.758,20.020,47.363,66.895,-4.395,0
1506463351.880,50.781,17.578,44.434,62.500,16.113,0
1506463351.883,47.852,16.602,45.410,61.035,29.785,0
1506463351.887,45.898,14.160,44.434,62.500,12.695,0
1506463351.891,48.828,12.695,41.016,61.523,-10.254,0
1506463351.895,49.805,8.789,38.574,61.035,21.973,0
1506463351.899,47.363,7.812,39.062,61.523,48.828,0
1506463351.903,51.270,10.742,45.898,66.895,21.484,0
1506463351.907,52.734,11.719,47.363,65.918,11.230,0
1506463351.911,50.293,13.672,48.340,64.453,31.738,0
1506463351.915,56.152,17.578,53.711,69.824,33.203,0
1506463351.919,59.570,16.602,50.293,67.383,14.648,0
1506463351.922,53.711,12.207,43.457,61.035,41.016,0
1506463351.926,49.805,9.766,43.945,60.059,42.969,0
1506463351.930,54.688,11.719,51.270,64.453,16.602,0
1506463351.934,60.547,17.090,53.711,69.824,5.371,0
1506463351.938,51.758,8.301,44.922,65.430,47.852,0
1506463351.942,40.527,-4.395,33.203,58.105,51.758,0
1506463351.946,44.922,-0.488,38.086,63.477,0.488,0
1506463351.950,57.617,11.230,54.199,78.125,7.324,0
1506463351.954,47.363,6.348,49.316,76.172,46.387,0
1506463351.958,39.551,4.395,43.945,72.266,24.902,0
1506463351.962,44.922,8.789,46.387,72.754,11.719,0
1506463351.965,44.434,8.789,46.875,68.848,57.617,0
1506463351.969,47.363,11.230,53.223,70.801,44.434,0
1506463351.973,52.246,12.695,55.664,73.730,15.625,0
1506463351.977,50.781,9.277,51.270,68.359,28.320,0
1506463351.981,47.852,7.324,47.363,61.523,50.781,0
1506463351.985,44.434,5.371,42.969,58.594,54.199,0
1506463351.989,41.992,3.906,43.945,58.594,49.316,0
1506463351.993,53.223,13.184,55.176,69.824,24.902,0
1506463351.997,51.758,12.695,48.340,65.918,-17.090,0
1506463352.001,39.062,5.371,36.133,53.223,31.738,0
1506463352.005,32.715,5.371,37.109,52.734,25.391,0
1506463352.008,25.391,4.883,36.621,48.828,-1.953,0
1506463352.012,25.879,3.906,37.598,46.387,25.391,0
1506463352.016,28.320,4.883,36.133,47.363,21.484,0
1506463352.020,28.320,9.277,35.645,47.852,13.672,0
1506463352.024,31.738,12.695,36.133,48.340,8.301,0
1506463352.028,33.691,11.230,34.668,45.898,24.902,0
1506463352.032,30.273,10.254,35.156,42.480,27.832,0
1506463352.036,27.344,10.254,32.227,42.480,-14.648,0
1506463352.040,30.273,11.719,27.344,43.457,-27.832,0
1506463352.044,34.668,13.184,24.902,43.945,0.000,0
1506463352.047,45.898,21.973,32.715,52.734,-4.395,0
1506463352.051,56.641,32.227,42.480,58.105,1.465,0
1506463352.055,58.105,36.133,42.969,60.059,27.344,0
1506463352.059,55.176,31.738,39.062,58.594,39.062,0
1506463352.063,52.734,28.320,35.645,54.199,28.809,0
1506463352.067,58.594,32.227,36.621,57.617,-7.812,0
1506463352.071,56.641,31.738,36.133,61.523,-38.086,0
1506463352.075,54.688,31.250,36.133,64.941,-11.719,0
1506463352.079,53.223,28.320,32.227,62.012,27.344,0
1506463352.083,46.387,22.461,24.414,53.711,-9.277,0
1506463352.087,49.316,20.508,18.555,49.316,-39.062,0
1506463352.090,57.129,23.438,20.996,55.176,2.441,0
1506463352.094,52.246,21.973,24.414,55.664,-15.625,0
1506463352.098,37.598,10.742,18.066,43.945,-20.996,0
1506463352.102,36.133,13.672,19.531,45.898,31.738,0
1506463352.106,44.922,21.973,26.855,55.176,28.809,0
1506463352.110,47.852,25.391,31.250,58.594,2.930,0
1506463352.114,41.992,26.367,30.273,58.594,-7.812,0
1506463352.118,35.645,23.438,27.832,55.664,18.555,0
1506463352.122,28.320,17.578,25.879,51.758,53.223,0
1506463352.126,32.715,20.996,30.762,50.781,28.809,0
1506463352.130,37.109,26.367,34.180,52.246,-17.578,0
1506463352.133,31.250,23.926,29.785,47.363,1.465,0
1506463352.137,29.785,23.926,28.320,45.410,5.371,0
1506463352.141,21.973,17.578,23.926,41.504,-26.855,0
1506463352.145,18.555,13.672,22.461,36.621,-9.277,0
1506463352.149,25.879,19.531,25.879,37.598,20.020,0
1506463352.153,21.484,15.625,20.020,35.645,17.578,0
1506463352.157,19.531,10.742,16.602,33.203,7.812,0
1506463352.161,21.973,11.719,17.578,35.156,18.066,0
1506463352.165,23.438,16.113,19.531,38.574,17.090,0
1506463352.169,23.438,20.508,25.879,41.016,18.555,0
1506463352.172,24.902,17.578,27.344,39.551,-22.461,0
1506463352.176,25.879,16.602,25.879,38.086,-32.227,0
1506463352.180,27.344,20.020,31.250,42.480,52.246,0
1506463352.184,27.832,20.020,32.227,41.992,54.199,0
1506463352.188,25.391,19.043,24.902,35.645,7.324,0
1506463352.192,20.996,17.090,25.879,35.156,19.043,0
1506463352.196,25.879,19.043,33.691,40.039,43.945,0
1506463352.200,32.227,23.926,31.738,39.551,35.645,0
1506463352.204,35.156,27.832,32.227,37.109,26.855,0
1506463352.208,33.691,24.414,31.250,30.762,-3.906,0
1506463352.212,27.344,19.531,26.855,23.438,1.953,0
1506463352.215,18.555,15.625,22.949,20.996,14.160,0
1506463352.219,12.695,10.254,21.484,15.137,-20.020,0
1506463352.223,11.719,8.301,16.113,9.277,-20.508,0
1506463352.227,7.812,7.324,9.277,6.836,-4.395,0
1506463352.231,8.301,7.812,9.277,6.836,-5.371,0
1506463352.235,9.277,8.789,10.742,8.301,12.695,0
1506463352.239,14.160,10.254,14.648,12.207,37.598,0
1506463352.243,23.438,14.160,16.113,13.672,25.879,0
1506463352.247,26.855,15.137,15.137,15.137,-2.930,0
1506463352.251,32.715,20.508,23.926,25.391,-7.324,0
1506463352.255,38.086,28.320,27.344,35.156,18.555,0
1506463352.258,33.203,26.855,24.902,36.133,13.672,0
1506463352.262,34.668,29.297,29.297,35.645,-15.625,0
1506463352.266,33.203,30.273,30.273,32.715,-27.344,0
1506463352.270,27.832,28.320,28.809,32.227,-8.301,0
1506463352.274,27.832,26.367,26.855,31.250,4.395,0
1506463352.278,29.297,28.809,31.250,33.203,-0.977,0
1506463352.282,27.344,28.320,31.250,31.250,2.441,0
1506463352.286,24.414,24.414,25.879,23.926,21.484,0
1506463352.290,24.414,23.438,25.879,23.926,6.836,0
1506463352.294,21.484,20.508,21.973,21.484,-12.207,0
1506463352.297,16.113,16.602,16.602,19.043,9.277,0
1506463352.301,17.578,15.137,17.090,20.996,9.766,0
1506463352.305,14.648,14.160,13.184,16.602,12.207,0
1506463352.309,9.766,11.230,7.812,8.789,-9.277,0
1506463352.313,13.184,17.578,12.207,10.254,-5.859,0
1506463352.317,15.137,25.391,17.090,16.602,20.020,0
1506463352.321,16.602,29.785,24.414,23.438,-5.371,0
1506463352.325,15.137,28.809,23.438,19.531,-5.859,0
1506463352.329,12.207,23.438,19.043,9.766,26.855,0
1506463352.333,12.695,26.855,22.461,17.578,34.180,0
1506463352.337,11.230,24.902,17.578,16.113,41.992,0
1506463352.340,8.301,18.066,9.766,7.812,6.348,0
1506463352.344,11.719,20.508,15.137,14.648,-11.719,0
1506463352.348,19.531,25.879,20.020,21.973,-4.395,0
1506463352.352,20.020,23.438,15.137,18.066,-7.812,0
1506463352.356,24.902,22.461,17.578,16.602,-2.441,0
1506463352.360,30.762,27.344,24.414,23.438,24.902,0
1506463352.364,31.738,32.715,28.320,31.738,0.000,0
1506463352.368,29.297,31.738,26.367,31.738,-16.113,0
1506463352.372,23.438,24.414,17.578,22.949,13.672,0
1506463352.376,25.879,27.832,18.555,21.973,23.438,0
1506463352.380,30.273,32.715,22.949,25.391,16.113,0
1506463352.383,22.461,29.297,21.973,23.438,6.836,0
1506463352.387,18.555,30.273,23.438,23.438,3.906,0
1506463352.391,22.949,33.203,26.367,24.902,17.578,0
1506463352.395,28.809,38.574,32.227,29.297,28.809,0
1506463352.399,28.320,38.574,30.762,29.297,2.441,0
1506463352.403,20.020,31.738,24.902,22.461,-5.859,0
1506463352.407,18.555,32.227,23.438,21.973,14.160,0
1506463352.411,24.902,36.133,26.855,26.855,-0.488,0
1506463352.415,30.273,36.133,27.832,26.367,-24.414,0
1506463352.419,23.926,27.832,19.043,18.066,0.000,0
1506463352.422,18.066,23.926,14.160,12.695,26.855,0
1506463352.426,12.695,25.391,18.555,17.090,-13.672,0
1506463352.430,13.672,32.227,22.949,26.367,-19.043,0
1506463352.434,21.484,36.133,23.926,27.832,37.598,0
1506463352.438,23.926,33.203,22.949,27.344,35.645,0
1506463352.442,18.066,33.691,26.855,27.344,2.441,0
1506463352.446,11.719,35.645,32.715,30.762,-1.465,0
1506463352.450,14.160,37.109,32.715,35.645,14.648,0
1506463352.454,15.137,36.621,28.809,32.715,17.578,0
1506463352.458,23.438,43.945,38.574,40.527,6.836,0
1506463352.462,29.785,46.875,40.039,40.039,-11.719,0
1506463352.465,26.367,40.039,29.785,33.203,-7.812,0
1506463352.469,25.879,35.645,23.926,33.691,-8.789,0
1506463352.473,22.461,27.344,14.160,23.438,-10.254,0
1506463352.477,23.438,25.391,12.695,17.090,10.742,0
1506463352.481,26.855,30.762,19.531,20.020,5.859,0
1506463352.485,24.902,26.855,16.113,19.043,-6.836,0
1506463352.489,36.133,35.156,21.484,28.320,0.977,0
1506463352.493,43.457,42.969,32.227,35.156,2.930,0
1506463352.497,35.645,34.668,25.879,28.809,-3.418,0
1506463352.501,32.227,29.297,20.020,25.879,-6.836,0
1506463352.505,31.250,27.344,18.066,22.461,-5.371,0
1506463352.508,27.832,24.902,14.648,19.531,13.184,0
1506463352.512,30.762,29.785,23.438,26.855,10.742,0
1506463352.516,34.180,30.273,24.414,28.320,4.395,0
1506463352.520,28.809,20.508,8.301,15.625,18.066,0
1506463352.524,30.273,21.973,11.719,16.602,33.203,0
1506463352.528,32.227,32.715,23.926,31.738,22.949,0
1506463352.532,31.250,32.715,22.461,32.715,5.371,0
1506463352.536,37.109,34.668,24.902,33.203,6.836,0
1506463352.540,40.527,38.574,28.320,37.598,23.926,0
1506463352.544,34.180,31.738,21.973,33.691,12.207,0
1506463352.547,31.738,26.367,14.648,28.320,0.000,0
1506463352.551,33.691,24.902,10.742,22.949,-28.809,0
1506463352.555,37.109,25.391,12.695,22.461,-4.395,0
1506463352.559,39.062,24.902,14.160,19.043,-16.113,0
1506463352.563,35.156,24.902,13.184,16.113,-28.809,0
1506463352.567,32.715,30.762,18.555,23.926,12.207,0
1506463352.571,37.109,38.086,28.320,33.691,-0.488,0
1506463352.575,39.062,42.480,32.227,35.645,-5.371,0
1506463352.579,34.180,38.574,26.855,27.832,-15.137,0
1506463352.583,27.832,29.297,20.020,19.531,5.371,0
1506463352.587,32.227,32.227,24.414,23.438,30.273,0
1506463352.590,37.109,37.598,29.785,28.809,-4.883,0
1506463352.594,31.738,31.250,26.367,23.926,-29.785,0
1506463352.598,25.391,23.926,17.578,16.113,-13.184,0
1506463352.602,21.484,21.484,13.672,10.742,-7.324,0
1506463352.606,18.066,18.555,16.113,11.719,-24.414,0
1506463352.610,17.090,16.602,15.137,13.184,-54.199,0
1506463352.614,21.973,21.484,15.137,16.602,-9.277,0
1506463352.618,25.879,21.973,18.066,19.043,8.789,0
1506463352.622,23.926,21.973,22.949,21.973,10.254,0
1506463352.626,18.555,24.902,22.949,26.367,22.461,0
1506463352.630,16.602,23.926,19.531,25.879,1.465,0
1506463352.633,18.555,22.461,17.090,24.414,7.812,0
1506463352.637,25.879,30.762,25.391,32.227,-26.855,0
1506463352.641,28.809,31.738,27.832,33.203,-53.223,0
1506463352.645,22.461,22.461,17.090,25.391,-5.859,0
1506463352.649,26.367,26.367,19.531,26.855,-5.371,0
1506463352.653,36.133,36.621,30.762,35.645,-14.648,0
1506463352.657,37.109,36.621,31.250,37.109,27.344,0
1506463352.661,32.715,29.297,24.902,30.273,39.551,0
1506463352.665,32.715,27.344,21.973,28.809,19.531,0
1506463352.669,32.715,33.203,22.949,30.273,34.180,0
1506463352.672,36.621,40.039,31.738,34.668,39.062,0
1506463352.676,34.668,36.133,32.227,32.715,25.391,0
1506463352.680,18.555,21.484,15.137,15.137,17.578,0
1506463352.684,16.113,17.578,10.254,10.742,-7.324,0
1506463352.688,25.879,21.484,17.090,19.043,1.465,0
1506463352.692,41.016,29.785,21.973,25.391,26.855,0
1506463352.696,45.410,34.668,24.414,30.273,24.414,0
1506463352.700,31.250,25.391,18.555,23.926,0.000,0
1506463352.704,21.973,20.508,15.625,17.578,28.809,0
1506463352.708,20.508,24.414,20.996,22.949,42.480,0
1506463352.712,16.113,19.531,19.531,23.926,24.902,1
1506463352.715,21.973,23.926,21.484,29.297,26.367,0
1506463352.719,33.203,34.668,28.809,36.621,10.254,0
1506463352.723,26.855,32.227,28.320,31.738,8.301,0
1506463352.727,24.414,32.715,28.809,30.762,0.977,0
1506463352.731,22.949,32.227,25.879,26.855,-0.488,0
1506463352.735,23.438,30.273,24.414,26.367,31.738,0
1506463352.739,27.832,33.691,29.785,30.762,19.043,0
1506463352.743,25.879,34.668,34.180,32.227,-8.789,0
1506463352.747,24.414,31.250,31.250,28.809,15.137,0
1506463352.751,20.508,28.320,25.391,23.926,62.500,0
1506463352.755,16.602,27.832,19.531,21.973,58.105,0
1506463352.758,15.625,28.320,20.508,19.531,10.742,0
1506463352.762,14.160,26.855,24.414,18.066,41.504,0
1506463352.766,12.695,23.438,24.414,18.555,39.062,0
1506463352.770,11.230,20.020,21.484,15.137,1.465,0
1506463352.774,10.742,23.438,24.902,19.531,-29.785,0
1506463352.778,10.742,24.902,27.344,24.902,-21.973,0
1506463352.782,17.090,28.320,32.715,29.297,21.484,0
1506463352.786,25.391,37.109,41.992,38.086,20.020,0
1506463352.790,30.762,39.062,37.598,37.109,40.527,0
1506463352.794,35.156,37.109,33.691,34.668,44.434,0
1506463352.797,28.320,30.273,30.762,32.715,23.926,0
1506463352.801,24.902,28.809,28.809,37.598,26.367,0
1506463352.805,19.531,24.414,24.902,39.551,18.555,0
1506463352.809,11.719,20.020,25.391,40.039,2.441,0
1506463352.813,15.625,24.414,29.297,45.410,-6.836,0
1506463352.817,22.461,26.855,26.855,47.363,-14.648,0
1506463352.821,25.879,26.367,25.391,45.898,19.043,0
1506463352.825,32.227,27.832,28.320,42.969,5.859,0
1506463352.829,38.086,33.203,28.320,45.410,0.977,0
1506463352.833,39.062,35.156,27.344,48.828,3.906,0
1506463352.837,29.297,26.367,20.508,42.480,-24.414,0
1506463352.840,24.414,21.484,20.020,41.992,20.508,0
1506463352.844,29.297,25.879,24.414,47.363,12.695,0
1506463352.848,29.297,22.461,20.020,45.898,-3.418,0
1506463352.852,26.367,19.531,20.020,44.922,24.414,0
1506463352.856,28.320,25.879,24.902,49.316,30.273,0
1506463352.860,27.344,24.902,21.484,49.805,21.484,0
1506463352.864,29.297,26.855,23.438,48.828,0.977,0
1506463352.868,35.645,29.297,24.902,50.293,-4.395,0
1506463352.872,34.668,30.762,22.949,52.246,14.648,0
1506463352.876,30.762,30.762,22.461,49.805,18.555,0
1506463352.880,32.227,24.902,19.531,43.945,-7.324,0
1506463352.883,33.203,22.461,17.090,40.527,-15.625,0
1506463352.887,31.738,25.391,15.625,40.039,25.391,0
1506463352.891,36.621,29.785,20.996,46.387,24.902,0
1506463352.895,35.645,28.809,23.438,47.852,-4.883,0
1506463352.899,26.855,24.902,21.484,46.387,19.043,0
1506463352.903,35.645,31.738,33.203,56.641,34.180,0
1506463352.907,38.086,35.645,41.016,61.523,47.363,0
1506463352.911,25.879,31.738,30.762,55.176,38.574,0
1506463352.915,29.785,36.621,32.227,58.594,-11.230,0
1506463352.919,31.250,37.109,34.668,59.570,7.812,0
1506463352.922,30.273,32.715,32.227,55.664,4.395,0
1506463352.926,30.762,28.809,30.762,52.246,-36.133,0
1506463352.930,30.762,26.367,28.809,51.758,41.992,0
1506463352.934,32.715,29.297,29.297,54.199,65.430,0
1506463352.938,30.273,26.367,27.344,53.223,26.367,0
1506463352.942,23.926,19.043,21.973,48.828,15.625,0
1506463352.946,22.949,16.113,17.090,45.410,28.809,0
1506463352.950,24.414,13.184,13.672,48.828,16.113,0
1506463352.954,30.762,20.508,20.508,55.176,-1.465,0
1506463352.958,37.598,23.438,22.949,55.664,15.625,0
1506463352.962,36.621,16.602,17.090,50.293,27.344,0
1506463352.965,34.180,18.555,19.043,47.852,34.668,0
1506463352.969,30.762,14.648,15.625,42.480,13.672,0
1506463352.973,29.785,9.766,11.719,40.039,43.457,0
1506463352.977,30.273,14.648,17.090,44.922,69.824,0
1506463352.981,23.438,15.625,21.484,45.898,10.742,0
1506463352.985,24.902,16.602,25.391,48.340,-3.906,0
1506463352.989,34.668,22.461,30.273,53.223,34.180,0
1506463352.993,32.227,19.531,23.926,46.387,26.855,0
1506463352.997,21.973,13.672,16.113,39.062,19.531,0
1506463353.001,18.066,12.695,12.695,35.156,9.766,0
1506463353.005,27.832,17.090,14.648,36.133,-6.348,0
1506463353.008,28.320,14.160,13.184,35.156,41.992,0
1506463353.012,23.926,12.207,13.184,30.762,9.766,0
1506463353.016,29.785,20.020,21.973,36.133,-25.879,0
1506463353.020,25.879,22.949,27.344,40.039,7.812,0
1506463353.024,22.461,25.391,30.762,41.016,-4.883,0
1506463353.028,23.926,25.879,30.762,41.992,6.836,0
1506463353.032,29.297,29.297,33.691,44.922,46.387,0
1506463353.036,37.598,34.180,39.551,47.852,49.316,0
1506463353.040,36.621,31.738,39.062,45.898,31.250,0
1506463353.044,36.621,29.297,34.180,43.945,18.555,0
1506463353.047,44.434,32.227,37.109,47.363,31.250,0
1506463353.051,46.387,35.156,39.062,44.434,10.742,0
1506463353.055,42.480,28.320,32.715,38.086,3.906,0
1506463353.059,37.598,22.949,30.273,39.551,-9.277,0
1506463353.063,35.156,20.996,27.344,37.109,-19.531,0
1506463353.067,40.039,26.855,28.809,41.992,30.762,0
1506463353.071,47.852,30.273,33.691,47.363,41.992,0
1506463353.075,51.758,30.273,37.598,48.828,7.812,0
1506463353.079,48.828,26.367,32.227,47.363,15.137,0
1506463353.083,47.852,20.508,31.250,49.316,28.809,0
1506463353.087,48.828,22.949,39.551,56.641,20.020,0
1506463353.090,45.898,24.414,39.062,54.688,20.508,0
1506463353.094,42.480,20.508,33.691,48.340,41.992,0
1506463353.098,35.156,16.602,29.785,44.434,48.340,0
1506463353.102,28.809,14.648,27.832,41.016,3.906,0
1506463353.106,31.738,12.207,26.855,37.598,-28.809,0
1506463353.110,32.715,11.230,28.320,38.574,4.883,0
1506463353.114,27.832,11.719,29.785,41.992,37.598,0
1506463353.118,23.926,10.742,27.344,41.992,16.602,0
1506463353.122,25.391,9.766,26.855,41.992,14.648,0
1506463353.126,32.715,13.672,34.180,49.805,52.246,0
1506463353.130,39.062,20.508,39.551,54.688,53.223,0
1506463353.133,33.691,16.602,35.156,48.340,25.391,0
1506463353.137,33.203,12.695,29.785,43.945,34.180,0
1506463353.141,40.039,19.531,34.668,49.316,39.551,0
1506463353.145,41.504,21.973,38.574,53.711,30.762,0
1506463353.149,41.992,20.996,39.551,51.758,11.719,0
1506463353.153,38.574,13.184,35.645,42.480,7.324,0
1506463353.157,33.203,7.812,26.367,36.133,37.598,0
1506463353.161,31.250,5.371,20.996,32.227,55.176,0
1506463353.165,25.391,0.977,18.555,27.344,41.016,0
1506463353.169,29.785,8.789,25.879,36.133,31.250,0
1506463353.172,32.715,14.160,30.762,42.969,15.625,0
1506463353.176,26.855,10.742,29.297,41.504,7.812,0
1506463353.180,27.344,13.672,33.203,42.969,15.625,0
1506463353.184,27.344,15.137,34.180,41.992,31.738,0
1506463353.188,24.414,13.672,34.668,39.062,14.648,0
1506463353.192,21.484,11.719,37.109,39.551,-6.348,0
1506463353.196,15.137,5.371,33.203,36.133,-0.488,0
1506463353.200,13.184,1.465,24.902,27.344,1.953,0
1506463353.204,22.461,7.812,28.320,27.832,31.250,0
1506463353.208,33.203,16.113,36.621,35.156,6.348,0
1506463353.212,38.086,20.020,39.551,39.551,-12.695,0
1506463353.215,44.922,25.391,44.922,44.922,17.578,0
1506463353.219,44.922,27.344,47.852,47.852,27.832,0
1506463353.223,42.480,29.785,49.316,47.852,30.762,0
1506463353.227,38.574,25.879,41.504,40.527,28.320,0
1506463353.231,23.926,9.766,24.902,23.438,26.855,0
1506463353.235,25.391,6.836,25.879,20.508,7.324,0
1506463353.239,41.504,18.066,37.109,27.832,-4.883,0
1506463353.243,45.898,20.508,35.156,26.367,25.879,0
1506463353.247,41.016,20.996,33.203,27.832,51.270,0
1506463353.251,41.992,31.738,46.387,42.969,13.184,0
1506463353.255,42.969,37.109,50.781,46.387,-30.762,0
1506463353.258,44.922,36.133,42.969,38.086,20.508,0
1506463353.262,41.016,34.180,40.039,34.668,31.250,0
1506463353.266,25.879,27.832,34.668,30.762,28.809,0
1506463353.270,21.484,23.438,31.738,29.297,40.039,0
1506463353.274,21.973,24.902,33.691,29.297,30.273,0
1506463353.278,22.949,25.391,33.691,27.344,59.082,0
1506463353.282,22.461,20.020,27.832,21.484,36.133,0
1506463353.286,15.137,16.113,23.438,17.578,20.508,0
1506463353.290,14.648,15.625,22.461,18.066,22.949,0
1506463353.294,27.344,23.926,28.809,24.414,35.156,0
1506463353.297,33.203,26.855,33.203,27.344,6.348,0
1506463353.301,31.738,23.438,30.273,27.344,-24.414,0
1506463353.305,38.086,28.809,34.180,34.180,43.945,0
1506463353.309,43.945,32.715,35.645,38.574,59.570,0
1506463353.313,30.762,24.902,30.762,34.668,24.902,0
1506463353.317,19.531,20.508,29.785,32.715,23.926,0
1506463353.321,11.230,16.113,22.949,30.273,28.809,0
1506463353.325,4.883,11.719,16.602,24.902,49.316,0
1506463353.329,18.066,20.020,25.391,31.250,47.363,0
1506463353.333,28.320,28.320,29.297,35.645,20.508,0
1506463353.337,30.762,27.832,24.414,29.785,48.340,0
1506463353.340,38.086,33.691,26.855,31.250,37.598,0
1506463353.344,45.898,37.598,30.762,34.180,43.457,0
1506463353.348,50.293,35.156,31.738,39.062,62.988,0
1506463353.352,54.688,39.062,37.109,47.363,61.035,0
1506463353.356,52.734,40.527,37.598,47.852,63.477,0
1506463353.360,46.875,38.574,36.621,50.781,63.477,0
1506463353.364,39.062,35.156,32.715,47.363,75.684,0
1506463353.368,34.668,30.273,27.832,38.574,88.867,0
1506463353.372,36.621,30.273,30.273,38.086,67.383,0
1506463353.376,37.598,31.738,31.738,39.062,44.922,0
1506463353.380,32.227,25.879,25.879,30.273,33.203,0
1506463353.383,31.250,23.926,27.344,28.809,36.621,0
1506463353.387,32.715,26.367,27.832,32.715,16.113,0
1506463353.391,30.273,24.902,24.902,29.297,-15.137,0
1506463353.395,29.785,21.973,25.391,27.832,36.133,0
1506463353.399,40.039,27.344,28.320,31.738,67.383,0
1506463353.403,50.781,35.156,32.715,40.039,89.355,0
1506463353.407,48.340,33.691,33.691,40.039,82.520,0
1506463353.411,38.574,28.809,32.227,35.156,41.992,0
1506463353.415,35.645,31.250,39.062,40.527,34.668,0
1506463353.419,35.156,30.762,39.551,41.992,35.156,0
1506463353.422,26.855,21.973,29.297,33.203,58.105,0
1506463353.426,24.902,20.996,28.320,30.762,61.523,0
1506463353.430,30.762,28.809,36.621,36.621,40.039,0
1506463353.434,27.344,27.832,36.621,36.133,-0.977,0
1506463353.438,27.344,20.508,30.762,27.344,9.277,0
1506463353.442,36.621,28.809,38.086,32.227,43.945,0
1506463353.446,40.039,39.062,47.852,42.480,52.734,0
1506463353.450,37.598,36.621,43.945,41.504,42.480,0
1506463353.454,32.715,28.320,33.691,33.691,47.363,0
1506463353.458,31.738,29.785,35.645,36.133,53.223,0
1506463353.462,30.273,28.809,40.039,41.504,43.945,0
1506463353.465,37.109,28.320,37.109,40.039,24.414,0
1506463353.469,47.363,35.156,42.480,48.340,26.367,0
1506463353.473,45.898,36.133,45.898,53.711,19.043,0
1506463353.477,47.363,38.574,43.945,57.129,0.000,0
1506463353.481,51.758,39.062,43.945,61.523,-1.465,0
1506463353.485,50.293,34.668,41.992,56.641,48.340,0
1506463353.489,42.480,29.297,35.645,47.363,79.102,0
1506463353.493,40.527,27.832,30.273,41.016,41.016,0
1506463353.497,36.133,31.250,32.715,44.922,46.875,0
1506463353.501,33.203,31.738,36.621,46.387,73.730,0
1506463353.505,33.203,25.391,29.785,41.016,72.754,0
1506463353.508,31.250,21.484,22.949,37.109,43.457,0
1506463353.512,31.738,21.973,23.438,39.551,33.691,0
1506463353.516,37.109,27.832,27.832,48.340,51.270,0
1506463353.520,40.039,32.715,28.320,53.711,13.184,0
1506463353.524,37.598,25.879,21.484,51.758,-4.395,0
1506463353.528,33.203,20.508,20.020,49.805,12.207,0
1506463353.532,27.344,21.484,23.438,50.293,50.781,0
1506463353.536,24.414,24.902,23.438,50.293,57.129,0
1506463353.540,25.879,24.414,22.461,47.363,8.789,0
1506463353.544,24.902,23.438,24.414,45.410,23.926,0
1506463353.547,30.273,29.297,28.809,51.270,46.875,0
1506463353.551,25.879,28.320,26.855,49.805,50.293,0
1506463353.555,21.484,24.902,20.020,45.410,43.457,0
1506463353.559,30.273,28.320,24.414,52.246,50.781,0
1506463353.563,28.320,27.832,24.414,51.758,55.176,0
1506463353.567,27.832,26.367,20.020,43.945,40.527,0
1506463353.571,30.762,30.762,21.484,43.457,34.180,0
1506463353.575,33.203,31.738,20.996,44.434,42.969,0
1506463353.579,33.203,26.855,16.113,41.992,67.871,0
1506463353.583,26.367,23.438,11.719,39.062,38.574,0
1506463353.587,28.809,26.367,15.137,40.527,50.781,0
1506463353.590,36.621,30.273,20.508,42.969,72.266,0
1506463353.594,39.551,31.250,22.949,45.410,36.133,0
1506463353.598,36.621,23.926,15.137,42.969,10.254,0
1506463353.602,32.227,19.043,11.230,41.504,19.531,0
1506463353.606,36.133,24.902,20.020,47.852,30.273,0
1506463353.610,44.434,30.273,30.762,59.082,39.551,0
1506463353.614,51.270,33.691,37.598,64.453,48.340,0
1506463353.618,44.922,28.809,32.715,57.617,64.453,0
1506463353.622,33.691,14.648,20.508,42.480,82.520,0
1506463353.626,33.203,14.648,21.973,42.480,61.523,0
1506463353.630,31.738,15.137,22.949,45.410,55.664,0
1506463353.633,29.297,10.254,18.066,43.945,64.941,0
1506463353.637,33.691,11.719,23.926,50.293,56.152,0
1506463353.641,38.086,22.949,34.180,57.617,29.297,0
1506463353.645,42.969,33.691,39.062,64.453,50.781,0
1506463353.649,49.316,32.227,37.598,62.012,79.102,0
1506463353.653,50.293,32.715,41.504,62.988,75.195,0
1506463353.657,55.664,35.645,43.945,63.965,76.172,0
1506463353.661,58.594,38.086,41.504,62.012,61.035,0
1506463353.665,48.828,30.762,34.668,56.641,58.594,0
1506463353.669,39.551,18.066,25.391,48.828,62.500,0
1506463353.672,32.715,8.789,15.625,37.109,62.988,0
1506463353.676,24.414,0.977,6.348,23.926,90.820,0
1506463353.680,22.461,2.930,9.766,24.902,88.379,0
1506463353.684,31.738,16.602,25.879,37.598,62.500,0
1506463353.688,36.621,20.996,30.273,39.062,33.691,0
1506463353.692,34.180,13.672,21.973,34.180,33.691,0
1506463353.696,37.109,13.184,18.066,36.133,40.527,0
1506463353.700,46.875,23.926,27.344,46.387,37.598,0
1506463353.704,48.340,24.414,31.738,48.828,21.484,0
1506463353.708,43.457,18.066,27.832,41.504,12.207,0
1506463353.712,42.969,23.926,33.203,43.945,30.273,0
1506463353.715,43.945,28.809,41.504,49.316,28.809,0
1506463353.719,40.039,24.414,35.645,42.480,2.441,0
1506463353.723,32.227,15.137,19.531,31.250,-3.418,0
1506463353.727,29.785,11.719,16.602,29.785,33.203,0
1506463353.731,36.133,17.578,22.461,31.250,34.668,0
1506463353.735,42.480,21.484,28.809,37.598,30.273,0
1506463353.739,42.480,20.996,31.738,45.898,55.176,0
1506463353.743,42.969,24.902,33.203,47.852,37.109,0
1506463353.747,38.086,22.949,30.273,41.016,47.852,0
1506463353.751,31.738,19.043,26.367,35.156,54.688,0
1506463353.755,26.367,21.484,24.902,36.133,33.203,0
1506463353.758,26.367,23.926,29.297,39.062,45.410,0
1506463353.762,29.297,25.879,30.762,37.109,25.879,0
1506463353.766,29.785,23.438,25.391,33.203,9.277,0
1506463353.770,29.297,19.531,26.367,32.715,62.500,0
1506463353.774,31.738,19.043,32.227,37.109,50.781,0
1506463353.778,36.133,19.531,30.273,39.062,33.691,0
1506463353.782,33.691,16.113,23.438,36.621,55.664,0
1506463353.786,34.668,17.578,26.855,42.480,47.852,0
1506463353.790,31.738,18.066,27.344,45.410,23.438,0
1506463353.794,28.809,17.090,23.438,43.457,-0.488,0
1506463353.797,35.156,18.066,22.461,44.434,40.527,0
1506463353.801,38.574,18.066,25.391,47.363,62.988,0
1506463353.805,35.645,17.090,21.484,49.805,24.902,0
1506463353.809,33.203,12.695,19.043,46.387,10.254,0
1506463353.813,36.621,13.672,31.250,46.387,11.719,0
1506463353.817,34.668,15.137,37.109,50.293,48.828,0
1506463353.821,33.203,16.602,36.621,47.363,52.734,0
1506463353.825,30.762,16.113,32.715,43.945,11.230,0
1506463353.829,23.438,13.184,24.414,38.086,25.879,0
1506463353.833,29.785,16.602,25.879,38.086,52.734,0
1506463353.837,43.457,26.367,39.551,49.316,50.293,0
1506463353.840,42.969,25.879,39.551,46.387,41.992,0
1506463353.844,39.551,16.602,31.250,34.668,24.902,0
1506463353.848,44.434,17.090,32.715,38.574,23.926,0
1506463353.852,45.410,22.461,36.133,44.434,5.371,0
1506463353.856,40.527,19.043,35.156,42.969,1.465,0
1506463353.860,37.109,10.742,28.320,37.598,39.551,0
1506463353.864,35.645,8.789,21.973,35.156,51.758,0
1506463353.868,32.227,5.371,19.531,34.668,42.969,0
1506463353.872,32.227,1.953,21.973,35.645,30.762,0
1506463353.876,38.086,5.859,26.367,40.039,39.062,0
1506463353.880,40.039,11.230,29.297,45.410,36.621,0
1506463353.883,42.969,9.277,25.879,41.504,42.969,0
1506463353.887,54.199,15.137,32.715,42.480,58.594,0
1506463353.891,53.711,22.461,37.109,48.828,70.801,0
1506463353.895,35.156,13.672,20.020,45.410,43.945,0
1506463353.899,22.461,6.836,17.090,36.621,-9.277,0
1506463353.903,22.461,2.930,19.531,27.344,30.762,0
1506463353.907,23.926,3.418,22.461,26.855,73.730,0
1506463353.911,26.367,6.348,25.391,31.738,35.156,0
1506463353.915,24.902,6.836,22.949,31.738,29.297,0
1506463353.919,24.902,6.348,23.926,32.227,59.082,0
1506463353.922,24.414,3.418,20.996,30.762,55.664,0
1506463353.926,26.367,6.836,22.949,35.645,60.059,0
1506463353.930,30.762,9.277,29.785,41.504,74.707,0
1506463353.934,29.785,7.812,26.855,39.551,68.848,0
1506463353.938,30.762,10.742,26.367,40.039,43.945,0
1506463353.942,35.645,16.113,32.715,45.898,23.926,0
1506463353.946,42.969,24.414,41.992,54.199,19.043,0
1506463353.950,52.246,27.832,44.922,53.223,35.645,0
1506463353.954,55.176,26.855,39.062,51.270,62.012,0
1506463353.958,48.828,23.926,32.227,52.734,27.832,0
1506463353.962,42.480,23.926,35.645,54.199,30.273,0
1506463353.965,43.457,26.855,44.434,57.129,61.035,0
1506463353.969,38.574,24.414,40.527,52.734,44.922,0
1506463353.973,35.156,20.020,34.668,44.434,13.672,2
1506463353.977,36.621,20.020,36.133,42.969,28.809,0
1506463353.981,37.109,24.414,40.039,46.875,85.938,0
1506463353.985,37.598,23.926,37.109,44.922,55.664,0
1506463353.989,43.457,25.879,37.598,43.945,28.809,0
1506463353.993,47.852,26.855,41.504,42.969,36.621,0
1506463353.997,44.922,25.391,41.504,46.875,32.227,0
1506463354.001,40.039,24.902,36.133,45.410,22.949,0
1506463354.005,28.320,18.555,26.855,33.691,5.859,0
1506463354.008,28.809,16.602,22.949,28.809,21.484,0
1506463354.012,38.574,18.555,27.344,30.762,59.570,0
1506463354.016,43.945,24.902,37.598,36.133,46.387,0
1506463354.020,51.758,34.668,42.969,47.363,21.484,0
1506463354.024,51.270,31.250,26.367,47.363,70.801,0
1506463354.028,45.410,21.973,20.996,36.621,80.078,0
1506463354.032,40.527,17.090,30.762,32.227,53.711,0
1506463354.036,42.969,18.555,30.273,36.133,44.922,0
1506463354.040,53.223,24.414,36.133,42.480,41.992,0
1506463354.044,54.688,30.273,41.016,46.875,48.828,0
1506463354.047,40.039,22.461,33.203,42.480,41.016,0
1506463354.051,31.738,15.625,30.273,40.527,34.668,0
1506463354.055,40.039,25.879,38.086,45.898,55.176,0
1506463354.059,46.875,30.273,41.992,46.387,57.617,0
1506463354.063,47.363,24.414,41.504,46.387,40.527,0
1506463354.067,55.176,29.297,51.270,53.711,47.852,0
1506463354.071,59.082,40.527,57.129,60.059,68.359,0
1506463354.075,51.270,38.086,42.969,53.711,58.105,0
1506463354.079,51.270,39.551,40.039,51.758,39.551,0
1506463354.083,41.504,26.855,38.086,40.527,45.898,0
1506463354.087,27.832,9.277,29.297,27.344,42.969,0
1506463354.090,29.785,16.602,34.180,35.156,46.875,0
1506463354.094,27.832,19.043,35.156,35.156,36.621,0
1506463354.098,20.508,16.113,32.715,26.855,27.832,0
1506463354.102,12.207,8.789,13.672,22.949,60.059,0
1506463354.106,13.184,1.465,-0.488,20.020,63.477,0
1506463354.110,36.133,6.348,28.320,33.691,38.574,0
1506463354.114,53.223,12.695,50.293,52.246,46.387,0
1506463354.118,39.062,17.090,40.527,38.574,29.785,0
1506463354.122,26.367,22.949,30.273,24.902,24.414,0
1506463354.126,30.273,36.621,34.668,36.133,47.852,0
1506463354.130,30.762,41.504,39.551,42.480,38.574,0
1506463354.133,29.297,38.574,35.645,41.504,41.016,0
1506463354.137,30.762,38.086,32.715,43.945,19.531,0
1506463354.141,32.227,35.645,32.715,47.363,-28.320,0
1506463354.145,33.203,31.738,32.227,48.340,19.043,0
1506463354.149,38.086,33.691,26.367,50.781,45.410,0
1506463354.153,39.551,33.691,23.926,50.293,23.926,0
1506463354.157,34.668,25.391,23.438,45.898,34.668,0
1506463354.161,28.320,16.602,16.113,40.039,38.086,0
1506463354.165,22.461,13.184,12.695,34.668,30.273,0
1506463354.169,19.531,14.648,12.207,34.668,31.738,0
1506463354.172,22.949,13.184,12.695,37.598,51.270,0
1506463354.176,23.438,14.160,9.766,35.645,41.992,0
1506463354.180,29.297,24.414,15.137,42.969,4.395,0
1506463354.184,30.762,27.832,19.531,47.852,-8.789,0
1506463354.188,22.949,23.438,13.672,41.992,9.277,0
1506463354.192,22.949,19.043,8.301,41.504,59.082,0
1506463354.196,22.461,12.207,13.184,46.387,42.480,0
1506463354.200,29.297,16.602,20.996,47.363,0.000,0
1506463354.204,30.273,22.949,9.766,39.551,39.551,0
1506463354.208,34.668,30.762,6.836,42.480,73.730,0
1506463354.212,33.691,35.645,16.602,53.711,59.082,0
1506463354.215,18.066,26.367,11.719,53.223,49.316,0
1506463354.219,8.789,20.020,14.160,46.387,57.129,0
1506463354.223,5.859,21.973,26.855,46.387,67.871,0
1506463354.227,5.371,20.508,26.855,46.387,58.594,0
1506463354.231,12.207,12.207,27.344,47.852,27.832,0
1506463354.235,33.691,19.531,31.738,65.918,43.457,0
1506463354.239,39.551,29.297,38.086,74.219,64.941,0
1506463354.243,20.996,20.996,41.016,57.617,20.020,0
1506463354.247,6.836,17.578,32.227,42.969,14.160,0
1506463354.251,7.812,25.391,26.367,41.504,40.039,0
1506463354.255,15.625,31.738,25.391,43.457,40.527,0
1506463354.258,17.578,32.227,26.367,47.852,43.457,0
1506463354.262,14.648,26.367,23.438,47.852,39.551,0
1506463354.266,17.578,24.902,25.391,51.270,38.574,0
1506463354.270,28.320,28.809,28.320,55.664,31.738,0
1506463354.274,36.133,28.320,22.949,51.758,-0.488,0
1506463354.278,31.250,24.414,19.531,48.340,25.879,0
1506463354.282,34.180,20.020,15.137,45.410,61.035,0
1506463354.286,29.785,13.672,4.395,38.574,24.414,0
1506463354.290,22.949,14.160,5.371,32.715,38.574,0
1506463354.294,26.367,13.672,8.301,31.738,56.641,0
1506463354.297,34.180,13.184,6.836,33.691,50.293,0
1506463354.301,42.969,22.461,14.648,42.969,31.250,0
1506463354.305,41.992,25.391,17.578,44.434,20.508,0
1506463354.309,38.086,21.973,11.719,39.062,47.363,0
1506463354.313,43.945,25.391,12.207,44.434,41.504,0
1506463354.317,42.969,28.809,17.578,48.828,20.020,0
1506463354.321,33.203,27.832,21.484,49.316,35.645,0
1506463354.325,36.133,31.738,31.738,56.152,56.641,0
1506463354.329,40.527,29.297,30.762,52.734,36.621,0
1506463354.333,31.250,20.020,17.090,38.086,-16.602,0
1506463354.337,20.508,8.301,9.277,27.344,-3.418,0
1506463354.340,24.414,10.742,16.113,30.273,35.156,0
1506463354.344,29.785,17.578,19.531,36.621,30.273,0
1506463354.348,24.414,10.254,9.766,32.715,42.480,0
1506463354.352,24.902,10.742,13.672,36.621,18.066,0
1506463354.356,22.461,13.672,20.508,36.621,22.461,0
1506463354.360,9.277,6.348,2.930,22.461,37.598,0
1506463354.364,6.348,-4.883,-7.812,16.113,1.465,0
1506463354.368,15.625,-12.695,1.465,22.949,24.414,0
1506463354.372,17.090,3.906,13.184,29.297,38.086,0
1506463354.376,14.160,13.672,28.320,27.344,18.555,0
1506463354.380,21.484,6.348,29.785,24.414,4.883,0
1506463354.383,28.320,11.230,23.926,27.832,28.320,0
1506463354.387,28.320,23.438,20.508,26.855,33.691,0
1506463354.391,31.250,33.203,24.902,25.391,18.555,0
1506463354.395,34.668,33.691,17.090,23.926,20.996,0
1506463354.399,32.227,27.832,11.230,18.555,7.324,0
1506463354.403,30.273,25.391,26.855,18.066,15.625,0
1506463354.407,30.762,21.973,28.809,20.020,33.203,0
1506463354.411,28.809,19.043,19.531,17.578,9.766,0
1506463354.415,31.250,20.508,24.414,17.090,0.000,0
1506463354.419,32.227,23.926,27.344,19.043,1.465,0
1506463354.422,30.762,27.832,21.973,20.508,-16.602,0
1506463354.426,34.180,28.809,20.508,21.484,-22.949,0
1506463354.430,38.086,26.367,25.879,23.438,16.602,0
1506463354.434,41.504,31.250,34.668,28.320,16.602,0
1506463354.438,41.504,29.297,27.832,34.180,-33.691,0
1506463354.442,44.434,15.137,28.809,37.109,-34.668,0
1506463354.446,51.758,32.715,49.316,43.945,10.254,0
1506463354.450,50.781,48.340,51.270,43.457,23.438,0
1506463354.454,38.574,41.016,36.133,32.715,13.672,0
1506463354.458,37.598,37.109,31.250,31.250,1.465,0
1506463354.462,28.320,18.066,18.555,20.508,23.926,0
1506463354.465,25.879,14.160,9.766,14.648,17.578,0
1506463354.469,31.738,20.020,12.207,20.996,-35.156,0
1506463354.473,18.555,5.859,1.953,12.207,-30.762,3
1506463354.477,18.555,3.418,6.836,11.230,3.418,0
1506463354.481,21.973,8.301,11.719,13.184,1.465,0
1506463354.485,20.020,9.766,7.812,12.695,-16.113,0
1506463354.489,27.832,14.160,13.184,23.926,0.000,0
1506463354.493,32.227,11.230,17.578,34.180,40.039,0
1506463354.497,26.367,9.277,20.996,32.227,41.504,0
1506463354.501,20.508,11.230,21.973,32.715,20.996,0
1506463354.505,20.020,16.602,21.973,34.668,6.836,0
1506463354.508,22.461,20.508,23.438,32.227,7.812,0
1506463354.512,26.855,20.508,26.855,30.273,-6.348,0
1506463354.516,25.391,12.207,25.879,24.414,-25.879,0
1506463354.520,20.996,9.277,17.090,23.438,8.301,0
1506463354.524,17.090,4.395,7.324,22.461,33.691,0
1506463354.528,11.230,-5.371,-3.418,9.277,31.250,0
1506463354.532,13.672,0.977,-4.395,1.465,14.160,0
1506463354.536,22.461,8.789,12.207,5.371,4.883,0
1506463354.540,26.367,13.184,23.438,11.719,-1.465,0
1506463354.544,28.320,9.766,23.438,13.672,-20.020,0
1506463354.547,34.668,1.953,14.160,15.625,4.395,0
1506463354.551,43.457,18.066,12.695,27.344,-1.953,0
1506463354.555,45.410,33.691,27.832,32.227,-33.203,0
1506463354.559,48.340,20.996,34.668,30.273,-42.969,0
1506463354.563,49.805,13.184,22.461,25.391,-1.953,0
1506463354.567,52.734,27.344,23.438,28.320,53.711,0
1506463354.571,44.434,21.973,22.949,22.949,17.578,0
1506463354.575,44.922,28.320,33.691,27.344,-13.184,0
1506463354.579,61.523,42.969,46.875,43.945,2.930,0
1506463354.583,36.133,11.719,15.137,19.043,-4.883,0
1506463354.587,21.973,0.000,8.789,7.812,-6.836,0
1506463354.590,30.762,14.648,20.508,15.137,-15.137,0
1506463354.594,24.414,13.672,17.090,16.113,-12.207,0
1506463354.598,26.855,21.484,27.832,26.855,24.902,0
1506463354.602,21.973,29.297,34.668,20.996,13.184,0
1506463354.606,18.066,25.879,27.344,11.719,-3.906,0
1506463354.610,23.438,10.254,25.391,13.672,-6.836,0
1506463354.614,28.320,12.695,29.785,25.879,-1.465,0
1506463354.618,34.180,37.109,35.156,38.086,-14.160,0
1506463354.622,29.785,34.180,34.180,32.227,-13.672,0
1506463354.626,31.250,31.738,38.086,31.250,31.738,0
1506463354.630,35.156,34.180,41.992,35.645,21.484,0
1506463354.633,42.969,31.738,45.410,41.992,20.020,0
1506463354.637,44.434,27.832,45.410,44.922,22.461,0
1506463354.641,36.133,22.461,35.645,38.574,22.949,0
1506463354.645,30.762,14.160,25.391,29.785,14.160,0
1506463354.649,29.785,6.836,19.043,29.785,-4.883,0
1506463354.653,30.762,8.301,16.113,30.273,-8.301,0
1506463354.657,26.855,8.789,17.090,22.949,9.277,0
1506463354.661,26.367,17.578,27.832,24.902,20.996,0
1506463354.665,27.832,23.926,31.738,23.926,10.742,0
1506463354.669,30.273,21.484,31.250,20.996,37.598,0
1506463354.672,26.855,21.973,32.227,19.043,15.137,0
1506463354.676,28.809,26.855,35.156,21.484,0.000,0
1506463354.680,31.250,26.367,32.227,24.414,10.742,0
1506463354.684,27.344,20.508,28.320,23.926,18.066,0
1506463354.688,27.832,22.461,30.273,26.367,20.996,0
1506463354.692,34.180,18.066,33.203,30.273,22.461,0
1506463354.696,32.227,10.254,22.949,22.461,10.742,0
1506463354.700,27.344,5.371,12.207,14.160,13.184,0
1506463354.704,31.250,12.207,30.762,22.461,9.277,0
1506463354.708,35.156,25.391,42.969,28.809,-17.578,0
1506463354.712,30.762,18.066,28.809,23.438,-11.230,0
1506463354.715,29.297,16.113,20.508,22.461,5.371,0
1506463354.719,41.992,31.738,26.855,39.062,10.742,0
1506463354.723,41.992,25.391,26.855,41.992,10.742,0
1506463354.727,24.902,4.883,25.879,23.438,12.695,0
1506463354.731,22.461,11.230,29.785,17.578,26.367,0
1506463354.735,33.203,17.090,35.156,23.438,21.973,0
1506463354.739,52.734,32.715,51.758,40.527,0.488,0
1506463354.743,45.898,38.574,51.758,36.621,-11.230,0
1506463354.747,27.344,21.973,37.109,24.414,-7.812,0
1506463354.751,41.504,15.137,44.434,42.969,-20.996,0
1506463354.755,52.734,8.301,43.457,53.711,-34.180,0
1506463354.758,52.734,20.996,37.598,50.293,-11.230,0
1506463354.762,40.039,37.109,20.020,35.645,0.977,0
1506463354.766,20.996,40.039,11.719,18.066,-21.973,0
1506463354.770,16.602,42.969,18.555,14.648,-2.930,0
1506463354.774,28.320,49.805,20.020,33.203,11.230,0
1506463354.778,29.297,32.227,32.715,37.109,-10.254,0
1506463354.782,18.555,12.695,35.645,23.926,-9.766,0
1506463354.786,17.578,4.883,30.762,20.508,0.488,0
1506463354.790,17.090,8.301,23.926,11.719,3.906,0
1506463354.794,17.578,22.461,22.949,6.836,6.836,0
1506463354.797,19.043,27.344,30.273,11.719,-9.766,0
1506463354.801,18.555,26.367,27.832,19.043,-21.484,0
1506463354.805,21.973,26.367,27.344,24.902,-26.367,0
1506463354.809,36.621,32.227,35.156,35.645,0.977,0
1506463354.813,41.016,25.391,34.180,34.180,3.418,0
1506463354.817,41.016,22.461,35.645,34.668,-39.551,0
1506463354.821,43.945,27.344,36.133,43.945,-28.809,0
1506463354.825,47.852,23.438,33.691,47.852,2.441,0
1506463354.829,48.828,23.438,23.926,44.434,-1.953,0
1506463354.833,54.688,29.785,16.602,47.363,-6.348,0
1506463354.837,62.500,27.832,38.574,56.152,-8.301,0
1506463354.840,57.617,21.484,47.852,53.223,-14.160,0
1506463354.844,51.758,17.090,39.062,44.922,-31.738,0
1506463354.848,43.945,23.926,26.855,37.598,-7.812,0
1506463354.852,36.621,34.668,20.508,31.250,15.625,0
1506463354.856,32.715,29.297,13.672,22.461,-21.484,0
1506463354.860,37.109,24.902,13.184,28.320,-43.945,0
1506463354.864,42.480,30.273,27.344,36.621,-6.836,0
1506463354.868,55.664,39.551,32.715,44.922,12.695,0
1506463354.872,57.617,29.785,33.203,47.363,4.395,0
1506463354.876,46.875,24.414,20.508,42.969,-6.348,0
1506463354.880,60.059,25.391,32.227,55.664,9.766,0
1506463354.883,69.336,2.441,52.246,68.848,4.883,0
1506463354.887,51.758,0.000,23.926,61.035,-14.160,0
1506463354.891,33.691,27.832,14.648,43.457,9.277,0
1506463354.895,52.246,49.316,39.551,56.641,-2.930,0
1506463354.899,57.129,32.715,35.156,60.059,-0.977,0
1506463354.903,29.785,15.625,11.230,33.691,-17.578,0
1506463354.907,26.855,21.484,9.766,29.785,-37.109,0
1506463354.911,27.832,21.973,-0.488,31.250,0.488,0
1506463354.915,28.320,29.785,12.207,38.086,-0.488,0
1506463354.919,28.320,26.855,36.133,37.598,-31.738,0
1506463354.922,29.785,24.902,35.156,34.180,-2.930,0
1506463354.926,30.762,23.438,30.273,36.621,27.344,0
1506463354.930,29.297,18.066,25.879,41.016,2.930,0
1506463354.934,34.668,16.602,23.438,43.457,0.000,0
1506463354.938,34.668,14.160,21.973,38.574,16.113,0
1506463354.942,25.391,-0.488,20.996,32.227,24.902,0
1506463354.946,34.668,3.906,22.949,35.645,-9.277,0
1506463354.950,41.504,19.531,24.414,40.039,-42.969,0
1506463354.954,39.551,20.020,26.855,40.527,-19.043,0
1506463354.958,51.270,25.391,31.738,48.340,14.648,0
1506463354.962,52.246,22.949,16.602,47.363,5.371,0
1506463354.965,49.805,17.090,23.438,43.457,-14.160,0
1506463354.969,48.828,13.672,45.410,45.410,9.277,0
1506463354.973,48.340,23.926,49.316,48.828,19.531,4
1506463354.977,41.016,27.344,35.645,39.062,-1.953,0
1506463354.981,28.809,18.066,19.531,29.297,-15.137,0
1506463354.985,27.832,13.184,15.625,28.809,10.254,0
1506463354.989,33.691,12.695,13.184,28.809,28.320,0
1506463354.993,39.062,17.090,23.926,35.645,12.207,0
1506463354.997,41.992,20.996,24.414,39.062,-0.488,0
1506463355.001,42.480,18.555,20.508,35.645,21.973,0
1506463355.005,47.852,21.484,35.156,41.992,19.043,0
1506463355.008,39.062,15.625,23.926,35.645,-13.672,0
1506463355.012,39.062,0.000,12.207,32.227,-16.113,0
1506463355.016,55.664,-6.348,22.949,42.480,0.488,0
1506463355.020,63.477,9.277,34.668,45.410,-8.789,0
1506463355.024,64.453,29.785,40.039,45.898,-19.531,0
1506463355.028,48.340,15.137,27.344,32.715,15.137,0
1506463355.032,40.527,0.977,20.996,29.297,39.062,0
1506463355.036,37.109,3.418,13.672,35.645,-2.930,0
1506463355.040,34.668,18.066,12.207,39.062,-20.508,0
1506463355.044,16.602,16.602,-1.465,20.996,4.883,0
1506463355.047,6.348,9.766,-2.441,9.277,16.602,0
1506463355.051,10.254,15.137,16.602,14.648,10.254,0
1506463355.055,6.836,15.137,20.020,9.277,-8.301,0
1506463355.059,14.160,21.484,29.785,13.184,-3.418,0
1506463355.063,20.020,20.996,28.320,14.160,-6.348,0
1506463355.067,21.484,18.555,17.090,13.184,-31.738,0
1506463355.071,20.996,14.648,21.484,11.230,-15.137,0
1506463355.075,32.227,20.020,32.227,20.508,19.043,0
1506463355.079,41.016,23.438,26.367,28.809,0.000,0
1506463355.083,32.227,19.531,17.090,23.926,-22.949,0
1506463355.087,20.996,13.184,16.602,16.113,-23.926,0
1506463355.090,22.461,10.254,27.832,19.531,-18.066,0
1506463355.094,30.273,11.719,19.043,23.926,-6.348,0
1506463355.098,31.738,10.254,9.766,21.973,-45.898,0
1506463355.102,37.598,14.648,26.855,25.391,-29.785,0
1506463355.106,47.363,18.066,33.691,28.809,3.906,0
1506463355.110,46.387,11.719,25.391,23.926,-14.648,0
1506463355.114,42.480,8.301,20.508,20.996,-21.973,0
1506463355.118,42.480,8.301,24.414,23.438,-21.973,0
1506463355.122,47.852,8.301,19.531,26.367,-25.879,0
1506463355.126,55.664,11.719,8.789,28.320,-14.648,0
1506463355.130,52.734,8.301,10.254,20.996,-3.418,0
1506463355.133,44.434,5.371,7.324,12.695,-12.695,0
1506463355.137,50.293,9.766,18.555,18.555,15.625,0
1506463355.141,61.523,22.461,36.133,26.855,5.371,0
1506463355.145,65.918,24.414,25.391,32.227,-4.883,0
1506463355.149,70.312,20.020,29.785,38.086,42.480,0
1506463355.153,78.125,25.391,46.875,47.852,30.762,0
1506463355.157,72.266,17.090,52.734,45.410,-2.441,0
1506463355.161,62.012,8.789,28.809,35.645,-11.719,0
1506463355.165,73.242,4.395,-0.977,39.551,2.441,0
1506463355.169,88.867,14.648,24.902,50.293,-10.742,0
1506463355.172,75.195,12.695,37.109,36.621,-26.367,0
1506463355.176,78.613,13.184,50.293,43.457,-9.277,0
1506463355.180,91.797,41.992,52.734,62.500,24.414,0
1506463355.184,62.988,42.480,22.949,37.598,10.254,0
1506463355.188,23.926,21.484,-12.695,-3.418,9.766,0
1506463355.192,47.363,46.387,-20.508,16.113,40.039,0
1506463355.196,65.430,47.852,5.859,28.320,40.527,0
1506463355.200,43.457,15.625,15.625,5.371,10.254,0
1506463355.204,32.227,13.672,23.438,0.488,-6.836,0
1506463355.208,36.621,27.832,45.898,7.812,-3.906,0
1506463355.212,47.363,30.273,53.223,21.973,-20.508,0
1506463355.215,48.340,22.461,34.668,27.832,-6.836,0
1506463355.219,53.223,33.203,36.133,32.715,-10.254,0
1506463355.223,53.223,30.762,50.293,30.273,-1.953,0
1506463355.227,64.453,33.691,54.688,33.691,33.203,0
1506463355.231,64.453,39.062,43.457,28.809,14.648,0
1506463355.235,52.734,34.668,37.109,25.879,33.203,0
1506463355.239,56.152,37.598,45.898,35.156,47.852,0
1506463355.243,51.270,32.227,40.527,30.762,31.738,0
1506463355.247,55.664,37.109,47.363,35.156,8.301,0
1506463355.251,60.547,41.016,49.805,41.016,-7.812,0
1506463355.255,60.547,42.969,43.457,43.945,2.441,0
1506463355.258,56.152,34.668,33.691,41.992,16.113,0
1506463355.262,74.707,40.527,16.602,57.617,-14.160,0
1506463355.266,85.938,40.527,36.133,66.406,-18.066,0
1506463355.270,55.176,8.301,42.969,39.551,18.066,0
1506463355.274,46.875,10.742,31.250,28.320,23.926,0
1506463355.278,57.617,30.762,39.062,36.133,35.645,0
1506463355.282,51.758,24.902,40.527,31.250,36.621,0
1506463355.286,44.434,24.414,41.016,23.926,10.742,0
1506463355.290,57.617,39.062,51.270,36.133,22.461,0
1506463355.294,55.176,40.039,43.457,32.227,39.551,0
1506463355.297,41.504,31.738,15.137,26.855,10.742,0
1506463355.301,35.645,29.785,12.695,30.762,-0.488,0
1506463355.305,47.363,42.969,35.156,39.551,22.461,0
1506463355.309,44.922,31.250,28.320,28.809,-28.320,0
1506463355.313,28.809,10.254,16.113,14.648,-12.695,0
1506463355.317,37.598,23.926,29.785,28.809,37.598,0
1506463355.321,56.152,42.480,56.152,43.945,-4.883,0
1506463355.325,60.547,32.715,59.082,41.016,-28.809,0
1506463355.329,46.875,18.555,40.039,27.832,8.789,0
1506463355.333,36.621,15.625,30.762,21.484,42.480,0
1506463355.337,41.992,15.137,25.391,24.902,27.832,0
1506463355.340,60.059,31.250,20.020,42.480,25.391,0
1506463355.344,71.289,38.086,16.602,55.664,23.926,0
1506463355.348,56.152,3.418,17.578,41.016,29.297,0
1506463355.352,30.762,-13.184,10.254,17.090,23.926,0
1506463355.356,40.039,13.672,28.809,24.414,-0.488,0
1506463355.360,42.480,13.672,34.668,25.879,8.789,0
1506463355.364,32.227,13.672,20.020,19.043,12.695,0
1506463355.368,30.762,24.414,31.738,20.508,20.020,0
1506463355.372,27.344,26.855,38.574,20.996,48.828,0
1506463355.376,28.320,19.531,41.016,21.484,50.781,0
1506463355.380,33.691,19.043,39.551,17.578,49.316,0
1506463355.383,29.785,20.508,26.855,13.184,48.828,0
1506463355.387,23.926,12.695,20.020,14.648,31.250,0
1506463355.391,31.250,8.789,32.715,24.414,22.461,0
1506463355.395,36.133,15.137,25.391,30.762,-7.324,0
1506463355.399,44.434,32.227,0.488,40.527,-27.344,0
1506463355.403,32.715,24.414,-3.418,26.367,11.719,0
1506463355.407,26.367,-0.488,20.020,13.184,48.828,0
1506463355.411,53.223,0.977,54.688,35.156,20.508,0
1506463355.415,50.781,1.953,33.203,37.598,-9.277,0
1506463355.419,50.781,17.578,33.691,41.504,6.836,0
1506463355.422,40.527,31.250,40.039,29.785,30.273,0
1506463355.426,27.344,28.320,38.086,14.648,15.137,0
1506463355.430,31.250,28.320,49.805,13.672,-6.836,0
1506463355.434,45.410,39.062,56.152,23.926,7.812,0
1506463355.438,46.387,42.480,54.688,29.297,4.883,0
1506463355.442,36.621,32.227,47.363,28.809,-9.277,0
1506463355.446,37.109,28.320,41.504,34.180,1.953,0
1506463355.450,39.062,33.691,39.551,41.016,13.184,0
1506463355.454,47.363,40.527,45.410,51.758,20.996,0
1506463355.458,51.270,38.574,33.691,51.270,-1.465,0
1506463355.462,48.828,31.738,38.574,47.852,-2.441,0
1506463355.465,48.340,26.855,46.875,47.363,29.297,0
1506463355.469,47.852,25.879,26.367,41.016,40.527,0
1506463355.473,53.711,27.832,9.766,45.898,39.551,5
1506463355.477,58.594,27.344,19.043,54.199,25.391,0
1506463355.481,45.898,24.414,23.926,42.480,55.664,0
1506463355.485,41.992,20.996,22.949,35.645,32.715,0
1506463355.489,44.434,6.836,7.324,40.039,-4.395,0
1506463355.493,41.992,4.883,-6.348,42.480,23.926,0
1506463355.497,56.152,36.133,38.574,55.176,33.203,0
1506463355.501,83.008,53.711,79.102,78.613,8.789,0
1506463355.505,67.383,30.762,60.059,60.547,1.465,0
1506463355.508,42.969,20.508,38.086,31.250,29.785,0
1506463355.512,31.250,15.625,14.648,17.090,23.926,0
1506463355.516,29.785,11.230,-20.508,15.625,18.066,0
1506463355.520,53.223,25.879,-0.977,44.434,19.531,0
1506463355.524,52.246,21.973,40.039,51.758,33.691,0
1506463355.528,28.320,5.859,34.668,30.762,20.508,0
1506463355.532,27.832,23.438,42.969,28.809,10.742,0
1506463355.536,39.551,40.039,48.340,38.574,26.855,0
1506463355.540,42.480,36.621,33.203,40.039,-1.953,0
1506463355.544,38.574,29.297,22.461,39.551,-9.766,0
1506463355.547,59.082,41.504,44.434,62.988,16.602,0
1506463355.551,60.547,40.039,47.363,65.430,21.484,0
1506463355.555,37.109,22.949,11.230,40.039,42.969,0
1506463355.559,27.832,17.090,-6.348,29.785,39.062,0
1506463355.563,34.180,22.461,2.441,40.527,-0.977,0
1506463355.567,36.133,20.020,5.859,41.504,-13.184,0
1506463355.571,33.691,13.184,20.508,41.016,31.738,0
1506463355.575,40.527,14.648,30.273,51.270,46.387,0
1506463355.579,29.297,-0.488,11.719,36.133,35.645,0
1506463355.583,33.691,-5.859,15.625,35.156,35.156,0
1506463355.587,25.391,-5.859,-13.184,27.344,16.602,0
1506463355.590,39.551,6.348,-5.859,39.551,23.926,0
1506463355.594,74.707,26.367,20.020,70.312,-9.766,0
1506463355.598,48.340,13.672,1.953,46.387,4.883,0
1506463355.602,25.879,13.184,18.555,23.438,41.992,0
1506463355.606,30.273,26.855,21.484,28.809,8.789,0
1506463355.610,33.203,17.578,17.578,28.320,-14.160,0
1506463355.614,49.316,16.602,48.340,36.621,10.254,0
1506463355.618,67.871,30.762,26.367,57.129,20.020,0
1506463355.622,71.289,44.922,6.348,69.336,-2.441,0
1506463355.626,37.598,25.391,44.434,41.992,7.812,0
1506463355.630,27.344,17.578,64.453,31.250,32.227,0
1506463355.633,35.645,25.879,55.176,33.691,41.016,0
1506463355.637,33.691,18.066,48.340,25.879,27.344,0
1506463355.641,29.785,4.883,34.668,20.996,29.785,0
1506463355.645,30.273,12.207,23.438,24.902,42.969,0
1506463355.649,44.922,33.691,33.203,41.016,46.875,0
1506463355.653,41.992,24.414,27.832,40.039,14.160,0
1506463355.657,58.105,28.320,28.320,57.617,20.020,0
1506463355.661,65.430,34.668,30.762,59.082,54.199,0
1506463355.665,57.129,33.203,33.691,44.434,20.508,0
1506463355.669,67.871,42.480,62.500,55.664,13.184,0
1506463355.672,58.594,29.297,46.875,49.805,22.949,0
1506463355.676,50.781,33.691,38.086,41.504,9.277,0
1506463355.680,34.668,27.344,30.273,24.902,18.555,0
1506463355.684,34.180,21.973,25.879,24.902,12.695,0
1506463355.688,43.945,21.973,55.664,29.297,23.926,0
1506463355.692,25.391,-3.418,34.180,6.836,31.250,0
1506463355.696,53.711,14.648,30.762,38.086,12.695,0
1506463355.700,60.059,28.809,47.363,51.270,41.504,0
1506463355.704,15.625,6.836,4.395,12.207,54.688,0
1506463355.708,27.832,7.812,-12.695,21.973,40.039,0
1506463355.712,54.688,21.484,20.996,48.340,-1.465,0
1506463355.715,37.109,5.371,19.531,30.762,-8.789,0
1506463355.719,32.227,9.277,28.320,24.414,21.973,0
1506463355.723,33.691,27.344,43.457,33.691,28.809,0
1506463355.727,23.926,20.020,29.297,25.391,-20.996,0
1506463355.731,28.320,19.531,22.949,19.531,-27.344,0
1506463355.735,35.645,22.949,31.250,21.973,0.488,0
1506463355.739,34.180,20.020,38.574,25.879,5.859,0
1506463355.743,45.410,29.297,39.062,43.457,17.090,0
1506463355.747,67.871,36.621,40.039,63.965,16.602,0
1506463355.751,89.844,25.391,74.707,83.496,44.922,0
1506463355.755,92.773,34.668,76.172,81.543,44.922,0
1506463355.758,49.316,31.738,5.371,35.156,42.480,0
1506463355.762,27.344,30.762,2.930,19.531,34.180,0
1506463355.766,3.418,-1.465,3.906,-1.953,37.109,0
1506463355.770,18.555,-1.953,-1.953,12.695,28.809,0
1506463355.774,59.082,52.246,55.176,58.105,-1.953,0
1506463355.778,28.320,20.996,33.691,31.250,41.016,0
1506463355.782,55.664,24.902,0.977,56.641,73.242,0
1506463355.786,91.797,52.734,45.410,90.820,51.270,0
1506463355.790,29.785,9.277,42.969,32.715,19.531,0
1506463355.794,24.414,-4.395,40.527,24.414,14.648,0
1506463355.797,54.688,-0.977,54.688,50.781,37.598,0
1506463355.801,49.805,17.578,43.457,43.457,53.711,0
1506463355.805,32.227,28.320,13.672,15.625,59.570,0
1506463355.809,33.203,32.227,4.883,16.113,100.586,0
1506463355.813,30.273,31.250,6.348,25.879,90.820,0
1506463355.817,47.363,41.992,38.574,42.969,64.453,0
1506463355.821,52.246,45.898,55.176,52.246,53.711,0
1506463355.825,44.434,30.762,36.621,47.363,47.852,0
1506463355.829,59.082,40.039,14.648,51.270,61.523,0
1506463355.833,41.016,28.809,-6.348,23.926,20.508,0
1506463355.837,42.480,14.160,28.320,17.090,26.367,0
1506463355.840,64.453,18.555,34.180,33.691,65.918,0
1506463355.844,65.918,17.578,16.602,33.203,50.781,0
1506463355.848,39.062,0.000,25.391,11.719,45.898,0
1506463355.852,28.320,-0.977,45.410,5.859,42.480,0
1506463355.856,53.711,28.320,51.758,24.414,55.664,0
1506463355.860,53.223,35.645,36.621,15.137,51.758,0
1506463355.864,29.785,21.973,20.508,-9.277,35.156,0
1506463355.868,17.578,17.578,15.625,-13.672,25.391,0
1506463355.872,50.293,23.438,0.000,29.785,23.438,0
1506463355.876,80.566,34.180,-28.809,67.383,29.297,0
1506463355.880,35.645,15.625,-18.066,15.137,32.715,0
1506463355.883,14.160,3.906,43.457,-20.508,48.340,0
1506463355.887,46.875,26.367,76.660,16.602,48.340,0
1506463355.891,40.527,27.344,68.848,22.461,49.805,0
1506463355.895,-2.930,6.836,41.504,-14.160,45.898,0
1506463355.899,1.953,19.531,40.039,-6.348,42.480,0
1506463355.903,18.066,24.902,33.691,8.301,62.988,0
1506463355.907,21.484,29.785,25.391,11.230,45.410,0
1506463355.911,23.926,21.973,0.488,14.648,3.418,0
1506463355.915,13.184,-4.395,-23.438,0.977,29.297,0
1506463355.919,17.090,12.695,18.066,9.766,65.918,0
1506463355.922,35.645,32.715,6.348,32.715,7.324,0
1506463355.926,44.434,14.160,-17.090,40.039,9.277,0
1506463355.930,38.086,2.930,23.926,34.180,66.895,0
1506463355.934,31.250,7.324,38.574,25.879,54.199,0
1506463355.938,19.531,-2.930,39.551,10.254,39.062,0
1506463355.942,27.344,-20.508,7.812,16.113,56.641,0
1506463355.946,36.133,-20.508,-33.203,21.484,77.637,0
1506463355.950,33.203,9.277,10.254,20.020,62.988,0
1506463355.954,36.621,22.949,35.645,23.438,37.598,0
1506463355.958,38.574,31.250,25.391,30.273,54.199,0
1506463355.962,25.391,25.879,42.480,26.367,46.875,0
1506463355.965,31.250,24.414,52.246,25.879,40.039,0
1506463355.969,30.762,19.531,29.785,20.996,45.410,0
1506463355.973,15.137,7.324,12.207,13.672,52.734,0
1506463355.977,18.066,11.719,18.066,20.508,66.895,0
1506463355.981,12.207,-2.441,-5.859,15.137,37.598,0
1506463355.985,1.953,-14.648,-19.043,2.930,25.391,0
1506463355.989,33.203,16.113,17.090,29.785,42.480,0
1506463355.993,43.457,14.648,14.648,40.527,56.641,0
1506463355.997,28.320,-6.348,3.418,22.949,40.527,0
1506463356.001,43.457,19.043,36.133,40.039,24.902,0
1506463356.005,31.250,8.789,32.715,30.762,58.105,0
1506463356.008,18.066,1.953,36.133,14.648,66.406,0
1506463356.012,8.301,8.789,31.738,7.324,32.227,0
1506463356.016,4.883,14.160,13.184,7.324,60.547,0
1506463356.020,1.953,7.324,11.719,0.977,86.914,0
1506463356.024,5.859,4.883,22.461,8.301,82.520,0
1506463356.028,20.508,10.254,29.297,18.066,55.176,0
1506463356.032,30.762,13.184,28.320,16.113,56.641,0
1506463356.036,36.133,19.531,35.645,27.832,76.660,0
1506463356.040,38.574,21.484,14.648,37.109,55.176,0
1506463356.044,43.945,21.484,-4.395,42.480,64.941,0
1506463356.047,52.246,25.879,8.301,53.711,86.426,0
1506463356.051,53.711,25.879,1.465,49.805,63.965,0
1506463356.055,29.297,0.977,-1.953,24.414,47.363,0
1506463356.059,3.906,-13.672,12.207,-4.883,41.504,0
1506463356.063,11.230,9.766,48.828,-0.977,64.453,0
1506463356.067,25.391,10.254,67.383,13.672,91.309,0
1506463356.071,26.367,-15.625,32.227,19.531,57.129,0
1506463356.075,36.621,11.230,14.648,38.086,15.137,0
1506463356.079,46.875,53.223,39.062,47.363,45.410,0
1506463356.083,37.598,42.480,12.207,41.992,75.195,0
1506463356.087,23.926,15.137,-18.066,32.227,51.758,0
1506463356.090,8.301,6.348,18.066,11.230,37.598,0
1506463356.094,1.953,9.277,29.297,-1.465,82.520,0
1506463356.098,0.977,6.836,2.930,-0.977,64.941,0
1506463356.102,15.625,16.602,3.418,16.602,20.996,0
1506463356.106,30.762,5.371,15.137,32.227,13.672,0
1506463356.110,49.805,1.953,1.465,45.410,53.711,0
1506463356.114,50.293,19.043,3.418,45.410,59.082,0
1506463356.118,36.621,20.996,8.789,33.691,28.320,0
1506463356.122,26.855,8.301,3.906,27.832,45.898,0
1506463356.126,21.484,0.488,17.090,28.809,70.312,0
1506463356.130,38.574,21.973,38.574,40.039,28.809,0
1506463356.133,31.250,22.949,34.180,29.297,35.645,0
1506463356.137,29.297,22.461,36.621,31.738,67.383,0
1506463356.141,25.879,19.043,34.668,33.203,51.270,0
1506463356.145,25.391,16.602,18.555,32.227,47.363,0
1506463356.149,32.715,28.320,0.488,45.898,49.805,0
1506463356.153,27.344,20.508,-36.621,44.434,49.805,0
1506463356.157,47.852,16.113,-38.086,61.523,61.523,0
1506463356.161,59.570,26.367,21.484,68.848,68.848,0
1506463356.165,47.852,24.902,51.758,56.641,22.949,0
1506463356.169,33.203,4.395,53.711,49.316,40.039,0
1506463356.172,33.203,18.066,65.918,55.664,46.875,0
1506463356.176,44.922,49.805,70.312,70.312,23.438,0
1506463356.180,35.645,44.922,44.434,61.035,25.391,0
1506463356.184,35.645,35.645,31.250,58.594,52.246,0
1506463356.188,17.578,5.859,2.441,35.645,52.734,0
1506463356.192,20.020,10.254,-1.953,34.180,41.504,0
1506463356.196,33.203,27.344,10.742,45.898,47.852,0
1506463356.200,31.738,25.879,6.348,44.434,59.570,0
1506463356.204,41.504,32.715,24.902,55.176,86.426,0
1506463356.208,42.480,23.926,29.297,52.734,43.945,0
1506463356.212,51.270,30.762,21.973,59.082,28.320,0
1506463356.215,57.129,30.273,15.137,67.871,51.270,0
1506463356.219,44.434,14.648,26.367,57.129,42.969,0
1506463356.223,36.133,20.020,39.062,49.316,27.344,0
1506463356.227,20.508,10.742,27.832,37.109,48.828,0
1506463356.231,26.367,12.695,28.320,42.480,91.309,0
1506463356.235,55.664,29.785,48.340,65.430,84.961,0
1506463356.239,46.875,13.672,21.973,48.828,75.684,0
1506463356.243,21.484,-10.742,-13.672,28.320,64.941,0
1506463356.247,40.527,5.371,12.695,50.293,66.406,0
1506463356.251,54.199,21.484,5.371,64.453,55.176,0
1506463356.255,60.547,35.645,12.695,77.637,11.230,0
1506463356.258,49.316,30.762,36.133,72.266,33.203,0
1506463356.262,35.645,23.438,37.109,58.105,80.078,0
1506463356.266,40.527,26.367,39.551,56.641,41.504,0
1506463356.270,41.992,24.414,38.086,52.734,28.809,0
1506463356.274,45.898,25.879,40.527,52.734,62.012,0
1506463356.278,70.312,39.551,56.641,76.660,60.059,0
1506463356.282,89.355,55.176,60.547,97.168,49.316,0
1506463356.286,68.359,25.391,-11.230,75.195,31.250,0
1506463356.290,63.477,17.090,8.301,69.824,25.879,0
1506463356.294,41.992,-6.348,22.949,41.504,43.945,0
1506463356.297,45.898,13.672,18.066,47.852,20.508,0
1506463356.301,55.176,55.176,64.453,65.918,4.883,0
1506463356.305,31.738,41.992,59.570,38.086,53.711,0
1506463356.309,30.762,40.039,56.641,34.668,70.801,0
1506463356.313,33.691,29.785,49.316,41.016,63.965,0
1506463356.317,33.691,7.812,-10.742,40.039,40.527,0
1506463356.321,45.410,11.230,-3.906,44.434,30.762,0
1506463356.325,46.387,24.902,53.223,42.480,52.734,0
1506463356.329,35.156,21.484,44.922,31.738,51.758,0
1506463356.333,18.555,10.254,21.973,16.113,51.270,0
1506463356.337,9.277,5.371,15.625,12.207,68.848,0
1506463356.340,26.367,15.625,20.996,34.180,49.316,0
1506463356.344,23.438,8.789,1.953,37.109,-7.812,0
1506463356.348,17.090,0.000,-0.977,31.250,25.879,0
1506463356.352,46.387,23.926,48.828,59.082,77.148,0
1506463356.356,80.566,53.711,77.637,94.238,61.035,0
1506463356.360,77.637,37.109,41.504,87.891,50.293,0
1506463356.364,36.133,-14.648,12.207,41.016,39.062,0
1506463356.368,28.320,-7.324,40.039,28.320,45.410,0
1506463356.372,19.043,3.418,22.949,18.555,60.547,0
1506463356.376,19.531,2.930,7.812,20.020,48.340,0
1506463356.380,40.039,18.555,14.160,36.621,64.941,0
1506463356.383,53.223,24.414,33.691,51.270,74.707,0
1506463356.387,38.574,-11.719,6.836,37.109,18.066,0
1506463356.391,71.777,15.137,7.324,70.801,1.465,0
1506463356.395,117.188,65.918,85.938,112.305,32.227,0
1506463356.399,62.500,38.086,53.711,53.711,34.668,0
1506463356.403,26.367,25.879,22.461,16.602,25.391,0
1506463356.407,20.020,21.973,33.691,10.742,14.160,0
1506463356.411,28.320,23.438,32.715,28.320,32.715,0
1506463356.415,37.598,28.320,26.367,46.387,37.109,0
1506463356.419,63.965,50.293,17.578,67.871,31.250,0
1506463356.422,60.547,42.969,19.531,63.477,50.293,0
1506463356.426,33.691,8.301,9.766,34.180,54.688,0
1506463356.430,51.758,20.508,-5.859,42.969,18.555,0
1506463356.434,65.918,26.367,20.508,60.059,-4.395,0
1506463356.438,35.645,-8.789,20.020,29.785,46.387,0
1506463356.442,45.410,18.066,41.992,38.574,50.293,0
1506463356.446,51.758,16.113,57.617,49.805,17.578,0
1506463356.450,43.945,6.348,37.598,41.016,18.555,0
1506463356.454,48.340,27.832,20.996,44.922,29.785,0
1506463356.458,31.738,19.043,5.859,34.668,57.129,0
1506463356.462,20.996,22.949,26.855,24.902,54.688,0
1506463356.465,27.344,29.297,41.504,26.367,16.113,0
1506463356.469,65.918,50.781,57.617,69.336,42.969,0
1506463356.473,51.270,37.109,38.086,58.594,48.828,0
1506463356.477,25.391,25.879,17.090,30.273,23.438,0
1506463356.481,12.695,15.137,25.879,15.137,23.438,0
1506463356.485,-2.441,-5.859,18.066,-0.488,56.641,0
1506463356.489,29.785,18.066,28.320,33.203,55.664,0
1506463356.493,44.434,29.297,37.598,48.340,30.762,0
1506463356.497,29.785,14.648,13.184,29.785,30.762,0
1506463356.501,41.504,6.348,0.977,34.180,63.965,0
1506463356.505,78.613,31.250,23.438,71.289,55.176,0
1506463356.508,76.660,52.734,49.805,72.754,20.508,0
1506463356.512,-4.395,-5.859,6.348,-4.883,28.809,0
1506463356.516,-7.324,-25.879,12.695,-15.137,20.508,0
1506463356.520,33.203,-8.789,19.531,13.184,31.738,0
1506463356.524,52.734,16.602,31.250,28.809,30.762,0
1506463356.528,54.199,35.645,55.664,34.668,13.672,0
1506463356.532,40.039,28.809,33.691,31.250,36.621,0
1506463356.536,42.969,27.344,15.137,33.203,32.227,0
1506463356.540,43.457,27.832,26.855,26.367,14.648,0
1506463356.544,38.574,40.527,39.551,21.973,28.809,0
1506463356.547,39.551,45.410,26.367,23.438,45.898,0
1506463356.551,31.738,31.250,34.668,19.531,39.551,0
1506463356.555,24.414,17.090,35.645,12.695,19.531,0
1506463356.559,31.738,14.648,21.484,23.926,30.273,0
1506463356.563,46.387,26.855,34.180,44.434,53.711,0
1506463356.567,52.734,39.062,41.504,46.875,69.336,0
1506463356.571,32.227,19.043,-20.996,28.809,39.551,0
1506463356.575,47.852,3.906,-20.020,42.480,41.504,0
1506463356.579,48.828,-2.930,33.691,40.039,60.547,0
1506463356.583,29.297,4.883,41.992,22.461,25.879,0
1506463356.587,36.621,27.344,43.457,29.785,48.828,0
1506463356.590,32.227,21.973,50.781,23.926,71.289,0
1506463356.594,25.879,20.508,47.852,26.367,36.621,0
1506463356.598,0.977,5.859,-37.598,12.207,24.902,0
1506463356.602,14.648,8.789,-19.043,20.508,51.758,0
1506463356.606,60.547,35.645,77.148,60.059,35.156,0
1506463356.610,32.715,-9.766,47.363,30.762,18.555,0
1506463356.614,9.277,-33.691,20.996,2.930,12.695,0
1506463356.618,5.371,-3.906,12.695,-0.977,14.160,0
1506463356.622,5.859,7.324,-19.531,-2.441,31.738,0
1506463356.626,39.062,38.574,-21.973,35.645,21.973,0
1506463356.630,6.836,25.879,-21.973,11.719,-9.766,0
1506463356.633,-12.695,7.812,5.859,-18.066,10.742,0
1506463356.637,14.160,23.438,48.340,4.883,46.875,0
1506463356.641,28.320,28.809,59.570,32.227,37.109,0
1506463356.645,19.043,2.930,13.672,15.137,19.043,0
1506463356.649,18.066,-3.418,16.113,-0.488,33.691,0
1506463356.653,37.598,24.902,18.555,20.508,25.879,0
1506463356.657,38.574,13.184,-33.203,26.367,16.113,0
1506463356.661,20.996,-4.395,-10.742,12.695,22.461,0
1506463356.665,39.551,30.273,55.176,29.297,26.367,0
1506463356.669,34.668,25.879,47.852,26.367,20.020,0
1506463356.672,21.484,8.789,27.344,15.137,5.859,0
1506463356.676,32.227,25.391,44.434,25.391,-5.859,0
1506463356.680,29.785,20.508,39.062,17.090,19.531,0
1506463356.684,43.945,20.020,28.809,29.297,49.805,0
1506463356.688,37.598,3.418,0.488,27.344,34.668,0
1506463356.692,25.391,-4.395,-11.230,18.066,26.367,0
1506463356.696,38.086,13.184,12.695,30.762,52.734,0
1506463356.700,38.086,-4.883,22.949,28.809,34.668,0
1506463356.704,30.762,0.977,20.996,21.973,-1.953,0
1506463356.708,32.715,35.645,32.227,24.902,11.230,0
1506463356.712,40.039,29.297,35.645,27.832,36.621,0
1506463356.715,29.297,-2.930,-16.113,17.578,22.461,0
1506463356.719,56.641,3.418,-18.066,46.875,3.418,0
1506463356.723,55.176,-20.020,0.488,41.992,21.484,0
1506463356.727,0.488,-36.621,4.883,-10.254,41.016,0
1506463356.731,-6.348,1.465,38.574,-12.207,18.555,0
1506463356.735,19.531,37.598,66.895,13.184,-6.348,0
1506463356.739,26.855,44.434,46.387,16.602,21.484,0
1506463356.743,15.137,22.461,7.812,4.883,48.828,0
1506463356.747,41.992,31.250,33.203,40.039,22.949,0
1506463356.751,47.363,36.133,41.504,47.852,12.695,0
1506463356.755,20.508,23.926,31.738,21.484,22.949,0
1506463356.758,43.945,6.348,18.066,40.527,15.625,0
1506463356.762,59.570,-9.766,9.277,54.199,10.742,0
1506463356.766,30.762,-0.977,42.969,32.715,-13.184,0
1506463356.770,15.625,7.812,50.293,19.043,28.809,0
1506463356.774,36.621,37.598,51.758,34.668,65.430,0
1506463356.778,38.086,33.691,16.602,34.668,36.133,0
1506463356.782,53.711,28.809,-9.277,48.340,18.555,0
1506463356.786,64.453,54.688,27.344,58.105,18.555,0
1506463356.790,35.645,39.551,46.387,28.320,20.996,0
1506463356.794,16.113,7.812,25.391,11.230,9.766,0
1506463356.797,31.738,18.066,44.434,30.273,8.301,0
1506463356.801,67.383,33.203,67.383,61.035,9.766,0
1506463356.805,28.809,-20.996,6.836,20.508,4.883,0
1506463356.809,27.832,-15.625,7.324,22.949,-25.391,0
1506463356.813,62.012,10.254,2.441,60.547,6.348,0
1506463356.817,51.758,-10.742,-25.879,50.781,37.598,0
1506463356.821,41.504,-6.348,1.953,39.551,4.883,0
1506463356.825,44.922,35.645,22.461,41.504,20.996,0
1506463356.829,16.113,24.414,13.672,12.207,14.648,0
1506463356.833,32.715,30.273,33.691,39.551,-8.301,0
1506463356.837,49.316,28.320,32.227,58.594,-2.441,0
1506463356.840,20.996,8.789,3.418,27.344,13.184,0
1506463356.844,8.789,21.973,29.297,20.020,8.301,0
1506463356.848,33.691,20.508,38.574,48.340,-11.230,0
1506463356.852,61.523,17.090,33.203,73.730,-48.828,0
1506463356.856,31.250,22.949,31.738,41.504,-35.156,0
1506463356.860,16.113,34.180,14.648,29.785,-3.418,0
1506463356.864,26.855,37.598,-1.465,42.480,-10.742,0
1506463356.868,37.598,9.766,-16.113,46.875,-5.371,0
1506463356.872,71.289,10.254,5.859,81.055,12.695,0
1506463356.876,55.664,21.973,33.203,74.707,24.902,0
1506463356.880,32.715,5.859,20.020,48.828,-1.465,0
1506463356.883,48.340,10.742,54.199,54.688,20.508,0
1506463356.887,17.090,10.254,48.340,24.414,27.344,0
1506463356.891,-3.418,11.230,-26.855,7.812,12.207,0
1506463356.895,22.949,35.645,-0.977,35.645,5.859,0
1506463356.899,23.438,18.066,29.297,36.621,1.953,0
1506463356.903,54.199,29.785,53.223,61.523,17.578,0
1506463356.907,63.965,47.363,63.965,69.336,10.254,0
1506463356.911,43.945,32.715,37.598,49.316,-11.719,0
1506463356.915,34.668,20.020,15.625,46.875,-33.203,0
1506463356.919,9.766,16.113,5.859,24.414,-10.254,0
1506463356.922,32.227,49.316,31.250,42.969,14.648,0
1506463356.926,49.316,41.504,-5.859,59.082,-11.230,0
1506463356.930,59.082,28.320,-52.246,63.965,-6.348,0
1506463356.934,62.988,17.578,10.742,65.918,50.293,0
1506463356.938,57.617,-0.977,88.379,59.082,23.926,0
1506463356.942,49.316,9.277,64.941,55.176,6.836,0
1506463356.946,16.113,4.395,17.090,26.855,29.785,0
1506463356.950,42.480,1.465,49.316,50.293,34.180,0
1506463356.954,60.059,5.859,50.781,62.500,7.812,0
1506463356.958,50.781,29.297,34.668,52.734,-12.695,0
1506463356.962,22.949,24.902,4.395,23.438,16.602,0
1506463356.965,7.324,30.762,-16.113,-5.371,11.230,0
1506463356.969,29.785,53.223,-18.066,11.230,12.207,0
1506463356.973,67.383,35.645,-14.160,54.688,3.906,0
1506463356.977,69.336,8.789,22.949,64.941,0.977,0
1506463356.981,15.137,9.277,21.973,15.625,-8.301,0
1506463356.985,9.277,31.250,29.297,4.883,-33.691,0
1506463356.989,43.945,52.734,47.363,35.156,-30.273,0
1506463356.993,55.664,35.645,50.293,44.434,-21.484,0
1506463356.997,40.039,4.395,38.574,24.414,-17.578,0
1506463357.001,20.020,-6.348,-2.441,1.465,-21.484,0
1506463357.005,26.367,1.465,-31.250,5.859,-32.715,0
1506463357.008,27.832,-2.441,-46.387,12.207,-0.488,0
1506463357.012,53.711,8.789,-8.789,43.945,9.766,0
1506463357.016,54.688,-2.930,9.277,45.410,-6.836,0
1506463357.020,27.832,-5.371,-1.465,20.020,-15.137,0
1506463357.024,23.438,8.301,24.902,16.113,3.906,0
1506463357.028,32.715,23.926,51.758,21.484,28.809,0
1506463357.032,66.406,45.898,73.730,53.711,-5.371,0
1506463357.036,43.945,20.996,39.551,35.156,-46.875,0
1506463357.040,2.930,2.930,8.789,-6.836,-20.020,0
1506463357.044,38.574,-7.324,20.996,20.508,-2.441,0
1506463357.047,81.055,-6.836,25.391,61.035,-30.273,0
1506463357.051,47.852,5.371,-23.926,30.273,-28.320,0
1506463357.055,55.664,27.344,-16.113,40.527,-8.301,0
1506463357.059,85.449,64.453,64.941,76.172,-12.207,0
1506463357.063,23.438,48.828,48.340,15.137,0.977,0
1506463357.067,10.254,33.203,42.969,-0.977,-6.348,0
1506463357.071,53.223,16.602,86.914,37.109,-12.695,0
1506463357.075,93.750,23.438,94.238,74.707,-14.160,0
1506463357.079,71.777,18.066,-6.836,56.641,-22.949,0
1506463357.083,26.367,-1.465,-75.684,9.766,-28.809,0
1506463357.087,22.461,15.137,-16.602,2.930,-21.973,0
1506463357.090,32.715,47.852,49.805,11.719,-31.250,0
1506463357.094,53.223,64.941,68.359,37.109,-54.199,0
1506463357.098,50.781,56.152,63.477,44.434,-16.602,0
1506463357.102,45.898,52.734,72.266,43.945,-15.137,0
1506463357.106,17.090,24.902,37.598,14.648,-11.719,0
1506463357.110,20.996,20.020,22.461,12.695,0.000,0
1506463357.114,37.109,2.441,0.977,22.949,-12.695,0
1506463357.118,30.273,-3.906,-24.414,16.602,-13.672,0
1506463357.122,58.105,37.109,25.879,41.504,-28.320,0
1506463357.126,39.062,-4.395,-5.371,21.484,-2.441,0
1506463357.130,30.273,-30.762,-43.945,19.531,32.227,0
1506463357.133,56.152,17.090,19.531,45.898,16.113,0
1506463357.137,28.809,19.043,49.316,14.160,-25.391,0
1506463357.141,34.668,5.371,51.758,18.555,-14.160,0
1506463357.145,64.453,19.043,32.227,49.805,17.578,0
1506463357.149,16.602,14.648,-5.371,4.395,24.902,0
1506463357.153,-15.137,2.441,-14.648,-28.809,-8.789,0
1506463357.157,24.414,21.484,13.184,7.324,-18.555,0
1506463357.161,52.246,22.949,53.711,32.715,19.531,0
1506463357.165,31.250,-6.348,24.902,14.160,23.438,0
1506463357.169,17.578,-15.625,-25.879,5.371,-21.484,0
1506463357.172,13.672,-15.137,-23.438,5.859,-28.809,0
1506463357.176,33.203,6.836,32.227,21.973,-25.879,0
1506463357.180,48.828,44.922,56.641,36.133,-53.223,0
1506463357.184,38.574,17.090,9.766,25.879,-45.410,0
1506463357.188,32.227,-7.324,15.625,13.672,-6.348,0
1506463357.192,19.043,15.625,23.438,-1.953,12.695,0
1506463357.196,34.668,31.250,32.227,16.113,0.000,0
1506463357.200,52.734,38.574,50.781,34.180,-23.926,0
1506463357.204,26.367,14.648,29.297,9.277,-22.949,0
1506463357.208,16.113,-3.906,22.949,4.883,-15.625,0
1506463357.212,11.719,1.953,14.648,3.906,-4.883,0
1506463357.215,10.742,2.930,-45.898,-4.395,-4.883,0
1506463357.219,51.270,-1.465,-61.523,30.273,-15.137,0
1506463357.223,68.848,8.789,8.789,47.852,-12.207,0
1506463357.227,75.684,26.367,57.129,55.176,-17.090,0
1506463357.231,76.172,33.203,76.660,62.500,-41.504,0
1506463357.235,16.602,11.719,39.551,6.348,-20.020,0
1506463357.239,-3.418,-1.465,21.973,-16.113,9.277,0
1506463357.243,11.719,1.465,15.137,-0.488,-12.695,0
1506463357.247,29.297,19.043,20.996,18.555,8.301,0
1506463357.251,31.250,19.531,37.109,25.391,19.531,0
1506463357.255,39.551,-0.977,-10.742,25.879,-33.203,0
1506463357.258,45.410,-16.113,-38.574,26.367,-19.043,0
1506463357.262,56.152,17.090,29.785,44.434,10.742,0
1506463357.266,53.223,40.527,56.152,45.898,16.113,0
1506463357.270,36.133,12.207,25.879,37.598,-1.465,0
1506463357.274,34.180,-12.207,9.766,42.969,-53.223,0
1506463357.278,24.902,7.812,32.715,26.855,-36.621,0
1506463357.282,-2.441,31.250,42.969,0.977,-3.418,0
1506463357.286,24.414,52.246,32.715,28.320,18.555,0
1506463357.290,47.363,50.293,42.969,46.875,-9.766,0
1506463357.294,21.973,26.367,23.926,18.066,-1.953,0
1506463357.297,9.766,15.625,3.906,-1.465,27.832,0
1506463357.301,39.062,35.156,39.551,31.250,18.555,0
1506463357.305,72.266,47.852,49.805,65.430,21.973,0
1506463357.309,62.500,23.926,14.160,48.340,6.348,0
1506463357.313,42.480,16.602,17.578,28.809,5.371,0
1506463357.317,40.039,15.625,32.715,36.133,-3.906,0
1506463357.321,94.727,25.391,66.895,93.262,5.371,0
1506463357.325,90.820,12.695,57.617,88.867,15.137,0
1506463357.329,20.508,4.395,6.348,18.066,-2.930,0
1506463357.333,4.883,20.996,-25.391,0.000,6.836,0
1506463357.337,-16.602,-6.836,-23.926,-23.926,40.527,0
1506463357.340,-3.906,5.859,49.805,-7.812,60.059,0
1506463357.344,20.020,20.996,56.152,15.625,50.293,0
1506463357.348,17.578,2.930,5.371,9.766,39.062,0
1506463357.352,23.438,15.137,4.883,17.578,40.039,0
1506463357.356,52.246,31.738,55.176,48.828,37.598,0
1506463357.360,80.566,43.457,60.547,82.031,19.043,0
1506463357.364,39.551,22.949,17.090,43.457,10.254,0
1506463357.368,17.090,16.602,29.297,22.461,27.832,0
1506463357.372,21.484,10.254,31.250,21.973,38.574,0
1506463357.376,26.367,5.859,16.113,15.625,25.879,0
1506463357.380,63.477,37.598,38.574,54.199,1.953,0
1506463357.383,73.730,37.598,44.922,66.895,6.836,0
1506463357.387,52.734,33.203,15.137,45.898,42.480,0
1506463357.391,53.223,47.852,16.602,46.875,31.738,0
1506463357.395,52.246,42.969,67.383,44.434,-2.441,0
1506463357.399,26.367,29.785,61.523,17.578,16.113,0
1506463357.403,21.973,30.762,29.785,11.719,18.066,0
1506463357.407,31.250,40.039,37.109,21.973,-4.883,0
1506463357.411,24.902,30.273,35.645,15.625,8.789,0
1506463357.415,28.320,17.578,22.461,14.160,8.301,0
1506463357.419,41.016,23.926,15.137,20.508,6.836,0
1506463357.422,39.062,29.297,12.207,14.160,10.742,0
1506463357.426,35.156,20.020,1.953,14.160,-19.531,0
1506463357.430,57.617,37.598,12.207,43.457,0.488,0
1506463357.434,57.129,32.715,48.340,44.922,25.879,0
1506463357.438,54.688,12.207,39.551,43.945,5.859,0
1506463357.442,85.938,46.387,18.555,72.754,-0.977,0
1506463357.446,60.547,41.992,-4.395,51.758,35.156,0
1506463357.450,50.781,27.344,15.625,51.270,49.316,0
1506463357.454,42.969,15.137,0.977,41.992,25.391,0
1506463357.458,15.137,2.441,-17.578,14.648,10.742,0
1506463357.462,21.973,27.344,46.387,29.297,32.715,0
1506463357.465,26.855,33.691,41.992,31.738,37.109,0
1506463357.469,37.109,29.785,49.316,37.109,-15.137,0
1506463357.473,51.758,31.250,60.547,56.152,-30.273,0
1506463357.477,29.785,20.020,20.996,39.551,-14.648,0
1506463357.481,-1.953,10.742,2.930,10.742,20.020,0
1506463357.485,21.484,10.254,17.578,29.297,34.668,0
1506463357.489,55.664,33.691,53.711,65.918,21.484,0
1506463357.493,35.156,33.691,22.949,48.828,24.902,0
1506463357.497,0.000,3.906,-15.137,15.137,11.230,0
1506463357.501,22.461,21.484,14.648,36.133,11.230,0
1506463357.505,26.855,15.137,17.090,31.250,-5.371,0
1506463357.508,14.160,9.277,7.812,12.695,-10.254,0
1506463357.512,19.043,8.789,10.742,15.625,-24.414,0
1506463357.516,54.199,23.926,20.020,43.457,-20.508,0
1506463357.520,76.660,59.570,22.461,58.594,34.668,0
1506463357.524,50.293,46.387,21.484,35.156,48.340,0
1506463357.528,28.320,11.719,25.391,20.020,38.574,0
1506463357.532,39.062,20.020,22.949,39.062,13.184,0
1506463357.536,37.109,25.879,2.441,38.086,37.109,0
1506463357.540,60.059,37.598,4.883,60.059,46.387,0
1506463357.544,60.059,18.066,1.465,64.941,1.953,0
1506463357.547,47.852,-12.207,17.578,43.945,27.832,0
1506463357.551,69.824,25.391,70.312,67.383,44.434,0
1506463357.555,38.574,47.363,41.992,41.016,15.137,0
1506463357.559,26.367,24.902,18.066,17.090,12.695,0
1506463357.563,45.898,0.977,18.066,34.668,28.320,0
1506463357.567,46.875,26.367,11.719,37.598,52.246,0
1506463357.571,47.363,34.180,25.879,36.621,12.695,0
1506463357.575,50.293,32.227,19.043,39.551,-7.324,0
1506463357.579,35.156,39.062,25.879,24.414,38.574,0
1506463357.583,15.625,24.902,22.461,7.324,35.645,0
1506463357.587,29.785,24.414,33.203,20.996,-2.441,0
1506463357.590,42.480,18.066,31.738,32.227,-9.277,0
1506463357.594,35.645,16.113,9.766,23.438,22.949,0
1506463357.598,32.715,31.738,13.672,16.602,8.301,0
1506463357.602,85.449,61.523,41.504,74.219,-7.812,0
1506463357.606,70.312,25.391,9.766,68.359,-19.531,0
1506463357.610,9.766,-4.883,-3.418,7.324,20.996,0
1506463357.614,20.020,37.109,56.641,20.508,47.852,0
1506463357.618,14.648,41.504,20.508,14.160,26.855,0
1506463357.622,18.066,36.133,-3.906,13.184,6.348,0
1506463357.626,24.414,25.879,38.574,19.043,11.230,0
1506463357.630,33.203,35.645,43.945,27.832,2.441,0
1506463357.633,8.301,28.809,14.648,2.441,7.324,0
1506463357.637,10.254,16.113,4.395,0.488,35.156,0
1506463357.641,37.109,16.113,10.254,24.902,24.902,0
1506463357.645,37.598,14.648,-23.438,25.879,12.695,0
1506463357.649,31.738,18.066,-29.297,23.926,5.371,0
1506463357.653,15.625,2.930,19.043,7.812,2.930,0
1506463357.657,1.465,22.949,50.781,-8.789,32.715,0
1506463357.661,-39.551,20.508,10.742,-46.875,46.875,0
1506463357.665,-23.926,22.949,-2.441,-33.203,13.184,0
1506463357.669,32.715,56.641,33.203,15.625,11.230,0
1506463357.672,32.715,49.805,49.805,25.879,5.371,0
1506463357.676,-33.203,-0.977,-24.414,-16.113,-30.273,0
1506463357.680,-7.324,-3.418,-51.270,26.855,11.230,0
1506463357.684,46.875,22.949,-3.418,86.914,37.109,0
1506463357.688,-2.930,32.715,34.668,33.203,10.742,0
1506463357.692,-13.184,60.059,85.938,14.160,10.742,0
1506463357.696,-51.270,32.715,42.969,-22.461,11.719,0
1506463357.700,-86.914,-1.465,-1.953,-50.293,32.715,0
1506463357.704,-54.199,21.484,0.488,-13.184,36.133,0
1506463357.708,-45.898,27.344,0.977,-7.324,-5.371,0
1506463357.712,-32.227,28.320,17.090,0.000,2.441,0
1506463357.715,-13.184,15.137,17.090,14.648,18.066,0
1506463357.719,36.621,41.016,8.789,63.965,0.000,0
1506463357.723,13.672,30.762,4.883,48.340,3.418,0
1506463357.727,-49.805,-1.465,18.066,-10.254,0.000,0
1506463357.731,-25.879,41.992,35.645,5.859,16.113,0
1506463357.735,10.254,61.523,61.035,36.621,11.719,0
1506463357.739,10.742,21.973,58.105,36.621,3.906,0
1506463357.743,-12.695,20.020,32.227,11.719,3.906,0
1506463357.747,-25.879,23.926,14.160,-5.859,27.832,0
1506463357.751,42.480,25.391,1.953,55.176,5.371,0
1506463357.755,45.898,32.715,3.418,58.594,-15.625,0
1506463357.758,-9.277,28.809,30.273,1.953,10.254,0
1506463357.762,9.766,42.969,55.664,13.672,30.273,0
1506463357.766,40.039,45.898,74.707,48.828,0.000,0
1506463357.770,6.836,19.043,54.199,25.391,-5.859,0
1506463357.774,-36.621,-6.836,-2.930,-25.879,35.156,0
1506463357.778,-26.855,2.441,0.977,-19.531,47.363,0
1506463357.782,-5.859,1.953,1.953,0.000,11.719,0
1506463357.786,21.973,5.859,-36.621,20.020,12.207,0
1506463357.790,37.109,0.488,-29.785,34.180,22.461,0
1506463357.794,78.125,23.926,50.781,69.824,14.648,0
1506463357.797,61.035,42.969,76.660,57.617,39.062,0
1506463357.801,7.812,45.898,51.758,19.531,36.621,0
1506463357.805,-15.137,35.645,40.527,-3.906,17.090,0
1506463357.809,-16.602,23.438,28.809,-16.113,41.504,0
1506463357.813,10.254,29.297,30.762,7.812,46.387,0
1506463357.817,20.508,-13.184,32.227,18.555,28.320,0
1506463357.821,46.387,9.277,28.809,47.852,50.293,0
1506463357.825,60.059,38.086,11.230,62.500,23.438,0
1506463357.829,47.852,-8.789,0.488,43.945,-0.977,0
1506463357.833,63.477,14.160,41.504,54.688,23.926,0
1506463357.837,61.035,53.223,88.379,54.199,17.090,0
1506463357.840,29.785,45.410,72.266,23.438,-1.465,0
1506463357.844,-2.441,6.348,-7.324,-14.160,-19.531,0
1506463357.848,15.625,-23.926,-12.207,4.395,-10.742,0
1506463357.852,89.844,-10.254,30.273,76.172,-8.301,0
1506463357.856,97.168,18.555,-11.230,88.379,0.488,0
1506463357.860,34.668,47.363,-17.090,31.250,15.137,0
1506463357.864,2.441,42.480,41.992,-9.277,2.441,0
1506463357.868,-14.160,-4.395,45.898,-24.902,18.555,0
1506463357.872,16.113,1.953,40.527,13.672,1.953,0
1506463357.876,30.762,17.090,36.621,28.809,-17.090,0
1506463357.880,24.902,23.438,53.223,14.160,8.301,0
1506463357.883,61.523,42.480,32.715,49.316,9.766,0
1506463357.887,98.145,-4.395,-18.555,80.566,1.953,0
1506463357.891,63.477,1.953,24.414,43.945,7.812,0
1506463357.895,10.742,7.324,51.270,-5.371,29.785,0
1506463357.899,41.504,12.695,70.801,26.855,39.062,0
1506463357.903,42.480,5.859,48.340,27.832,5.371,0
1506463357.907,38.086,17.090,32.227,23.438,-9.766,0
1506463357.911,51.270,44.434,52.246,40.039,6.836,0
1506463357.915,55.176,12.207,64.453,45.898,6.836,0
1506463357.919,83.008,-7.812,37.109,70.801,10.254,0
1506463357.922,82.520,1.465,-12.695,69.336,30.273,0
1506463357.926,18.555,-14.160,-28.320,4.395,35.645,0
1506463357.930,70.801,-12.695,30.273,57.617,-8.301,0
1506463357.934,105.469,-22.461,54.688,99.121,-21.484,0
1506463357.938,77.637,-9.766,50.781,66.895,37.109,0
1506463357.942,49.805,27.832,57.129,42.969,51.270,0
1506463357.946,-10.742,26.367,29.785,-10.254,20.508,0
1506463357.950,20.996,50.781,48.340,17.090,3.418,0
1506463357.954,62.012,44.434,34.180,56.152,36.621,0
1506463357.958,62.988,6.348,9.277,58.105,28.320,0
1506463357.962,92.773,15.137,35.156,84.473,13.672,0
1506463357.965,97.656,45.410,34.180,97.168,35.645,0
1506463357.969,66.895,33.203,50.781,66.895,37.109,0
1506463357.973,56.152,17.090,92.773,50.781,35.156,0
1506463357.977,12.207,-16.113,44.922,5.859,-1.465,0
1506463357.981,-1.953,-11.719,5.371,-12.207,-29.297,0
1506463357.985,28.320,27.832,27.344,15.625,18.066,0
1506463357.989,28.320,30.762,30.762,14.160,35.156,0
1506463357.993,51.270,-4.395,24.902,32.227,7.812,0
1506463357.997,104.004,-50.293,-6.348,83.984,29.297,0
1506463358.001,80.078,-57.617,-14.648,72.754,35.156,0
1506463358.005,40.039,3.418,49.805,33.691,19.043,0
1506463358.008,31.738,47.363,57.129,18.555,19.043,0
1506463358.012,18.066,-20.996,22.461,8.789,28.320,0
1506463358.016,6.836,-53.223,14.160,-0.488,32.715,0
1506463358.020,18.066,12.695,48.340,12.207,10.254,0
1506463358.024,30.762,-2.441,45.410,25.391,-0.488,0
1506463358.028,14.648,-32.227,-26.855,2.930,-8.789,0
1506463358.032,24.414,5.859,-26.855,6.348,39.551,0
1506463358.036,56.152,27.344,14.648,36.621,34.668,0
1506463358.040,46.875,10.254,37.109,35.156,4.883,0
1506463358.044,26.367,-0.977,32.715,18.066,55.664,0
1506463358.047,39.062,19.531,38.574,23.438,33.203,0
1506463358.051,30.273,-2.930,35.645,19.043,16.602,0
1506463358.055,77.148,-58.105,22.949,73.730,43.457,0
1506463358.059,93.262,-38.574,8.789,89.844,30.273,0
1506463358.063,39.551,16.113,32.715,35.645,15.137,0
1506463358.067,8.301,16.113,57.129,12.207,-5.371,0
1506463358.071,27.344,26.855,41.016,25.391,4.883,0
1506463358.075,48.340,39.551,30.762,41.504,52.734,0
1506463358.079,26.855,17.578,26.855,23.926,57.617,0
1506463358.083,25.879,8.789,26.367,22.949,43.457,0
1506463358.087,40.527,5.371,34.180,38.574,38.086,0
1506463358.090,13.184,-7.324,15.625,17.090,51.758,0
1506463358.094,17.090,-19.043,-8.301,16.602,34.180,0
1506463358.098,66.895,9.766,26.367,68.848,31.738,0
1506463358.102,38.086,-6.836,31.250,48.828,43.457,0
1506463358.106,24.902,-31.250,9.277,32.715,64.941,0
1506463358.110,62.012,33.203,57.129,72.266,76.660,0
1506463358.114,22.461,30.273,42.480,37.109,31.250,0
1506463358.118,-14.160,11.719,8.789,-2.441,17.090,0
1506463358.122,-0.488,-18.066,11.230,9.277,33.691,0
1506463358.126,49.805,-18.066,27.832,63.477,19.043,0
1506463358.130,71.289,57.129,48.340,89.844,-2.441,0
1506463358.133,-10.254,-5.859,1.465,6.836,30.273,0
1506463358.137,16.113,-40.527,-41.992,27.832,71.777,0
1506463358.141,66.895,-14.648,-22.461,79.590,60.059,0
1506463358.145,9.766,7.324,33.203,25.391,40.527,0
1506463358.149,-26.367,48.340,35.156,-18.066,39.062,0
1506463358.153,-18.555,22.461,11.230,-13.672,52.734,0
1506463358.157,34.180,4.883,28.809,43.945,71.289,0
1506463358.161,59.570,36.133,36.621,71.777,35.156,0
1506463358.165,33.203,40.527,38.574,47.852,22.461,0
1506463358.169,32.715,47.852,47.363,50.781,60.059,0
1506463358.172,43.457,25.391,13.184,62.988,39.062,0
1506463358.176,20.996,-43.945,-5.859,46.387,15.625,0
1506463358.180,14.648,5.859,27.344,35.645,44.434,0
1506463358.184,12.695,47.852,12.207,26.855,44.922,0
1506463358.188,70.801,77.148,28.809,89.355,42.480,0
1506463358.192,71.777,38.574,29.785,95.215,62.500,0
1506463358.196,41.992,-48.340,1.465,60.059,59.082,0
1506463358.200,49.805,11.230,13.184,61.523,38.574,0
1506463358.204,29.785,56.641,20.508,40.527,39.062,0
1506463358.208,5.859,36.621,5.859,18.555,74.707,0
1506463358.212,-6.836,17.578,-1.465,8.301,83.496,0
1506463358.215,28.320,-6.348,30.273,37.109,54.688,0
1506463358.219,25.879,3.418,-3.418,28.809,32.715,0
1506463358.223,6.836,8.789,-31.738,6.836,70.312,0
1506463358.227,40.039,7.324,8.789,40.039,96.191,0
1506463358.231,46.387,50.781,32.715,55.664,81.543,0
1506463358.235,8.789,40.527,-14.160,22.949,66.895,0
1506463358.239,30.273,36.133,-22.949,40.527,77.148,0
1506463358.243,26.367,24.902,30.762,36.621,72.266,0
1506463358.247,17.090,-33.203,37.598,23.438,66.406,0
1506463358.251,82.520,-16.113,9.766,83.008,71.289,0
1506463358.255,68.359,10.742,-7.324,78.613,65.430,0
1506463358.258,2.930,15.137,-30.762,17.090,66.895,0
1506463358.262,-12.207,-48.828,-91.309,-4.883,71.777,0
1506463358.266,35.645,15.137,-5.859,43.945,62.988,0
1506463358.270,9.277,87.402,55.664,19.043,59.570,0
1506463358.274,8.301,50.781,48.340,13.184,61.035,0
1506463358.278,65.918,62.988,79.590,74.219,57.617,0
1506463358.282,18.555,23.926,16.113,30.762,82.031,0
1506463358.286,-0.488,12.207,-11.719,13.672,82.520,0
1506463358.290,12.695,22.461,-48.340,28.809,85.449,0
1506463358.294,-7.324,-3.418,-90.820,3.906,81.055,0
1506463358.297,-13.672,1.465,-33.691,-1.953,47.363,0
1506463358.301,8.789,16.602,25.391,22.949,45.898,0
1506463358.305,48.340,27.344,79.590,57.617,45.410,0
1506463358.309,54.688,25.391,80.566,60.059,35.156,0
1506463358.313,33.691,8.789,-29.297,39.551,44.922,0
1506463358.317,48.828,38.574,-20.508,56.641,51.758,0
1506463358.321,80.566,36.133,30.273,88.867,56.641,0
1506463358.325,78.613,0.977,-16.113,83.008,45.898,0
1506463358.329,43.945,19.531,-2.441,43.945,59.082,0
1506463358.333,4.883,15.137,23.438,5.859,81.543,0
1506463358.337,-8.789,8.789,14.160,-3.906,70.312,0
1506463358.340,37.109,43.457,17.090,42.969,73.242,0
1506463358.344,115.234,37.598,64.453,118.652,69.824,0
1506463358.348,69.824,14.160,35.156,75.195,64.453,0
1506463358.352,-3.418,61.035,-31.738,4.395,53.711,0
1506463358.356,15.625,60.059,3.906,23.438,24.414,0
1506463358.360,49.316,13.184,42.969,54.199,51.758,0
1506463358.364,54.688,40.527,59.570,61.523,50.781,0
1506463358.368,30.273,80.566,54.688,39.551,54.199,0
1506463358.372,27.344,47.852,-0.488,31.738,47.363,0
1506463358.376,51.758,43.945,19.531,54.199,40.039,0
1506463358.380,37.109,52.246,59.570,41.504,44.922,0
1506463358.383,16.602,8.789,38.574,21.484,28.809,0
1506463358.387,50.293,18.066,48.828,47.852,59.082,0
1506463358.391,59.570,47.363,6.348,62.988,62.500,0
1506463358.395,29.297,24.414,-16.602,41.504,43.457,0
1506463358.399,4.883,13.184,4.883,16.602,48.340,0
1506463358.403,39.551,34.180,-12.207,46.875,81.055,0
1506463358.407,84.473,66.895,58.594,89.844,70.801,0
1506463358.411,9.766,45.410,65.918,19.531,45.898,0
1506463358.415,-2.930,33.691,46.875,6.836,24.414,0
1506463358.419,1.953,3.418,8.789,4.883,17.578,0
1506463358.422,49.805,15.137,-30.762,51.758,34.180,0
1506463358.426,83.984,55.664,1.953,90.820,31.738,0
1506463358.430,53.223,35.156,70.801,53.711,37.598,0
1506463358.434,36.133,25.391,74.219,38.086,47.363,0
1506463358.438,38.086,45.410,33.691,46.875,57.617,0
1506463358.442,36.621,45.410,1.953,40.527,26.367,0
1506463358.446,-6.348,17.578,-14.648,-7.324,3.418,0
1506463358.450,10.742,45.898,45.410,8.301,46.387,0
1506463358.454,37.598,81.543,63.965,31.738,57.617,0
1506463358.458,25.879,52.246,34.180,18.066,41.016,0
1506463358.462,60.059,57.129,-53.223,50.293,25.879,0
1506463358.465,81.055,47.852,-60.547,68.848,53.223,0
1506463358.469,54.199,4.395,82.520,45.898,80.566,0
1506463358.473,53.223,29.297,89.355,48.340,48.828,0
1506463358.477,33.203,59.082,63.477,31.250,63.965,0
1506463358.481,30.273,56.152,83.496,27.344,75.195,0
1506463358.485,30.273,35.645,53.223,27.832,53.223,0
1506463358.489,3.906,5.859,-25.879,-0.488,52.734,0
1506463358.493,31.738,27.344,-75.195,33.691,29.785,0
1506463358.497,49.805,66.406,-31.738,53.223,23.926,0
1506463358.501,42.969,63.477,58.105,41.504,44.434,0
1506463358.505,13.672,9.766,62.988,14.160,41.992,0
1506463358.508,16.113,36.621,80.078,9.277,41.992,0
1506463358.512,18.555,56.641,56.641,10.742,49.316,0
1506463358.516,70.801,65.430,86.426,68.359,45.410,0
1506463358.520,57.617,55.664,65.430,62.500,26.855,0
1506463358.524,27.344,41.992,-41.992,26.855,27.832,0
1506463358.528,84.961,81.055,-55.176,83.984,67.383,0
1506463358.532,59.082,53.711,1.465,60.547,41.504,0
1506463358.536,-0.488,10.742,52.246,-6.836,9.277,0
1506463358.540,6.348,12.695,65.918,-3.418,51.758,0
1506463358.544,2.441,18.066,17.578,-7.812,58.594,0
1506463358.547,24.414,77.637,69.336,19.043,34.180,0
1506463358.551,25.879,70.312,38.574,22.461,31.250,0
1506463358.555,41.504,66.895,-96.680,39.062,52.246,0
1506463358.559,77.637,54.688,-18.066,80.078,53.711,0
1506463358.563,45.898,-6.348,99.121,41.504,38.086,0
1506463358.567,25.879,26.855,99.609,23.926,61.035,0
1506463358.571,32.715,71.777,76.172,29.785,65.918,0
1506463358.575,20.996,33.691,21.484,16.602,67.871,0
1506463358.579,11.230,18.066,-93.750,10.254,30.273,0
1506463358.583,41.992,94.727,-4.883,38.574,12.695,0
1506463358.587,36.133,95.703,103.516,30.273,57.617,0
1506463358.590,15.137,23.438,101.562,9.277,71.777,0
1506463358.594,30.762,30.762,89.844,26.367,62.012,0
1506463358.598,51.270,77.637,51.758,46.875,61.035,0
1506463358.602,23.926,34.668,-32.227,25.879,80.566,0
1506463358.606,31.250,21.484,-33.691,30.273,73.242,0
1506463358.610,31.250,30.762,22.461,29.297,44.922,0
1506463358.614,35.645,5.371,3.418,30.273,42.969,0
1506463358.618,60.059,22.461,47.852,56.641,49.805,0
1506463358.622,25.391,50.781,93.262,27.344,27.832,0
1506463358.626,33.203,88.379,78.125,26.367,15.625,0
1506463358.630,27.344,59.570,45.898,20.508,53.223,0
1506463358.633,20.020,47.363,28.320,18.066,68.848,0
1506463358.637,35.156,37.109,19.531,35.156,43.945,0
1506463358.641,65.430,18.555,22.949,65.430,34.668,0
1506463358.645,71.777,50.293,33.203,73.730,65.430,0
1506463358.649,45.410,55.176,29.785,47.363,65.430,0
1506463358.653,54.199,38.086,19.043,51.270,34.180,0
1506463358.657,34.668,19.043,17.090,30.273,39.551,0
1506463358.661,4.395,25.879,57.129,-0.977,49.316,0
1506463358.665,37.598,47.852,65.918,30.762,55.176,0
1506463358.669,33.691,51.758,48.828,31.738,43.457,0
1506463358.672,-17.090,4.395,-6.348,-13.184,39.062,0
1506463358.676,12.695,3.906,-75.684,15.137,74.707,0
1506463358.680,100.586,107.910,32.715,98.145,50.781,0
1506463358.684,62.988,67.871,103.027,55.176,19.043,0
1506463358.688,6.348,-6.836,61.035,-0.488,47.363,0
1506463358.692,20.020,20.996,59.570,15.137,79.102,0
1506463358.696,29.297,44.922,62.500,22.461,49.805,0
1506463358.700,20.020,43.457,-45.898,18.555,36.133,0
1506463358.704,36.133,35.156,-41.504,37.598,64.941,0
1506463358.708,32.227,31.738,54.688,36.133,54.688,0
1506463358.712,0.488,10.254,43.457,3.906,41.016,0
1506463358.715,79.590,38.574,29.785,78.125,40.039,0
1506463358.719,96.680,65.918,28.320,99.121,62.988,0
1506463358.723,0.488,43.945,54.199,-0.488,56.152,0
1506463358.727,-24.414,14.160,66.406,-35.645,22.949,0
1506463358.731,3.418,20.020,69.336,-6.836,19.043,0
1506463358.735,34.180,52.734,48.340,28.809,70.312,0
1506463358.739,35.645,18.066,3.906,32.715,45.898,0
1506463358.743,39.551,-3.418,-27.344,37.598,19.043,0
1506463358.747,78.613,42.480,-13.184,72.266,54.688,0
1506463358.751,71.289,44.922,28.320,59.082,53.711,0
1506463358.755,69.824,12.695,100.586,60.059,41.016,0
1506463358.758,55.664,-9.766,40.527,47.852,52.246,0
1506463358.762,43.945,25.879,-1.465,37.598,62.988,0
1506463358.766,31.738,19.043,49.805,34.668,63.965,0
1506463358.770,9.277,-1.465,28.320,14.648,52.734,0
1506463358.774,39.062,15.137,26.855,36.133,39.062,0
1506463358.778,64.453,47.852,-0.488,65.430,50.293,0
1506463358.782,42.969,81.543,33.203,55.176,56.641,0
1506463358.786,11.719,49.805,62.500,18.066,40.039,0
1506463358.790,21.484,34.668,35.645,21.973,19.531,0
1506463358.794,55.664,44.434,56.152,62.500,22.949,0
1506463358.797,63.965,15.625,70.312,80.078,47.852,0
1506463358.801,22.949,-10.254,-1.465,42.480,60.547,0
1506463358.805,10.742,18.066,-36.621,24.902,47.363,0
1506463358.809,25.879,31.738,14.160,38.086,42.969,0
1506463358.813,46.875,26.855,51.758,56.152,68.848,0
1506463358.817,71.289,57.129,50.781,80.566,47.852,0
1506463358.821,32.715,35.645,7.812,49.316,37.598,0
1506463358.825,11.230,25.879,37.109,33.203,56.641,0
1506463358.829,40.039,51.758,113.281,59.570,61.035,0
1506463358.833,45.898,14.160,78.613,62.500,44.922,0
1506463358.837,34.180,-19.531,-20.020,53.223,38.574,0
1506463358.840,55.176,-0.488,-23.438,73.730,25.391,0
1506463358.844,112.305,43.945,-68.359,132.812,6.348,0
1506463358.848,94.727,62.500,-88.867,112.305,41.016,0
1506463358.852,7.324,42.969,60.059,10.742,43.457,0
1506463358.856,5.371,28.320,86.426,2.441,21.973,0
1506463358.860,64.941,13.672,22.949,65.918,30.273,0
1506463358.864,43.945,11.719,-19.531,46.875,34.668,0
1506463358.868,21.973,24.414,24.414,21.973,25.879,0
1506463358.872,54.199,49.805,-12.207,52.734,52.734,0
1506463358.876,42.969,22.461,-44.922,40.039,59.082,0
1506463358.880,37.598,14.648,106.445,35.645,37.109,0
1506463358.883,49.805,7.812,74.219,45.410,61.523,0
1506463358.887,74.707,-36.133,20.508,72.266,61.523,0
1506463358.891,69.824,15.625,55.176,75.684,39.062,0
1506463358.895,-9.277,35.156,-0.488,-2.441,53.711,0
1506463358.899,11.230,25.391,-83.008,16.602,64.453,0
1506463358.903,86.914,45.410,-34.180,90.332,50.293,0
1506463358.907,37.109,39.062,64.941,37.598,31.250,0
1506463358.911,21.484,6.348,30.762,22.461,40.039,0
1506463358.915,74.707,-0.977,51.758,75.195,51.270,0
1506463358.919,34.180,-0.977,76.172,30.762,32.715,0
1506463358.922,47.852,33.691,58.594,45.410,29.785,0
1506463358.926,67.871,20.996,-134.277,72.266,40.039,0
1506463358.930,29.785,3.418,-202.637,37.598,51.270,0
1506463358.934,21.484,41.504,9.277,25.879,48.340,0
1506463358.938,65.430,35.645,147.461,60.547,62.988,0
1506463358.942,64.941,-11.230,156.250,61.035,74.707,0
1506463358.946,35.645,36.621,102.051,37.598,54.199,0
1506463358.950,14.648,48.828,40.039,13.184,77.148,0
1506463358.954,20.996,4.883,12.695,17.090,53.223,0
1506463358.958,36.621,10.254,-8.301,33.691,41.992,0
1506463358.962,40.039,29.785,-55.664,43.457,51.270,0
1506463358.965,29.785,7.812,-23.438,33.203,35.156,0
1506463358.969,75.684,-12.695,34.180,68.848,24.902,0
1506463358.973,97.656,-0.977,78.125,90.820,48.340,0
1506463358.977,27.832,-16.602,79.102,27.832,72.754,0
1506463358.981,28.809,16.113,-17.578,36.133,66.406,0
1506463358.985,73.242,72.266,-30.273,83.984,43.945,0
1506463358.989,43.945,44.922,63.477,52.734,49.316,0
1506463358.993,-10.254,2.441,104.980,-3.906,52.734,0
1506463358.997,22.949,25.391,92.285,24.902,23.926,0
1506463359.001,44.434,29.297,59.570,44.434,40.039,0
1506463359.005,24.414,18.555,8.301,23.926,44.434,0
1506463359.008,48.828,-6.348,-18.555,42.969,23.926,0
1506463359.012,98.145,1.953,23.438,100.098,-11.230,0
1506463359.016,78.613,20.996,62.988,83.984,-12.695,0
1506463359.020,19.043,14.648,53.223,18.066,45.410,0
1506463359.024,12.207,12.695,92.773,10.742,32.715,0
1506463359.028,50.781,-10.254,90.820,41.992,15.625,0
1506463359.032,79.590,-6.348,75.684,69.824,41.504,0
1506463359.036,33.691,9.277,-31.738,38.086,43.945,0
1506463359.040,25.879,51.758,-85.449,32.715,32.227,0
1506463359.044,34.180,70.801,89.355,28.809,8.301,0
1506463359.047,16.113,24.902,154.785,0.977,-6.836,0
1506463359.051,35.645,17.578,124.512,20.508,0.977,0
1506463359.055,36.621,11.719,73.242,25.391,-10.254,0
1506463359.059,20.508,-1.953,52.734,11.719,-35.156,0
1506463359.063,38.086,-20.020,6.348,34.180,-23.926,0
1506463359.067,87.402,-41.016,-24.414,87.402,-12.695,0
1506463359.071,87.402,-5.371,29.297,87.891,1.953,0
1506463359.075,43.457,53.711,24.414,48.828,18.555,0
1506463359.079,22.949,83.984,86.914,27.832,28.809,0
1506463359.083,20.996,52.734,163.574,18.555,15.625,0
1506463359.087,54.199,4.883,144.531,48.828,-19.043,0
1506463359.090,49.805,11.230,115.234,47.363,-9.277,0
1506463359.094,36.133,68.359,65.918,35.156,24.902,0
1506463359.098,50.293,64.941,-61.523,52.246,31.738,0
1506463359.102,90.820,33.691,-47.852,85.449,0.977,0
1506463359.106,104.004,46.387,114.746,95.703,-17.578,0
1506463359.110,41.992,20.020,172.363,31.738,-5.371,0
1506463359.114,1.465,6.836,97.168,-8.789,-5.371,0
1506463359.118,6.836,31.250,96.680,-2.441,7.812,0
1506463359.122,28.320,30.273,51.758,19.043,16.113,0
1506463359.126,39.551,30.273,1.953,35.156,17.578,0
1506463359.130,42.969,37.598,73.730,36.133,12.695,0
1506463359.133,51.758,22.461,130.371,41.016,-6.348,0
1506463359.137,51.270,20.508,48.828,44.434,9.277,0
1506463359.141,45.898,38.574,-52.246,45.410,27.344,0
1506463359.145,83.984,12.695,31.738,79.590,8.789,0
1506463359.149,97.656,-20.020,116.211,95.703,-17.090,0
1506463359.153,27.344,16.113,54.688,34.668,-1.465,0
1506463359.157,-25.879,54.688,27.344,-20.020,19.531,0
1506463359.161,-24.414,42.969,98.633,-23.438,0.977,0
1506463359.165,9.277,35.645,127.930,6.836,14.648,0
1506463359.169,47.852,52.734,38.086,43.457,21.973,0
1506463359.172,23.926,34.668,-14.648,22.949,9.277,0
1506463359.176,9.277,25.879,72.266,4.883,-2.441,0
1506463359.180,52.246,38.574,69.824,49.316,3.418,0
1506463359.184,60.059,25.391,5.859,62.500,11.719,0
1506463359.188,35.156,16.602,54.688,34.668,26.367,0
1506463359.192,57.617,-2.441,48.340,61.523,24.414,0
1506463359.196,104.004,-24.414,-14.160,116.211,9.277,0
1506463359.200,67.383,27.832,54.199,70.801,25.879,0
1506463359.204,-22.461,61.035,125.488,-25.879,38.574,0
1506463359.208,-28.809,55.176,120.117,-25.879,9.766,0
1506463359.212,19.043,20.020,93.262,22.461,-32.715,0
1506463359.215,29.297,-7.324,10.254,34.180,2.930,0
1506463359.219,54.199,58.105,-79.102,65.430,35.156,0
1506463359.223,49.805,40.039,-24.414,57.129,38.574,0
1506463359.227,10.254,-13.184,122.559,11.719,35.156,0
1506463359.231,11.230,24.414,134.277,12.207,25.879,0
1506463359.235,36.621,56.641,86.426,33.203,20.996,0
1506463359.239,36.133,42.480,75.684,32.227,5.371,0
1506463359.243,16.113,33.203,80.566,18.555,-3.906,0
1506463359.247,-6.348,22.949,44.434,-0.488,14.648,0
1506463359.251,10.742,21.973,40.527,11.230,17.090,0
1506463359.255,19.043,9.277,33.691,15.625,2.441,0
1506463359.258,33.203,21.484,52.734,26.855,0.977,0
1506463359.262,40.527,9.277,-80.078,38.574,8.789,0
1506463359.266,68.359,14.160,-160.645,70.801,6.836,0
1506463359.270,100.098,25.391,28.320,94.727,10.742,0
1506463359.274,92.285,11.719,156.250,81.543,19.531,0
1506463359.278,35.156,4.883,179.688,25.391,21.973,0
1506463359.282,2.441,2.441,63.965,0.000,19.531,0
1506463359.286,34.668,44.434,-46.387,42.969,9.277,0
1506463359.290,0.000,35.156,35.645,2.930,5.371,0
1506463359.294,-16.602,25.879,121.582,-23.926,12.207,0
1506463359.297,8.301,24.902,58.105,4.395,-10.742,0
1506463359.301,33.691,45.410,36.133,35.156,-11.719,0
1506463359.305,25.391,43.945,80.566,24.902,31.250,0
1506463359.309,31.250,39.551,75.195,23.926,30.273,0
1506463359.313,29.785,21.973,62.988,20.508,21.484,0
1506463359.317,30.273,20.996,69.336,27.344,9.766,0
1506463359.321,28.320,36.133,66.406,33.691,9.277,0
1506463359.325,0.000,14.160,27.344,5.859,13.672,0
1506463359.329,22.949,28.809,2.930,19.043,1.953,0
1506463359.333,64.941,1.465,-7.324,59.570,3.418,0
1506463359.337,85.938,-22.461,-107.910,86.914,0.977,0
1506463359.340,69.824,32.715,-32.227,71.777,-20.020,0
1506463359.344,3.906,34.668,122.559,-1.953,-55.664,0
1506463359.348,-20.508,38.574,125.977,-33.691,-33.203,0
1506463359.352,-21.484,36.133,104.980,-26.855,-3.418,0
1506463359.356,-14.648,42.480,49.805,-11.719,-11.230,0
1506463359.360,-6.836,25.879,31.738,-5.859,-25.391,0
1506463359.364,17.090,34.668,54.199,15.137,-13.184,0
1506463359.368,27.832,66.895,61.035,25.879,1.465,0
1506463359.372,5.859,48.828,41.016,1.953,15.137,0
1506463359.376,26.367,52.246,28.809,19.531,-9.277,0
1506463359.380,39.062,54.688,37.109,33.203,-32.227,0
1506463359.383,12.207,36.621,69.336,5.859,-26.367,0
1506463359.387,67.871,9.277,45.410,54.199,-32.227,0
1506463359.391,123.047,20.508,24.902,111.328,-30.273,0
1506463359.395,49.316,27.344,19.531,37.109,5.371,0
1506463359.399,30.273,27.832,53.711,18.555,12.695,0
1506463359.403,52.734,51.270,124.023,46.387,-48.340,0
1506463359.407,2.930,45.898,80.566,-2.441,-36.621,0
1506463359.411,-21.973,41.504,21.973,-24.414,22.949,0
1506463359.415,2.441,44.434,36.133,0.000,22.461,0
1506463359.419,3.906,27.344,39.551,-1.465,1.953,0
1506463359.422,25.879,14.648,-37.109,18.066,0.000,0
1506463359.426,65.430,48.340,16.113,51.758,0.977,0
1506463359.430,30.273,40.527,81.055,14.648,8.789,0
1506463359.434,27.344,37.598,82.031,13.184,-11.719,0
1506463359.438,46.387,65.918,88.867,33.203,-8.789,0
1506463359.442,44.434,51.758,87.891,31.738,9.766,0
1506463359.446,34.180,41.016,90.332,18.555,-17.090,0
1506463359.450,14.160,27.344,54.688,-4.395,-35.156,0
1506463359.454,16.113,13.672,-21.973,7.324,-12.695,0
1506463359.458,32.715,24.414,-40.527,34.668,1.953,0
1506463359.462,8.301,8.301,23.438,14.160,19.531,0
1506463359.465,12.207,14.648,51.270,16.602,12.695,0
1506463359.469,39.062,18.066,42.969,41.992,-19.043,0
1506463359.473,14.648,-32.715,41.016,16.113,-5.371,0
1506463359.477,31.738,0.977,50.293,24.902,-2.930,0
1506463359.481,60.059,61.523,39.551,51.758,3.418,0
1506463359.485,32.227,22.949,34.180,32.227,25.391,0
1506463359.489,24.414,13.184,69.336,27.832,-7.324,0
1506463359.493,22.461,34.668,58.594,22.461,-36.133,0
1506463359.497,57.617,62.500,39.062,49.805,-16.113,0
1506463359.501,45.898,46.387,43.945,41.504,-2.930,0
1506463359.505,-0.977,9.277,29.785,-2.930,-12.207,0
1506463359.508,19.043,25.879,20.020,11.230,-28.320,0
1506463359.512,39.551,37.109,30.273,31.250,-15.137,0
1506463359.516,43.945,41.016,26.367,41.992,-11.230,0
1506463359.520,64.453,55.176,25.391,62.988,-25.879,0
1506463359.524,68.848,38.086,20.020,61.523,-32.227,0
1506463359.528,49.316,-7.812,-23.926,39.551,-6.348,0
1506463359.532,69.336,3.418,41.016,61.523,41.992,0
1506463359.536,82.031,27.344,120.117,73.242,17.090,0
1506463359.540,58.594,43.945,85.938,54.199,17.090,0
1506463359.544,48.828,58.594,80.078,48.340,21.973,0
1506463359.547,63.965,59.570,81.543,64.941,-2.441,0
1506463359.551,46.875,40.527,48.828,49.805,-12.207,0
1506463359.555,30.762,39.551,32.227,33.691,14.160,0
1506463359.559,30.273,32.227,28.809,35.645,30.273,0
1506463359.563,35.156,22.949,34.668,44.434,16.113,0
1506463359.567,40.039,30.273,39.062,52.246,-6.836,0
1506463359.571,38.574,37.598,32.227,50.293,-45.410,0
1506463359.575,50.293,46.875,48.828,61.035,-16.113,0
1506463359.579,42.969,26.855,37.598,55.664,27.344,0
1506463359.583,37.598,12.207,12.207,50.781,15.137,0
1506463359.587,50.293,26.367,24.902,64.453,7.324,0
1506463359.590,50.781,31.250,24.414,65.918,17.090,0
1506463359.594,44.922,38.574,32.715,62.500,7.324,0
1506463359.598,40.527,31.250,37.598,59.082,-8.789,0
1506463359.602,52.246,36.133,41.016,67.383,-5.859,0
1506463359.606,52.734,25.391,22.461,62.500,6.836,0
1506463359.610,36.133,8.301,0.488,39.062,13.672,0
1506463359.614,31.738,22.461,27.832,35.156,8.301,0
1506463359.618,44.434,37.598,51.270,50.293,17.090,0
1506463359.622,46.875,42.480,60.059,53.223,3.906,0
1506463359.626,38.574,42.969,65.430,43.945,-11.719,0
1506463359.630,34.180,34.668,61.523,40.039,-21.484,0
1506463359.633,36.621,32.715,52.246,44.434,-2.930,0
1506463359.637,33.691,38.086,34.668,39.062,27.344,0
1506463359.641,33.691,38.574,23.926,33.691,1.953,0
1506463359.645,48.828,48.340,42.480,43.457,-21.973,0
1506463359.649,54.688,45.898,53.223,50.293,4.395,0
1506463359.653,36.133,23.438,20.020,35.645,21.484,0
1506463359.657,28.320,21.484,17.578,30.762,19.531,0
1506463359.661,32.227,25.391,31.250,37.109,-2.930,0
1506463359.665,43.457,31.250,26.367,41.992,17.090,0
1506463359.669,42.480,29.785,14.648,38.574,27.344,0
1506463359.672,35.156,17.578,23.926,35.645,-22.949,0
1506463359.676,34.668,21.484,42.480,38.574,-42.969,0
1506463359.680,38.086,28.809,37.109,37.598,-8.301,0
1506463359.684,44.922,24.414,40.527,42.969,5.371,0
1506463359.688,32.715,7.812,32.227,33.691,-3.418,0
1506463359.692,44.922,20.508,23.438,39.551,-4.883,0
1506463359.696,56.641,44.922,37.109,49.805,8.789,0
1506463359.700,36.621,28.320,32.227,37.109,26.855,0
1506463359.704,22.461,15.625,25.391,29.297,16.113,0
1506463359.708,22.949,26.855,33.203,32.715,-8.789,0
1506463359.712,21.973,21.973,21.973,30.762,-10.742,0
1506463359.715,18.555,20.508,20.996,31.250,-19.531,0
1506463359.719,21.973,33.203,25.391,35.156,-19.043,0
1506463359.723,23.438,33.203,20.996,33.691,-8.301,0
1506463359.727,26.367,32.227,26.367,40.527,-9.277,0
1506463359.731,21.973,35.156,29.297,37.109,-15.137,0
1506463359.735,17.090,31.250,21.484,33.691,2.930,0
1506463359.739,19.043,23.438,15.137,30.273,11.719,0
1506463359.743,32.715,31.738,44.434,34.668,-11.230,0
1506463359.747,33.203,30.762,47.363,34.180,-36.133,0
1506463359.751,27.832,26.367,40.039,33.203,-31.250,0
1506463359.755,34.180,31.250,48.828,38.086,-21.973,0
1506463359.758,33.203,25.391,29.785,31.738,-7.324,0
1506463359.762,44.434,35.645,24.902,38.574,-24.902,0
1506463359.766,49.805,36.621,31.250,41.504,-49.316,0
1506463359.770,41.504,23.926,21.973,27.832,-13.672,0
1506463359.774,40.527,29.785,24.414,29.297,-10.742,0
1506463359.778,39.062,33.691,12.695,33.691,-15.137,0
1506463359.782,27.344,23.926,2.441,25.879,-15.137,0
1506463359.786,30.762,19.043,31.738,32.715,-0.488,0
1506463359.790,49.316,26.367,41.992,45.410,-0.488,0
1506463359.794,41.016,11.230,21.973,33.691,-12.695,0
1506463359.797,27.344,-4.883,12.695,23.926,-8.789,0
1506463359.801,26.855,-2.930,3.418,20.508,-3.418,0
1506463359.805,40.039,21.484,-1.465,33.691,14.648,0
1506463359.809,47.363,40.039,-0.488,44.922,-26.855,0
1506463359.813,24.902,16.113,-11.230,22.949,-24.414,0
1506463359.817,21.973,8.789,2.441,19.043,22.461,0
1506463359.821,32.227,18.555,21.973,30.273,-5.859,0
1506463359.825,31.250,17.578,18.066,29.785,-38.086,0
1506463359.829,31.250,12.695,17.090,25.391,-16.602,0
1506463359.833,41.504,11.719,29.785,30.273,-4.395,0
1506463359.837,43.945,13.672,32.227,32.227,-11.719,0
1506463359.840,32.227,19.531,17.578,23.438,-31.250,0
1506463359.844,36.133,31.738,12.695,25.879,-36.133,0
1506463359.848,48.828,42.480,20.508,36.133,-3.906,0
1506463359.852,55.176,41.992,28.809,43.457,-20.508,0
1506463359.856,56.641,37.109,30.273,46.387,-49.316,0
1506463359.860,40.039,32.715,19.531,35.645,-20.508,0
1506463359.864,39.551,41.504,12.695,39.551,-12.207,0
1506463359.868,42.969,39.062,22.461,42.969,-5.859,0
1506463359.872,31.250,24.902,20.996,28.809,8.789,0
1506463359.876,35.156,32.227,30.762,32.227,23.926,0
1506463359.880,48.340,45.410,44.922,45.410,4.395,0
1506463359.883,44.434,41.016,31.738,41.016,-16.602,0
1506463359.887,48.828,36.133,34.668,41.016,3.906,0
1506463359.891,48.828,29.785,30.273,36.621,12.695,0
1506463359.895,32.227,25.879,13.672,21.973,18.066,0
1506463359.899,25.391,27.344,9.766,16.602,-7.324,0
1506463359.903,24.414,30.762,6.836,20.020,-9.277,0
1506463359.907,29.297,31.250,7.324,22.461,20.020,0
1506463359.911,41.992,37.109,18.555,31.250,-8.301,0
1506463359.915,45.898,42.480,34.180,39.062,-54.199,0
1506463359.919,38.574,31.738,24.902,33.691,-28.320,0
1506463359.922,33.691,27.832,15.137,28.320,4.395,0
1506463359.926,30.762,26.855,18.066,22.461,-29.785,0
1506463359.930,34.668,24.902,18.555,20.508,-27.832,0
1506463359.934,38.574,27.344,19.531,24.414,4.883,0
1506463359.938,34.668,25.391,16.113,26.855,5.859,0
1506463359.942,33.203,29.297,18.066,31.738,-10.742,0
1506463359.946,38.086,36.133,3.906,39.551,-12.207,0
1506463359.950,33.203,30.273,-6.836,32.227,-7.812,0
1506463359.954,38.086,33.203,22.461,34.668,-17.090,0
1506463359.958,49.316,37.109,37.109,44.434,-11.230,0
1506463359.962,48.340,28.320,38.086,40.527,15.625,0
1506463359.965,47.363,24.902,35.156,37.109,25.391,0
1506463359.969,47.363,30.762,31.250,39.062,-15.625,0
1506463359.973,42.969,31.250,29.297,39.551,-11.230,0
1506463359.977,30.762,21.973,16.602,34.668,22.949,0
1506463359.981,34.180,28.320,24.902,41.504,15.625,0
1506463359.985,42.969,34.180,33.203,46.387,14.160,0
1506463359.989,46.875,33.691,32.715,42.969,0.977,0
1506463359.993,47.363,28.809,32.227,40.039,13.184,0
1506463359.997,52.246,30.762,31.738,42.969,29.785,0
1506463360.001,53.223,37.598,33.691,49.316,2.441,0
1506463360.005,41.016,32.227,32.227,47.363,-6.348,0
1506463360.008,32.715,22.461,27.344,42.480,22.949,0
1506463360.012,26.855,8.301,20.020,37.109,52.246,0
1506463360.016,25.879,3.418,16.113,36.621,29.785,0
1506463360.020,30.273,15.137,18.066,39.551,-6.348,0
1506463360.024,34.668,28.320,32.227,42.480,22.461,0
1506463360.028,37.109,31.250,28.320,37.598,31.738,0
1506463360.032,31.250,29.785,9.766,31.250,11.719,0
1506463360.036,32.227,28.320,18.555,34.668,-11.719,0
1506463360.040,37.109,26.367,29.297,40.039,-23.926,0
1506463360.044,38.086,32.715,34.668,41.016,-2.441,0
1506463360.047,34.668,36.621,36.621,38.574,-0.488,0
1506463360.051,27.344,30.273,27.832,33.203,-21.484,0
1506463360.055,28.320,20.996,27.344,27.832,1.465,0
1506463360.059,30.762,23.438,34.180,30.273,34.668,0
1506463360.063,30.762,27.344,26.855,31.250,4.395,0
1506463360.067,22.949,21.484,20.508,24.902,-5.859,0
1506463360.071,21.973,19.531,22.949,24.902,8.789,0
1506463360.075,29.785,27.832,24.902,31.738,21.973,0
1506463360.079,34.668,30.762,34.180,36.133,16.602,0
1506463360.083,38.574,32.715,45.898,39.062,-11.230,0
1506463360.087,35.645,29.297,22.949,26.855,21.484,0
1506463360.090,34.668,29.785,11.230,24.414,3.906,0
1506463360.094,34.180,30.762,29.785,30.762,-4.395,0
1506463360.098,35.156,25.879,34.668,28.320,21.973,0
1506463360.102,40.039,26.855,27.832,29.297,30.273,0
1506463360.106,31.250,22.949,20.508,28.320,16.113,0
1506463360.110,14.648,11.230,18.066,21.484,-5.859,0
1506463360.114,12.207,5.371,13.672,17.090,17.578,0
1506463360.118,19.043,10.254,18.066,22.461,10.254,0
1506463360.122,19.531,14.160,25.879,30.273,23.926,0
1506463360.126,20.996,17.090,33.203,32.715,23.438,0
1506463360.130,32.227,20.508,32.227,34.668,-17.578,0
1506463360.133,35.156,20.508,23.926,36.133,-23.926,0
1506463360.137,26.367,19.531,18.555,32.715,-18.066,0
1506463360.141,23.926,20.020,19.043,31.738,-18.066,0
1506463360.145,23.926,19.531,19.531,32.715,-3.906,0
1506463360.149,34.668,25.391,25.391,41.016,0.488,0
1506463360.153,46.387,35.156,34.668,47.852,29.785,0
1506463360.157,41.504,29.297,31.250,43.945,32.715,0
1506463360.161,24.414,18.066,20.996,38.574,36.621,0
1506463360.165,21.484,21.484,17.578,40.527,18.555,0
1506463360.169,23.926,22.949,12.207,39.551,-5.371,0
1506463360.172,20.996,19.043,13.672,32.227,23.926,0
1506463360.176,20.508,16.113,19.043,31.738,17.578,0
1506463360.180,19.531,12.207,4.883,33.691,-13.672,0
1506463360.184,32.227,19.043,11.230,40.039,-12.207,0
1506463360.188,39.062,26.855,28.320,45.898,0.977,0
1506463360.192,33.203,22.461,22.949,44.922,25.391,0
1506463360.196,27.344,16.602,17.090,46.387,34.668,0
1506463360.200,29.297,20.020,21.484,48.828,10.742,0
1506463360.204,34.668,23.926,21.973,48.828,35.156,0
1506463360.208,35.156,26.367,9.766,49.805,60.059,0
1506463360.212,33.203,27.344,15.625,49.805,53.223,0
1506463360.215,32.227,23.926,21.484,50.781,30.273,0
1506463360.219,29.785,17.578,12.207,52.246,32.227,0
1506463360.223,31.738,19.043,26.855,56.641,49.316,0
1506463360.227,36.133,19.043,44.434,62.012,31.250,0
1506463360.231,38.574,15.625,36.621,62.988,16.113,0
1506463360.235,44.922,27.832,31.250,63.965,35.156,0
1506463360.239,47.363,37.598,40.527,65.430,67.383,0
1506463360.243,36.133,29.785,37.598,54.199,37.109,0
1506463360.247,36.133,22.461,34.668,49.316,13.672,0
1506463360.251,38.574,15.625,27.344,47.363,41.504,0
1506463360.255,31.738,20.020,24.414,44.434,38.086,0
1506463360.258,21.973,22.461,17.090,42.480,44.434,0
1506463360.262,16.602,19.531,6.348,39.551,58.594,0
1506463360.266,20.996,23.926,21.973,44.434,72.754,0
1506463360.270,30.762,31.738,35.156,54.688,78.125,0
1506463360.274,34.668,29.297,33.203,56.152,41.504,0
1506463360.278,27.344,18.555,18.555,43.457,40.039,0
1506463360.282,34.180,22.461,18.066,45.410,83.496,0
1506463360.286,42.969,24.414,23.926,51.270,63.965,0
1506463360.290,36.133,21.484,13.672,44.434,67.383,0
1506463360.294,32.715,23.926,16.113,45.898,97.656,0
1506463360.297,39.551,28.809,26.855,51.270,89.355,0
1506463360.301,33.691,28.809,26.855,51.270,52.246,0
1506463360.305,25.391,24.902,20.508,50.293,38.574,0
1506463360.309,28.320,26.855,20.508,53.711,53.223,0
1506463360.313,32.227,24.902,29.785,57.617,65.430,0
1506463360.317,24.414,14.648,26.855,50.781,66.406,0
1506463360.321,27.344,11.719,20.508,48.340,48.828,0
1506463360.325,38.574,20.508,29.297,54.199,36.133,0
1506463360.329,41.504,32.715,40.039,59.082,49.805,0
1506463360.333,32.227,24.902,23.438,48.340,50.293,0
1506463360.337,25.879,19.531,11.230,41.992,52.246,0
1506463360.340,29.785,22.461,17.090,48.340,84.473,0
1506463360.344,35.156,23.926,17.090,49.805,63.965,0
1506463360.348,33.691,22.461,17.578,48.828,6.836,0
1506463360.352,25.391,11.719,25.391,48.828,14.160,0
1506463360.356,38.574,20.020,44.434,62.500,68.359,0
1506463360.360,51.270,28.320,44.434,70.312,85.938,0
1506463360.364,35.156,14.160,24.414,61.035,62.988,0
1506463360.368,31.250,18.066,15.137,58.594,40.039,0
1506463360.372,41.504,31.250,19.043,64.453,40.527,0
1506463360.376,50.293,33.203,32.227,69.824,38.086,0
1506463360.380,47.363,26.855,34.668,65.430,25.391,0
1506463360.383,46.387,31.250,35.645,61.523,23.438,0
1506463360.387,45.410,31.250,30.762,60.059,39.551,0
1506463360.391,40.039,20.508,20.996,62.988,57.617,0
1506463360.395,39.062,24.414,20.020,67.383,50.293,0
1506463360.399,40.039,29.297,35.645,65.430,61.035,0
1506463360.403,38.574,26.855,40.527,61.523,61.523,0
1506463360.407,40.527,26.367,36.621,61.035,60.547,0
1506463360.411,47.363,26.367,35.156,63.477,54.199,0
1506463360.415,40.527,19.043,30.762,57.129,52.734,0
1506463360.419,36.621,19.043,30.762,55.176,90.820,0
1506463360.422,55.664,36.133,47.852,67.871,60.059,0
1506463360.426,63.965,42.969,53.223,67.871,30.273,0
1506463360.430,47.852,28.320,37.598,58.105,76.172,0
1506463360.434,34.668,23.926,39.551,57.129,63.477,0
1506463360.438,43.945,46.875,50.781,71.289,36.133,0
1506463360.442,40.527,38.574,38.086,66.895,40.039,0
1506463360.446,27.344,24.414,33.691,54.199,41.992,0
1506463360.450,24.902,28.809,37.109,46.875,79.590,0
1506463360.454,21.973,26.855,22.461,41.992,81.055,0
1506463360.458,36.621,37.109,27.344,56.641,58.594,0
1506463360.462,51.270,45.410,47.852,68.359,57.617,0
1506463360.465,43.457,30.762,49.805,62.012,39.551,0
1506463360.469,64.453,45.898,74.219,82.031,14.648,0
1506463360.473,78.125,58.105,69.824,90.820,42.480,0
1506463360.477,49.805,38.086,32.227,63.477,88.379,0
1506463360.481,33.691,16.113,25.391,48.340,64.941,0
1506463360.485,36.621,12.695,30.762,44.922,40.527,0
1506463360.489,41.016,20.508,36.133,43.945,60.547,0
1506463360.493,43.457,20.508,33.691,46.387,75.195,0
1506463360.497,39.062,21.484,19.043,46.875,89.355,0
1506463360.501,34.180,20.996,22.949,45.898,76.172,0
1506463360.505,47.363,33.691,46.387,57.129,58.105,0
1506463360.508,47.852,36.621,46.387,60.547,63.965,0
1506463360.512,44.922,30.273,45.898,55.664,29.785,0
1506463360.516,42.969,40.527,54.199,57.617,-1.465,0
1506463360.520,33.203,32.715,41.992,50.781,33.203,0
1506463360.524,36.621,25.879,41.504,50.293,60.059,0
1506463360.528,43.945,30.273,38.574,54.688,61.035,0
1506463360.532,43.457,23.926,22.949,48.828,57.129,0
1506463360.536,42.480,18.555,27.344,45.410,77.637,0
1506463360.540,33.203,9.766,22.461,37.109,82.031,0
1506463360.544,35.156,18.066,24.414,41.504,49.805,0
1506463360.547,30.762,22.461,24.902,41.504,31.738,0
1506463360.551,16.113,8.789,4.883,29.785,67.383,0
1506463360.555,21.973,-1.465,10.254,38.086,66.406,0
