timestamps,TP9,AF7,AF8,TP10,Right AUX,Marker0
1512555680.423,8.301,34.180,24.414,39.551,44.434,0
1512555680.427,-0.977,41.016,39.551,29.297,32.715,0
1512555680.431,-3.906,39.551,27.344,22.949,21.973,0
1512555680.434,1.465,32.715,5.859,30.273,13.672,0
1512555680.438,0.000,30.762,10.254,16.113,18.555,0
1512555680.442,-6.348,47.852,25.391,27.832,-0.488,0
1512555680.446,7.812,50.781,10.254,44.922,-6.836,0
1512555680.450,19.531,33.691,2.441,31.738,19.531,0
1512555680.454,13.184,29.785,15.137,34.180,6.836,0
1512555680.458,24.902,37.109,15.137,46.387,-13.184,0
1512555680.462,36.621,36.621,21.484,38.086,3.418,0
1512555680.466,22.949,41.992,28.320,42.480,-15.137,0
1512555680.470,9.277,54.688,24.902,41.992,-4.395,0
1512555680.473,17.578,42.969,23.438,37.109,1.465,0
1512555680.477,29.297,38.086,23.926,45.898,-4.883,0
1512555680.481,30.762,35.645,30.273,29.785,-14.648,0
1512555680.485,23.926,41.504,12.207,18.066,-7.324,0
1512555680.489,18.066,43.945,8.301,40.039,12.207,0
1512555680.493,1.465,34.180,30.762,33.691,5.859,0
1512555680.497,11.719,45.898,35.645,41.016,-26.367,0
1512555680.501,33.691,47.852,37.598,61.523,-40.039,0
1512555680.505,20.020,35.156,26.855,45.410,-61.523,0
1512555680.509,11.230,32.227,20.996,26.367,-37.109,0
1512555680.513,2.441,42.969,15.137,12.207,7.812,0
1512555680.516,3.906,44.434,-0.488,21.973,3.418,0
1512555680.520,1.953,26.855,1.953,32.715,-7.812,0
1512555680.524,7.324,24.902,48.340,25.391,-8.301,0
1512555680.528,20.996,30.273,59.082,40.527,0.977,0
1512555680.532,9.277,44.922,28.320,51.270,-10.742,0
1512555680.536,6.836,46.875,18.555,32.715,-14.648,0
1512555680.540,17.578,45.898,-29.297,22.949,8.301,0
1512555680.544,18.555,44.434,-26.855,33.203,27.344,0
1512555680.548,14.648,56.641,51.270,42.969,4.395,0
1512555680.552,28.320,70.312,38.574,48.828,-16.113,0
1512555680.556,68.848,35.645,-7.812,78.613,19.043,0
1512555680.559,74.707,32.715,16.113,86.426,30.273,0
1512555680.563,66.406,83.984,77.637,83.984,-1.465,0
1512555680.567,29.785,74.219,81.543,46.875,-4.395,0
1512555680.571,45.410,87.891,85.449,60.059,11.230,0
1512555680.575,61.523,129.883,97.656,85.938,-2.441,0
1512555680.579,1.465,85.449,51.270,29.785,-20.020,0
1512555680.583,-8.789,31.250,26.367,4.883,-29.785,0
1512555680.587,6.836,24.414,41.016,10.742,-37.109,0
1512555680.591,24.414,54.199,59.082,34.180,-39.551,0
1512555680.595,44.922,55.664,33.203,52.734,-34.668,0
1512555680.598,41.504,48.340,11.230,46.875,-45.410,0
1512555680.602,20.996,66.406,40.527,45.898,-27.344,0
1512555680.606,66.406,92.285,84.961,94.727,-41.504,0
1512555680.610,85.938,87.891,78.125,103.516,-70.801,0
1512555680.614,43.945,63.965,47.363,62.988,-29.297,0
1512555680.618,45.898,60.059,59.570,56.152,-17.090,0
1512555680.622,49.316,63.965,54.688,50.781,-49.316,0
1512555680.626,45.410,67.871,53.711,48.828,-63.477,0
1512555680.630,37.598,69.336,62.500,58.105,-80.078,0
1512555680.634,44.922,64.453,64.453,62.500,-54.199,0
1512555680.638,48.340,70.801,60.059,63.965,-34.668,0
1512555680.641,46.387,70.312,63.477,66.895,-59.570,0
1512555680.645,46.875,61.523,80.566,52.246,-32.227,0
1512555680.649,49.805,69.336,60.059,47.852,-0.488,0
1512555680.653,51.758,72.266,52.734,56.641,-4.883,0
1512555680.657,44.434,73.730,71.289,60.059,-11.230,0
1512555680.661,45.898,73.730,70.312,53.711,24.902,0
1512555680.665,41.504,73.730,70.312,51.758,29.297,0
1512555680.669,27.832,69.824,63.477,57.617,12.207,0
1512555680.673,26.855,62.988,62.500,66.895,12.695,0
1512555680.677,28.320,67.383,74.219,71.289,20.996,0
1512555680.681,36.133,79.590,82.031,79.590,32.715,0
1512555680.684,36.133,76.660,65.918,91.797,36.621,0
1512555680.688,39.062,69.824,56.641,98.633,58.594,0
1512555680.692,56.641,66.895,103.027,85.938,74.219,0
1512555680.696,63.965,75.684,108.398,62.012,57.129,0
1512555680.700,76.172,94.238,78.613,73.242,46.387,0
1512555680.704,70.801,101.562,55.176,88.867,53.711,0
1512555680.708,58.594,89.844,59.082,83.984,72.266,0
1512555680.712,63.965,78.613,77.148,79.102,57.129,0
1512555680.716,62.988,70.312,79.102,67.383,37.109,0
1512555680.720,52.246,62.988,70.801,58.105,63.965,0
1512555680.723,57.617,73.242,42.480,89.355,68.848,0
1512555680.727,67.871,83.984,59.570,109.375,43.945,0
1512555680.731,57.617,78.613,76.172,88.867,16.602,0
1512555680.735,51.270,71.289,74.707,77.148,19.531,0
1512555680.739,43.457,81.055,64.453,71.289,35.156,0
1512555680.743,27.832,82.031,45.898,66.895,45.898,0
1512555680.747,46.387,58.594,56.152,65.918,53.711,0
1512555680.751,53.223,54.199,54.688,66.406,31.250,0
1512555680.755,39.551,61.035,19.043,64.941,16.602,0
1512555680.759,35.645,55.664,10.254,60.547,38.574,0
1512555680.763,41.016,53.223,45.410,61.035,28.320,0
1512555680.766,40.039,66.895,81.543,67.383,13.672,0
1512555680.770,25.879,69.336,67.871,57.129,7.812,0
1512555680.774,26.855,59.570,42.969,50.781,-35.156,0
1512555680.778,15.625,54.688,43.945,52.246,-41.504,0
1512555680.782,0.488,47.363,25.391,42.480,24.902,0
1512555680.786,20.996,54.199,28.809,44.922,9.277,0
1512555680.790,24.414,53.223,26.855,50.293,-8.301,0
1512555680.794,24.414,32.227,51.758,50.781,31.250,0
1512555680.798,32.715,35.645,79.102,56.641,58.594,0
1512555680.802,36.133,43.457,53.223,64.941,35.645,0
1512555680.806,40.039,37.109,34.180,66.895,-3.906,0
1512555680.809,40.039,36.621,54.688,73.242,22.461,0
1512555680.813,17.090,32.715,44.434,52.734,38.574,0
1512555680.817,9.766,34.668,11.719,53.711,14.160,0
1512555680.821,20.508,35.645,9.766,60.059,3.418,0
1512555680.825,25.879,26.855,37.598,50.781,27.832,0
1512555680.829,22.949,12.695,65.918,37.109,45.898,0
1512555680.833,20.020,7.324,59.570,33.203,2.930,0
1512555680.837,19.043,23.438,49.805,42.480,14.160,0
1512555680.841,22.949,30.762,37.109,42.480,63.477,0
1512555680.845,33.691,8.789,35.645,51.270,61.523,0
1512555680.848,13.672,9.277,42.480,47.363,61.035,0
1512555680.852,11.719,9.766,48.828,41.992,49.316,0
1512555680.856,24.902,10.254,44.434,49.316,77.637,0
1512555680.860,8.789,14.160,39.062,36.621,75.684,0
1512555680.864,9.277,5.859,49.805,39.062,32.227,0
1512555680.868,12.695,9.766,48.340,42.969,13.184,0
1512555680.872,14.160,16.602,48.340,41.992,20.508,0
1512555680.876,24.414,8.789,42.969,54.199,30.762,0
1512555680.880,12.207,-3.418,40.527,41.016,-11.719,0
1512555680.884,-0.977,-3.906,30.762,29.785,7.812,0
1512555680.888,1.953,-10.742,41.992,32.715,57.129,0
1512555680.891,13.184,-6.836,56.152,44.434,20.508,0
1512555680.895,10.254,0.488,36.133,47.363,4.883,0
1512555680.899,0.488,-4.395,46.875,36.133,42.969,0
1512555680.903,-4.883,3.906,42.969,30.762,34.180,0
1512555680.907,-19.043,-1.953,15.625,27.832,10.742,0
1512555680.911,-19.043,-8.301,29.785,28.320,-6.836,0
1512555680.915,-5.371,-1.953,46.387,34.180,-5.859,0
1512555680.919,-13.672,-10.254,40.527,19.043,11.719,0
1512555680.923,-23.926,-20.508,20.508,3.906,24.902,0
1512555680.927,-36.621,-21.973,23.926,0.000,12.695,0
1512555680.931,-52.734,-19.043,53.711,-14.648,-15.625,0
1512555680.934,-50.781,-17.090,53.223,-15.137,3.906,0
1512555680.938,-38.574,-10.254,58.594,4.395,4.395,0
1512555680.942,-46.387,-6.348,68.848,3.906,-36.133,0
1512555680.946,-41.504,-5.859,55.176,-5.859,-7.812,0
1512555680.950,-26.855,2.930,31.738,-3.906,5.859,0
1512555680.954,-36.621,-9.766,21.973,-17.090,6.836,0
1512555680.958,-30.273,-13.672,16.602,-14.648,5.371,0
1512555680.962,-14.648,-10.742,8.789,-2.930,-1.465,0
1512555680.966,-11.230,-9.277,13.672,-6.348,4.395,0
1512555680.970,-14.160,-7.812,43.457,-9.277,-11.719,0
1512555680.973,-11.230,-8.789,58.594,1.465,14.648,0
1512555680.977,-7.324,-4.883,56.152,2.930,61.035,0
1512555680.981,0.488,-2.441,59.082,2.930,45.898,0
1512555680.985,4.883,-1.953,48.340,7.812,15.625,0
1512555680.989,-5.859,-6.348,30.273,3.418,31.738,0
1512555680.993,-4.883,-3.418,39.551,10.254,23.438,0
1512555680.997,10.254,-6.836,49.316,21.484,18.066,0
1512555681.001,9.766,-9.766,43.945,20.020,18.066,0
1512555681.005,6.836,-6.836,24.902,25.391,16.113,0
1512555681.009,17.090,-2.441,26.367,40.527,9.277,0
1512555681.013,28.320,0.977,59.570,43.457,-15.137,0
1512555681.016,11.719,-7.324,49.316,20.996,-59.570,0
1512555681.020,6.836,-7.812,32.715,18.555,-47.852,0
1512555681.024,23.438,-8.301,46.387,40.527,0.000,0
1512555681.028,5.859,-11.719,49.316,33.691,-29.297,0
1512555681.032,1.465,-9.766,36.133,30.762,-45.410,0
1512555681.036,1.953,-11.719,48.340,21.484,-42.480,0
1512555681.040,-0.488,-1.953,75.195,20.508,-79.102,0
1512555681.044,11.719,6.348,59.082,42.480,-75.684,0
1512555681.048,9.766,-1.465,43.457,34.180,-56.152,0
1512555681.052,-9.277,-8.301,34.180,17.578,-68.848,0
1512555681.056,-17.578,-15.137,15.625,12.695,-75.684,0
1512555681.059,-20.996,-14.160,30.273,10.742,-84.961,0
1512555681.063,-27.344,-10.254,55.664,9.766,-79.590,0
1512555681.067,-24.902,-5.859,51.270,15.625,-46.875,0
1512555681.071,-25.391,-2.441,54.688,7.812,-40.039,0
1512555681.075,-28.320,0.977,41.504,0.488,-69.824,0
1512555681.079,-19.531,3.906,13.672,9.277,-56.641,0
1512555681.083,-3.906,0.977,42.969,9.277,-16.113,0
1512555681.087,-1.953,9.766,51.270,19.531,-35.645,0
1512555681.091,-13.184,15.625,41.504,18.066,-46.875,0
1512555681.095,-14.160,6.348,43.945,0.488,-23.438,0
1512555681.098,-1.465,-6.348,40.039,8.789,6.348,0
1512555681.102,2.930,0.977,50.293,20.020,8.301,0
1512555681.106,3.418,5.371,41.992,22.949,-11.230,0
1512555681.110,1.465,0.977,41.016,20.996,20.508,0
1512555681.114,-3.418,2.441,57.129,11.230,17.578,0
1512555681.118,4.883,8.789,46.875,19.531,14.160,0
1512555681.122,3.906,16.602,38.574,16.113,27.832,0
1512555681.126,-9.277,17.090,33.203,0.000,50.781,0
1512555681.130,-12.207,20.020,36.133,0.000,50.293,0
1512555681.134,-6.836,20.508,35.645,9.766,39.062,0
1512555681.138,-7.812,20.508,36.621,13.672,53.711,0
1512555681.141,-7.324,8.789,50.293,7.324,60.547,0
1512555681.145,-9.277,2.441,21.484,-1.465,35.156,0
1512555681.149,-4.395,8.301,18.066,-2.441,4.883,0
1512555681.153,-0.488,14.160,35.156,1.953,-8.789,0
1512555681.157,-3.418,18.555,36.621,3.906,23.438,0
1512555681.161,-13.672,25.879,43.945,-8.301,22.461,0
1512555681.165,-23.438,21.484,37.598,-10.742,0.977,0
1512555681.169,-14.648,5.859,14.648,-1.953,31.738,0
1512555681.173,-27.344,9.766,31.250,-10.742,35.156,0
1512555681.177,-29.785,23.926,31.250,4.883,4.395,0
1512555681.181,-26.367,26.855,8.789,11.230,-14.160,0
1512555681.184,-49.316,5.371,53.223,-13.672,6.348,0
1512555681.188,-39.062,-0.488,55.664,-15.137,14.648,0
1512555681.192,-24.902,13.672,31.250,7.324,-11.719,0
1512555681.196,-36.133,12.695,25.391,2.930,-33.203,0
1512555681.200,-38.574,10.742,14.648,-10.742,-8.301,0
1512555681.204,-41.504,13.184,38.574,-9.277,19.043,0
1512555681.208,-36.133,12.695,44.922,-5.371,-0.977,0
1512555681.212,-29.297,14.648,31.250,-9.277,28.809,0
1512555681.216,-32.715,13.184,27.344,0.000,46.875,0
1512555681.220,-35.645,9.766,22.949,0.000,6.836,0
1512555681.223,-32.715,13.184,29.785,-4.883,-7.812,0
1512555681.227,-30.273,13.672,24.414,-5.371,7.812,0
1512555681.231,-31.250,5.859,32.227,-12.695,42.480,0
1512555681.235,-20.020,13.184,49.316,-2.930,60.059,0
1512555681.239,-30.273,21.973,38.086,-2.930,25.879,0
1512555681.243,-32.715,12.695,34.668,-9.766,14.160,0
1512555681.247,-19.043,17.578,26.367,-0.488,22.461,0
1512555681.251,-23.926,20.508,21.973,4.395,14.160,0
1512555681.255,-23.926,17.578,31.738,4.883,20.508,0
1512555681.259,-20.996,24.414,23.926,4.883,46.875,0
1512555681.263,-19.531,19.531,18.555,3.906,62.500,0
1512555681.266,-9.277,20.996,34.668,7.812,41.504,0
1512555681.270,2.441,37.598,54.199,26.367,39.062,0
1512555681.274,2.930,36.621,47.852,24.414,66.406,0
1512555681.278,-13.184,23.926,42.969,4.883,64.453,0
1512555681.282,-27.832,21.973,23.438,2.930,37.598,0
1512555681.286,-21.484,21.973,20.020,5.859,13.672,0
1512555681.290,-8.301,23.438,38.086,4.883,20.996,0
1512555681.294,-10.254,26.367,32.715,3.906,38.086,0
1512555681.298,-19.043,24.414,35.645,2.930,23.438,0
1512555681.302,-12.695,23.926,34.668,1.465,3.906,0
1512555681.306,-4.395,32.227,44.434,8.789,5.371,0
1512555681.309,-8.789,25.391,47.363,16.113,17.578,0
1512555681.313,-10.742,23.926,39.062,16.602,17.090,0
1512555681.317,0.977,42.969,37.109,26.367,7.324,0
1512555681.321,-0.977,27.832,34.180,16.602,1.953,0
1512555681.325,-3.906,7.324,32.227,10.742,-12.207,0
1512555681.329,-10.742,20.508,10.742,8.789,-30.762,0
1512555681.333,-20.020,18.066,33.691,8.789,-12.695,0
1512555681.337,-16.602,10.254,67.871,19.531,-19.531,0
1512555681.341,-14.160,14.160,60.059,21.973,-36.133,0
1512555681.345,-20.020,8.789,62.500,3.906,-14.160,0
1512555681.348,-15.625,14.648,59.570,3.418,-9.766,0
1512555681.352,-3.906,25.879,48.828,23.926,-6.348,0
1512555681.356,5.859,25.391,53.223,34.180,11.719,0
1512555681.360,14.648,25.879,48.828,29.297,-8.789,0
1512555681.364,3.418,28.809,41.992,12.207,-2.930,0
1512555681.368,-0.977,19.531,49.316,16.602,42.969,0
1512555681.372,2.930,8.789,44.922,20.020,17.578,0
1512555681.376,2.441,12.695,28.809,18.555,16.113,0
1512555681.380,-7.812,19.043,51.270,16.113,50.781,0
1512555681.384,-1.953,20.996,62.988,22.461,44.922,0
1512555681.388,4.395,17.090,59.570,23.438,16.602,0
1512555681.391,5.859,24.414,46.387,29.297,0.488,0
1512555681.395,14.160,30.273,54.199,32.715,28.809,0
1512555681.399,5.859,28.320,63.477,31.250,51.758,0
1512555681.403,7.324,25.879,53.223,36.133,41.016,0
1512555681.407,6.348,20.020,50.293,26.855,33.691,0
1512555681.411,0.488,18.066,52.246,25.391,48.828,0
1512555681.415,4.883,23.926,42.480,27.344,20.508,0
1512555681.419,-4.395,21.973,35.156,24.414,-10.254,0
1512555681.423,-4.395,27.344,22.949,21.973,27.344,0
1512555681.427,10.742,34.668,32.227,23.926,30.273,0
1512555681.431,4.395,26.367,50.293,28.809,4.395,0
1512555681.434,-7.812,29.785,31.250,19.531,-29.297,0
1512555681.438,-2.930,34.180,28.320,15.137,-40.039,0
1512555681.442,-1.465,27.832,35.156,22.949,16.113,0
1512555681.446,-4.883,26.855,28.320,17.578,-13.672,0
1512555681.450,-6.836,29.785,26.855,16.113,-38.086,0
1512555681.454,-8.301,33.203,38.574,13.184,3.906,0
1512555681.458,-10.254,36.621,40.527,9.766,-19.043,0
1512555681.462,-9.766,35.645,33.691,11.230,-36.133,0
1512555681.466,-1.953,36.621,28.320,10.254,1.465,0
1512555681.470,-2.930,41.992,25.391,4.883,6.836,0
1512555681.473,-3.418,40.039,12.695,10.254,5.859,0
1512555681.477,-1.953,42.480,-4.395,20.020,7.324,0
1512555681.481,-0.977,46.387,11.230,17.578,-2.441,0
1512555681.485,-12.207,41.504,49.805,2.441,15.625,0
1512555681.489,-22.949,37.598,54.199,-1.953,23.926,0
1512555681.493,-22.461,36.133,54.199,-7.324,16.113,0
1512555681.497,-21.973,45.898,23.926,-7.812,55.664,0
1512555681.501,-9.766,53.711,8.301,2.930,93.750,0
1512555681.505,4.395,49.805,20.508,12.695,83.984,0
1512555681.509,-8.301,41.992,12.695,12.695,75.684,0
1512555681.513,-7.812,34.180,8.301,5.371,89.355,0
1512555681.516,-1.953,34.668,19.043,5.371,92.773,0
1512555681.520,-2.441,38.574,31.250,8.301,66.406,0
1512555681.524,-3.906,34.668,21.973,0.488,54.688,0
1512555681.528,-8.301,33.203,13.672,1.465,50.781,0
1512555681.532,-2.930,36.133,13.184,13.184,88.379,0
1512555681.536,-6.836,36.621,31.250,11.230,108.398,0
1512555681.540,-12.207,38.086,37.109,8.301,77.148,0
1512555681.544,-6.836,37.109,8.789,11.230,75.684,0
1512555681.548,0.977,40.527,25.391,8.789,86.426,0
1512555681.552,-5.859,44.434,49.805,4.883,65.430,0
1512555681.556,-15.137,34.180,51.270,15.625,79.102,0
1512555681.559,-18.066,29.785,37.598,16.602,90.820,0
1512555681.563,-7.324,31.250,24.414,16.113,81.055,0
1512555681.567,7.812,33.691,41.016,23.438,66.895,0
1512555681.571,-1.465,38.086,42.969,25.879,53.711,0
1512555681.575,-7.324,37.598,37.598,19.043,63.965,0
1512555681.579,-11.230,34.180,21.484,9.766,53.223,0
1512555681.583,-19.043,23.926,10.254,14.160,39.551,0
1512555681.587,-32.227,23.926,41.016,15.625,59.570,0
1512555681.591,-31.250,28.809,58.594,3.906,65.430,0
1512555681.595,-11.230,36.621,38.574,7.324,53.223,0
1512555681.598,-20.508,31.250,37.109,-0.488,43.945,0
1512555681.602,-24.414,25.879,47.852,-9.766,29.785,0
1512555681.606,-10.742,36.621,48.828,-0.488,57.617,0
1512555681.610,-3.906,49.805,37.598,19.531,68.359,0
1512555681.614,-0.977,43.945,24.902,23.926,44.922,0
1512555681.618,-13.672,32.227,15.137,4.883,61.523,0
1512555681.622,-19.043,32.715,2.930,0.488,48.828,0
1512555681.626,-15.137,31.250,21.484,10.742,36.133,0
1512555681.630,-17.090,30.273,33.203,5.859,38.086,0
1512555681.634,-16.602,37.598,20.508,13.184,40.039,0
1512555681.638,-27.832,39.551,30.762,3.418,68.359,0
1512555681.641,-23.926,44.434,41.504,-10.254,65.430,0
1512555681.645,-5.371,49.316,31.738,3.906,66.895,0
1512555681.649,-15.137,40.039,35.645,8.301,63.477,0
1512555681.653,-21.484,36.621,34.668,14.648,45.410,0
1512555681.657,-22.949,44.434,11.230,9.277,32.227,0
1512555681.661,-21.973,40.527,20.020,7.324,18.555,0
1512555681.665,-24.414,30.762,49.316,9.766,37.598,0
1512555681.669,-27.344,39.062,48.340,2.930,29.297,0
1512555681.673,-16.602,43.457,36.133,12.695,-9.766,0
1512555681.677,-23.438,39.062,24.414,6.348,7.812,1
1512555681.681,-27.344,40.527,40.039,2.441,33.691,0
1512555681.684,-30.762,46.387,47.852,3.906,23.926,0
1512555681.688,-26.367,48.340,42.480,7.324,-1.953,0
1512555681.692,-17.578,48.828,37.109,8.789,11.719,0
1512555681.696,-20.996,46.387,16.602,4.395,51.758,0
1512555681.700,-21.973,44.434,33.203,3.906,34.668,0
1512555681.704,-19.531,45.410,36.133,5.859,26.855,0
1512555681.708,-21.973,45.410,18.555,9.277,33.203,0
1512555681.712,-22.949,44.922,26.855,1.953,-3.906,0
1512555681.716,-12.207,42.969,17.578,8.301,-28.320,0
1512555681.720,-2.441,47.363,32.227,25.391,-46.387,0
1512555681.723,-8.789,43.457,53.711,9.766,-41.992,0
1512555681.727,-12.695,29.297,38.086,-8.789,0.488,0
1512555681.731,-7.324,36.133,36.621,4.395,-12.207,0
1512555681.735,-7.812,44.434,37.598,12.695,-52.734,0
1512555681.739,-7.812,31.738,36.621,10.742,-52.734,0
1512555681.743,0.488,27.832,34.180,18.066,-13.184,0
1512555681.747,1.465,32.715,27.344,28.809,-11.230,0
1512555681.751,-9.277,24.902,23.926,22.949,-41.992,0
1512555681.755,-12.695,22.949,25.391,18.066,-60.059,0
1512555681.759,-12.207,24.414,28.809,17.578,-29.785,0
1512555681.763,-12.695,22.949,33.691,14.648,-51.758,0
1512555681.766,-12.695,25.391,27.344,16.113,-92.285,0
1512555681.770,-19.043,24.902,19.043,13.672,-57.129,0
1512555681.774,-20.508,24.902,28.809,17.090,-39.062,0
1512555681.778,-17.578,24.414,41.992,20.996,-31.738,0
1512555681.782,-14.648,24.414,42.480,18.555,-5.371,0
1512555681.786,-18.555,31.250,32.227,20.508,-18.555,0
1512555681.790,-9.277,37.109,31.250,29.785,-34.668,0
1512555681.794,-3.418,31.738,51.270,30.762,5.859,0
1512555681.798,-24.902,18.066,36.133,14.648,13.672,0
1512555681.802,-32.715,6.836,12.695,8.789,-8.301,0
1512555681.806,-29.785,3.418,29.297,15.625,-11.719,0
1512555681.809,-35.645,7.812,27.344,6.836,-36.621,0
1512555681.813,-29.297,14.648,22.949,6.836,-47.363,0
1512555681.817,-25.391,15.137,44.434,6.348,-31.250,0
1512555681.821,-25.879,16.602,42.480,9.277,-11.230,0
1512555681.825,-17.090,13.672,27.344,21.484,-26.855,0
1512555681.829,-10.742,17.090,34.668,24.902,-15.137,0
1512555681.833,-15.625,25.879,36.621,24.414,15.137,0
1512555681.837,-23.438,14.160,25.879,20.508,-2.930,0
1512555681.841,-19.043,7.324,33.691,17.090,-25.391,0
1512555681.845,-20.020,12.207,33.691,18.555,-13.672,0
1512555681.848,-15.625,12.695,32.227,21.973,-12.207,0
1512555681.852,-10.742,8.789,28.809,25.391,-58.105,0
1512555681.856,-8.301,14.160,36.133,26.855,-66.895,0
1512555681.860,0.488,21.484,52.246,22.461,4.395,0
1512555681.864,-1.465,21.484,60.059,17.578,6.836,0
1512555681.868,8.301,29.297,43.457,27.832,-43.457,0
1512555681.872,14.648,34.180,43.945,41.992,-34.180,0
1512555681.876,5.371,31.250,48.340,41.016,15.625,0
1512555681.880,5.371,27.344,34.668,34.668,15.137,0
1512555681.884,-6.348,15.137,55.176,20.020,-16.113,0
1512555681.888,-15.137,13.184,55.664,13.184,-13.672,0
1512555681.891,-1.465,22.949,20.996,20.020,-6.836,0
1512555681.895,1.953,30.762,36.133,20.508,-19.043,0
1512555681.899,0.000,31.738,39.551,24.414,-40.527,0
1512555681.903,-1.953,16.602,39.551,24.902,-33.691,0
1512555681.907,-10.742,7.324,47.852,17.090,9.277,0
1512555681.911,-5.371,12.207,30.273,24.414,-18.555,0
1512555681.915,-9.766,14.160,32.227,16.602,-14.648,0
1512555681.919,-20.996,5.371,39.551,8.301,21.484,0
1512555681.923,-16.602,2.441,38.574,12.207,18.555,0
1512555681.927,-15.625,0.977,58.594,9.277,25.879,0
1512555681.931,-19.043,2.441,64.941,8.789,19.531,0
1512555681.934,-21.973,5.859,54.199,12.695,16.113,0
1512555681.938,-12.695,10.742,48.340,27.344,42.969,0
1512555681.942,1.953,19.531,50.781,36.133,8.301,0
1512555681.946,1.465,18.555,53.711,24.414,-39.551,0
1512555681.950,-2.441,11.230,52.246,22.461,-18.555,0
1512555681.954,1.465,13.184,41.992,29.297,9.766,0
1512555681.958,2.441,12.207,33.203,31.738,11.230,0
1512555681.962,-9.277,3.418,48.828,21.973,-9.766,0
1512555681.966,-5.859,6.348,59.570,20.020,5.371,0
1512555681.970,4.395,17.090,59.570,32.715,12.207,0
1512555681.973,-0.488,12.695,58.594,33.203,0.000,0
1512555681.977,-3.418,8.301,49.805,25.879,12.207,0
1512555681.981,-0.488,12.207,41.016,20.020,13.672,0
1512555681.985,11.719,20.996,29.785,25.879,9.766,0
1512555681.989,21.484,24.414,27.344,39.551,3.418,0
1512555681.993,22.949,24.902,62.012,40.039,-5.371,0
1512555681.997,21.973,26.855,82.520,44.922,0.488,0
1512555682.001,26.367,25.391,62.500,47.363,0.488,0
1512555682.005,23.926,26.367,49.316,39.551,-25.879,0
1512555682.009,22.461,26.855,55.176,38.574,-18.555,0
1512555682.013,25.879,29.785,68.848,41.504,0.000,0
1512555682.016,22.461,23.926,55.664,45.410,-35.645,0
1512555682.020,22.461,21.484,33.691,52.734,-28.809,0
1512555682.024,22.461,17.578,28.320,39.551,-5.859,0
1512555682.028,33.203,24.902,33.203,41.504,17.090,0
1512555682.032,32.227,31.250,57.129,52.246,9.277,0
1512555682.036,19.043,27.344,73.730,47.852,-26.855,0
1512555682.040,20.996,29.297,73.730,52.246,-25.879,0
1512555682.044,38.086,39.062,72.754,67.383,-12.207,0
1512555682.048,22.949,34.180,71.777,55.176,-19.531,0
1512555682.052,9.277,24.414,52.734,46.387,-33.203,0
1512555682.056,23.438,29.297,22.949,56.152,-5.371,0
1512555682.059,16.113,30.273,41.992,52.246,15.625,0
1512555682.063,16.602,30.762,73.242,41.016,4.395,0
1512555682.067,13.184,27.832,70.312,39.551,9.766,0
1512555682.071,8.301,23.926,69.336,42.480,25.391,0
1512555682.075,13.184,23.926,69.824,31.738,16.602,0
1512555682.079,13.672,28.320,68.359,34.668,9.766,0
1512555682.083,13.184,32.227,65.430,45.898,8.789,0
1512555682.087,5.371,26.855,63.477,38.574,4.883,0
1512555682.091,5.859,22.949,55.176,38.574,10.742,0
1512555682.095,-2.930,21.484,48.828,24.414,-21.973,0
1512555682.098,-10.254,18.066,35.645,11.719,-28.809,0
1512555682.102,-1.953,17.090,35.645,19.531,42.480,0
1512555682.106,-4.395,25.391,22.949,25.391,31.738,0
1512555682.110,-3.418,25.391,40.039,24.902,-3.906,0
1512555682.114,4.395,24.414,63.965,29.785,22.949,0
1512555682.118,-0.488,23.438,52.734,32.715,32.715,0
1512555682.122,1.953,22.461,44.922,29.785,11.719,0
1512555682.126,10.254,27.344,45.898,24.902,-26.367,0
1512555682.130,7.812,29.297,54.199,19.531,-22.949,0
1512555682.134,10.742,29.297,32.715,18.555,-1.953,0
1512555682.138,8.789,21.973,25.391,17.090,-42.969,0
1512555682.141,14.648,24.414,25.879,26.367,-43.945,0
1512555682.145,17.578,23.926,25.879,30.273,7.812,0
1512555682.149,16.602,21.484,38.574,30.273,4.883,0
1512555682.153,21.973,23.438,28.809,35.645,-2.930,0
1512555682.157,19.043,20.996,25.391,33.691,1.465,0
1512555682.161,20.020,24.414,49.316,31.250,21.484,0
1512555682.165,20.020,27.832,46.875,36.621,-13.672,0
1512555682.169,22.949,29.785,43.457,46.387,-1.465,0
1512555682.173,12.695,26.367,44.434,33.203,25.391,0
1512555682.177,6.836,26.367,40.527,29.297,13.184,0
1512555682.181,2.930,21.973,39.062,23.926,25.879,0
1512555682.184,4.883,23.926,41.016,29.785,-9.766,0
1512555682.188,14.648,26.855,37.109,41.504,-13.184,0
1512555682.192,-1.465,16.113,33.203,28.320,51.270,0
1512555682.196,-11.719,8.301,33.691,21.484,43.945,0
1512555682.200,-0.977,8.789,41.016,29.297,21.484,0
1512555682.204,-0.977,6.348,55.176,26.855,62.500,0
1512555682.208,-8.789,6.836,45.410,19.043,46.387,0
1512555682.212,0.488,17.578,30.273,30.273,8.301,0
1512555682.216,-7.324,18.066,31.738,29.785,18.066,0
1512555682.220,-19.531,16.113,33.203,22.949,48.340,0
1512555682.223,-13.672,17.578,43.457,21.973,40.039,0
1512555682.227,-5.859,16.602,34.668,26.367,9.766,0
1512555682.231,-12.207,13.672,18.555,21.973,31.738,0
1512555682.235,-15.625,9.277,24.902,12.695,84.473,0
1512555682.239,-10.254,10.254,51.270,20.020,60.547,0
1512555682.243,-13.184,16.113,61.523,22.949,5.859,0
1512555682.247,-14.648,15.137,41.016,14.160,18.555,0
1512555682.251,-14.160,12.207,33.691,5.371,51.758,0
1512555682.255,-5.371,16.113,59.082,9.766,67.871,0
1512555682.259,3.418,26.855,69.336,24.414,38.086,0
1512555682.263,-10.742,21.973,62.988,20.996,19.531,0
1512555682.266,-15.137,17.578,43.945,12.695,55.176,0
1512555682.270,-9.766,21.973,33.203,10.742,64.453,0
1512555682.274,-9.277,20.020,36.133,4.395,38.086,0
1512555682.278,-4.883,20.996,39.551,9.766,44.922,0
1512555682.282,-3.418,23.438,32.227,20.508,76.660,0
1512555682.286,-1.465,22.461,18.555,18.555,54.199,0
1512555682.290,-0.977,30.762,42.969,24.414,38.574,0
1512555682.294,-3.906,34.180,53.223,32.715,52.246,0
1512555682.298,-1.953,24.414,37.598,26.855,40.039,0
1512555682.302,-6.348,21.484,37.598,21.484,5.371,0
1512555682.306,-5.859,17.578,36.133,24.414,2.930,0
1512555682.309,3.906,21.973,42.969,32.227,21.973,0
1512555682.313,9.277,24.902,41.504,34.668,21.973,0
1512555682.317,7.324,21.973,32.227,25.391,-12.695,0
1512555682.321,7.324,23.926,30.273,28.320,-31.250,0
1512555682.325,3.906,20.020,40.527,35.645,-7.324,0
1512555682.329,5.371,18.066,27.832,31.250,-9.766,0
1512555682.333,19.043,30.762,-6.348,45.410,-34.180,0
1512555682.337,19.043,31.738,38.574,50.293,-24.414,0
1512555682.341,6.836,17.578,62.988,35.156,-5.371,0
1512555682.345,5.859,16.602,47.852,34.180,12.695,0
1512555682.348,9.766,15.625,48.828,30.273,13.672,0
1512555682.352,7.324,7.324,31.738,22.461,5.859,0
1512555682.356,1.953,8.301,37.109,20.996,16.602,0
1512555682.360,7.812,12.695,40.527,22.949,21.484,0
1512555682.364,10.742,10.742,31.738,28.320,-4.395,0
1512555682.368,11.719,14.160,31.738,43.457,31.738,0
1512555682.372,16.113,19.531,23.438,47.363,66.406,0
1512555682.376,12.695,19.043,14.160,38.574,24.902,0
1512555682.380,12.207,13.672,29.297,30.762,-5.371,0
1512555682.384,18.555,15.625,28.809,37.598,12.207,0
1512555682.388,12.207,17.090,18.066,39.062,52.734,0
1512555682.391,10.254,15.137,23.926,34.180,44.434,0
1512555682.395,13.672,12.207,34.668,37.598,23.926,0
1512555682.399,13.184,9.766,31.250,39.551,28.320,0
1512555682.403,17.578,16.602,21.973,42.480,30.273,0
1512555682.407,22.461,21.484,37.598,42.969,47.363,0
1512555682.411,20.020,20.508,48.828,46.387,61.523,0
1512555682.415,12.695,18.066,47.852,52.734,47.852,0
1512555682.419,20.020,17.578,39.062,41.992,32.227,0
1512555682.423,28.320,13.184,23.926,30.762,27.832,0
1512555682.427,22.461,22.949,27.344,36.133,31.250,0
1512555682.431,22.949,31.738,35.156,41.016,47.852,0
1512555682.434,26.367,31.250,19.531,56.641,71.289,0
1512555682.438,14.648,27.344,-3.906,44.922,49.805,0
1512555682.442,2.441,17.090,31.738,29.785,37.598,0
1512555682.446,-1.953,12.207,70.801,36.133,36.133,0
1512555682.450,0.488,8.301,62.012,28.809,16.602,0
1512555682.454,5.859,7.812,41.504,24.414,6.836,0
1512555682.458,12.207,15.137,36.133,28.320,12.695,0
1512555682.462,8.789,16.602,27.344,26.367,20.996,0
1512555682.466,14.160,21.973,28.809,42.969,12.695,0
1512555682.470,22.949,30.762,53.711,48.340,-24.414,0
1512555682.473,16.113,25.391,49.316,38.574,-16.113,0
1512555682.477,15.625,25.879,40.039,43.457,-8.301,0
1512555682.481,17.090,24.414,36.621,44.434,-40.527,0
1512555682.485,15.625,18.555,30.762,42.480,-45.410,0
1512555682.489,19.531,20.996,23.926,43.945,-21.484,0
1512555682.493,22.461,23.438,26.855,44.922,0.000,0
1512555682.497,13.672,27.832,40.039,46.875,-12.695,0
1512555682.501,9.277,26.367,46.875,49.316,-24.414,0
1512555682.505,14.160,26.367,37.598,55.664,-34.180,0
1512555682.509,34.180,38.574,48.828,59.082,-27.832,0
1512555682.513,39.551,37.109,58.105,40.527,-39.062,0
1512555682.516,27.344,24.414,36.133,28.809,-67.871,0
1512555682.520,27.344,21.973,29.785,39.551,-37.598,0
1512555682.524,27.344,22.461,42.969,46.387,-17.578,0
1512555682.528,27.344,24.414,44.434,46.875,-27.832,0
1512555682.532,29.297,21.484,41.504,51.270,-19.531,0
1512555682.536,31.250,20.508,30.762,52.734,-13.672,0
1512555682.540,27.832,22.949,16.602,51.270,-23.438,0
1512555682.544,28.809,28.320,36.133,53.711,-42.480,0
1512555682.548,32.227,34.668,54.688,54.199,-66.406,0
1512555682.552,34.180,37.109,55.664,59.082,-51.758,0
1512555682.556,28.809,32.227,44.434,62.500,-15.625,0
1512555682.559,26.367,31.250,35.156,63.477,-23.438,0
1512555682.563,23.926,31.738,35.645,50.781,-45.898,0
1512555682.567,19.531,26.855,19.043,39.062,-24.414,0
1512555682.571,22.461,27.344,18.066,44.922,-13.672,0
1512555682.575,30.762,32.227,39.062,50.293,-60.547,0
1512555682.579,37.109,35.156,41.992,48.828,-43.457,0
1512555682.583,38.086,40.039,43.457,56.152,6.348,0
1512555682.587,41.992,41.992,43.945,59.082,-13.672,0
1512555682.591,40.527,34.180,35.156,55.176,-6.836,0
1512555682.595,35.156,29.785,35.156,56.152,-0.977,0
1512555682.598,35.645,32.715,41.504,52.734,-21.484,0
1512555682.602,42.969,35.645,38.574,55.664,-45.898,0
1512555682.606,42.480,39.062,12.207,57.129,-27.344,0
1512555682.610,40.039,37.109,8.301,56.641,25.879,0
1512555682.614,41.016,31.738,34.668,58.594,27.832,0
1512555682.618,40.527,35.156,32.715,57.617,20.996,0
1512555682.622,45.410,41.504,22.949,56.641,9.277,0
1512555682.626,48.340,40.039,26.855,57.129,-7.812,0
1512555682.630,39.551,35.645,26.855,48.828,31.738,0
1512555682.634,32.715,34.180,26.367,48.828,48.828,0
1512555682.638,33.203,31.250,24.414,54.199,23.926,0
1512555682.641,37.598,27.344,5.859,49.316,25.879,0
1512555682.645,37.109,27.344,6.836,40.527,5.859,0
1512555682.649,33.691,31.738,23.438,42.969,-0.488,0
1512555682.653,37.109,39.551,33.691,58.594,20.020,0
1512555682.657,30.762,35.645,31.250,46.875,37.109,0
1512555682.661,28.809,34.180,10.742,34.668,19.531,0
1512555682.665,24.902,21.973,14.648,35.156,-5.371,0
1512555682.669,15.625,22.461,26.367,30.762,11.719,0
1512555682.673,18.555,38.086,25.879,34.180,29.297,0
1512555682.677,20.996,36.621,19.043,40.039,41.992,0
1512555682.681,24.902,37.598,29.297,36.133,14.648,0
1512555682.684,25.391,42.480,30.762,24.902,12.207,0
1512555682.688,17.578,45.410,18.066,26.855,49.316,0
1512555682.692,24.902,48.828,21.973,41.504,13.184,0
1512555682.696,25.879,47.852,40.039,37.598,-26.367,0
1512555682.700,24.902,49.316,47.363,34.180,-13.184,0
1512555682.704,30.762,54.199,42.480,35.645,-12.207,0
1512555682.708,19.531,45.410,34.668,30.273,-30.762,0
1512555682.712,13.672,40.039,23.438,27.344,-14.160,0
1512555682.716,17.090,43.945,21.973,25.879,-11.230,0
1512555682.720,18.066,43.457,28.809,36.621,-26.367,0
1512555682.723,23.926,44.922,30.273,38.574,-20.996,0
1512555682.727,29.297,48.340,24.902,35.156,-16.602,0
1512555682.731,35.156,49.805,33.203,41.016,26.855,0
1512555682.735,40.039,53.711,53.711,46.387,32.227,0
1512555682.739,36.133,55.176,58.105,48.340,2.441,0
1512555682.743,32.715,53.711,53.711,52.246,10.742,0
1512555682.747,37.109,53.223,58.105,59.082,-4.883,0
1512555682.751,32.227,43.457,62.012,54.688,-1.953,0
1512555682.755,31.738,44.434,52.246,41.504,-6.348,0
1512555682.759,32.227,47.852,59.082,42.480,-21.973,0
1512555682.763,35.645,46.875,60.547,55.664,1.953,0
1512555682.766,37.598,42.480,44.922,52.734,13.184,0
1512555682.770,37.109,41.992,31.738,54.199,11.719,0
1512555682.774,40.527,46.875,35.645,64.941,-0.488,0
1512555682.778,34.180,48.340,65.918,63.965,20.508,0
1512555682.782,32.227,46.875,58.105,53.711,18.555,0
1512555682.786,27.832,40.527,37.598,41.992,-3.906,0
1512555682.790,20.020,40.527,54.199,44.434,25.879,0
1512555682.794,23.926,42.480,68.359,53.223,41.504,0
1512555682.798,20.020,42.969,68.359,48.340,23.926,0
1512555682.802,7.812,41.504,49.805,42.480,2.930,0
1512555682.806,1.953,36.621,46.387,35.156,26.855,0
1512555682.809,-1.953,33.691,41.504,27.344,41.016,0
1512555682.813,-1.953,35.645,16.602,32.715,20.996,0
1512555682.817,1.465,45.898,26.855,36.133,0.977,0
1512555682.821,-0.488,45.410,47.852,28.809,-6.836,0
1512555682.825,1.953,39.551,45.410,28.809,11.719,0
1512555682.829,0.000,40.039,45.410,27.832,3.418,0
1512555682.833,2.441,43.457,54.199,27.832,-19.043,0
1512555682.837,10.742,47.852,50.781,31.738,16.602,0
1512555682.841,11.230,52.246,41.504,21.484,3.906,0
1512555682.845,4.883,51.758,35.156,4.883,-27.832,0
1512555682.848,4.395,44.922,33.691,9.766,2.930,0
1512555682.852,3.906,52.246,27.832,13.184,25.879,0
1512555682.856,4.883,58.594,22.461,8.301,12.695,0
1512555682.860,-3.906,49.805,24.414,8.301,-9.277,0
1512555682.864,-3.906,44.922,35.645,9.277,7.812,0
1512555682.868,6.836,52.246,43.945,15.625,28.809,0
1512555682.872,5.859,51.758,35.156,18.066,15.137,0
1512555682.876,-3.906,44.922,36.621,11.719,35.156,0
1512555682.880,-11.230,41.016,33.203,4.883,44.434,0
1512555682.884,-11.230,47.852,38.574,5.859,23.926,0
1512555682.888,-5.859,51.758,37.109,13.184,17.578,0
1512555682.891,-6.836,41.016,35.156,18.555,16.602,0
1512555682.895,-3.418,42.969,45.410,22.461,35.645,0
1512555682.899,0.488,47.852,54.199,21.484,48.340,0
1512555682.903,-10.254,40.527,60.059,17.090,27.344,0
1512555682.907,-19.043,33.691,50.781,9.766,2.441,0
1512555682.911,-17.578,33.203,38.086,5.859,41.016,0
1512555682.915,-17.578,36.133,32.227,20.020,69.824,0
1512555682.919,-23.438,38.574,39.551,26.367,37.598,0
1512555682.923,-21.484,42.969,47.363,15.137,25.391,0
1512555682.927,-23.438,42.969,47.852,6.348,14.160,0
1512555682.931,-22.461,43.457,39.062,10.742,-9.277,0
1512555682.934,-15.625,44.922,43.945,19.043,-19.531,0
1512555682.938,-21.973,40.527,33.203,4.883,-13.184,0
1512555682.942,-25.879,36.133,14.160,1.953,7.812,2
1512555682.946,-20.020,36.133,28.320,6.348,14.160,0
1512555682.950,-14.160,36.621,40.039,12.695,-13.672,0
1512555682.954,-23.438,34.180,39.062,-0.488,14.648,0
1512555682.958,-16.113,39.062,22.949,-2.930,31.250,0
1512555682.962,5.371,35.645,20.508,15.137,-11.230,0
1512555682.966,-2.441,31.738,19.531,10.254,-15.625,0
1512555682.970,0.488,33.691,34.180,20.020,3.418,0
1512555682.973,11.719,43.945,59.082,28.809,20.996,0
1512555682.977,14.160,48.340,54.199,26.855,-19.531,0
1512555682.981,-6.348,32.227,38.086,12.207,-61.035,0
1512555682.985,-17.578,21.973,30.273,-3.906,-9.277,0
1512555682.989,-6.348,26.855,18.555,12.207,30.762,0
1512555682.993,-3.418,30.762,25.391,9.766,-1.953,0
1512555682.997,-0.488,27.344,24.414,5.859,-0.977,0
1512555683.001,4.395,27.832,18.066,13.672,20.508,0
1512555683.005,-6.348,24.414,39.062,9.277,13.672,0
1512555683.009,-9.277,20.508,42.969,2.930,-10.254,0
1512555683.013,0.488,27.832,44.434,8.789,-5.859,0
1512555683.016,2.441,31.738,46.387,17.578,16.602,0
1512555683.020,7.812,36.133,35.645,21.973,28.320,0
1512555683.024,-1.465,37.598,35.645,17.578,26.855,0
1512555683.028,-14.648,26.367,28.809,12.207,-2.441,0
1512555683.032,-15.137,20.020,25.879,7.812,23.438,0
1512555683.036,-10.254,27.832,26.855,5.371,40.527,0
1512555683.040,-14.160,25.879,26.855,3.906,15.625,0
1512555683.044,-21.973,19.531,24.414,1.465,-9.766,0
1512555683.048,-21.973,14.648,6.836,11.230,-6.348,0
1512555683.052,-17.090,20.996,1.953,19.531,9.277,0
1512555683.056,-14.160,39.551,21.484,9.277,15.625,0
1512555683.059,-19.531,34.668,33.203,2.441,34.668,0
1512555683.063,-16.113,31.738,34.180,-7.812,41.016,0
1512555683.067,-13.184,36.133,27.832,0.000,4.883,0
1512555683.071,-16.113,38.574,33.691,10.742,-30.762,0
1512555683.075,-12.207,35.156,37.109,4.395,-4.395,0
1512555683.079,-14.648,31.250,31.738,-0.977,10.742,0
1512555683.083,-24.902,29.297,26.855,1.465,-0.488,0
1512555683.087,-17.578,32.715,16.113,10.742,3.906,0
1512555683.091,-14.648,36.621,31.250,8.789,18.555,0
1512555683.095,-21.484,40.039,34.668,9.277,22.461,0
1512555683.098,-22.949,34.180,17.578,5.371,12.207,0
1512555683.102,-11.719,34.180,27.344,0.977,1.953,0
1512555683.106,-9.766,36.621,43.457,11.719,10.254,0
1512555683.110,-18.066,31.250,36.621,3.906,-7.324,0
1512555683.114,-6.348,37.598,32.715,4.395,7.812,0
1512555683.118,-3.418,38.086,41.992,10.742,14.648,0
1512555683.122,-10.254,34.668,34.668,13.672,-23.926,0
1512555683.126,-0.977,34.180,32.227,17.090,-30.762,0
1512555683.130,6.348,35.156,36.621,18.066,-54.688,0
1512555683.134,3.418,38.086,41.504,15.137,-28.809,0
1512555683.138,6.836,40.039,51.758,20.996,-7.812,0
1512555683.141,6.836,35.156,51.758,26.855,-29.297,0
1512555683.145,5.859,37.109,60.547,32.715,-11.719,0
1512555683.149,-1.953,41.504,62.988,40.527,2.441,0
1512555683.153,-9.766,35.645,58.594,37.109,21.484,0
1512555683.157,-0.488,32.227,54.199,42.969,20.996,0
1512555683.161,5.859,35.156,41.992,33.203,8.789,0
1512555683.165,12.207,40.527,35.156,26.367,-14.160,0
1512555683.169,8.301,33.691,44.922,33.203,-21.484,0
1512555683.173,8.789,32.227,60.547,31.738,-15.137,0
1512555683.177,9.277,37.109,67.871,27.832,-10.254,0
1512555683.181,10.742,35.156,59.082,33.691,-4.395,0
1512555683.184,14.160,39.551,64.453,33.691,-1.465,0
1512555683.188,8.789,37.598,61.523,13.672,-2.441,0
1512555683.192,4.883,31.738,46.387,16.602,-15.137,0
1512555683.196,-0.488,41.992,49.805,24.414,-5.859,0
1512555683.200,7.324,41.016,41.016,18.555,-5.859,0
1512555683.204,8.789,29.297,42.480,25.879,-25.879,0
1512555683.208,8.301,31.250,62.500,35.156,-38.086,0
1512555683.212,23.438,45.410,62.500,41.504,-44.922,0
1512555683.216,21.484,49.805,53.711,47.363,-20.508,0
1512555683.220,16.113,38.086,50.293,38.574,-38.086,0
1512555683.223,11.230,30.762,48.828,24.414,-33.691,0
1512555683.227,9.277,27.832,54.199,22.949,17.090,0
1512555683.231,10.742,33.203,48.828,23.438,-11.230,0
1512555683.235,5.859,32.715,41.504,24.902,-34.180,0
1512555683.239,14.648,31.250,48.340,31.738,-3.418,0
1512555683.243,20.020,37.109,43.457,33.691,0.488,0
1512555683.247,9.277,31.250,41.992,32.715,-16.602,0
1512555683.251,10.742,34.180,72.754,36.621,-7.324,0
1512555683.255,17.578,41.504,81.543,43.457,-8.789,0
1512555683.259,10.254,35.156,63.477,40.527,-1.465,0
1512555683.263,16.113,38.574,61.523,47.363,-2.930,0
1512555683.266,0.977,35.645,61.035,43.457,-29.785,0
1512555683.270,-19.043,24.902,47.363,29.785,-5.371,0
1512555683.274,-13.672,27.832,37.109,17.090,0.488,0
1512555683.278,-15.137,34.668,39.062,8.789,-21.484,0
1512555683.282,-10.742,36.621,46.875,23.926,-4.883,0
1512555683.286,-7.324,32.715,47.363,33.691,13.184,0
1512555683.290,-5.371,39.062,36.133,33.691,-19.531,0
1512555683.294,1.465,41.016,49.805,21.973,-30.762,0
1512555683.298,-1.953,35.156,60.059,17.578,24.414,0
1512555683.302,-0.488,37.109,47.363,30.273,3.418,0
1512555683.306,0.000,36.621,37.598,20.996,-28.320,0
1512555683.309,5.371,32.715,25.879,12.207,-24.414,0
1512555683.313,6.348,39.551,31.738,20.996,-45.898,0
1512555683.317,8.789,46.387,53.711,25.879,-13.672,0
1512555683.321,11.719,41.992,54.199,33.203,1.465,0
1512555683.325,4.883,41.016,30.273,31.738,-10.742,0
1512555683.329,-0.488,30.762,38.086,22.461,6.348,0
1512555683.333,-1.953,28.809,49.805,21.484,-15.137,0
1512555683.337,-3.418,38.574,42.969,15.137,-27.344,0
1512555683.341,-4.883,37.109,38.574,14.648,17.578,0
1512555683.345,0.000,38.574,28.809,23.438,16.602,0
1512555683.348,1.465,38.574,18.066,26.367,-10.742,0
1512555683.352,-1.953,37.598,21.973,27.344,-21.973,0
1512555683.356,-0.488,33.203,34.180,15.137,-14.648,0
1512555683.360,1.953,35.156,44.922,7.812,11.719,0
1512555683.364,1.953,37.109,43.945,17.090,17.090,0
1512555683.368,-1.465,37.598,47.852,19.531,10.742,0
1512555683.372,-4.883,41.504,60.547,8.301,12.207,0
1512555683.376,-9.277,40.039,50.293,5.371,17.578,0
1512555683.380,-10.254,35.645,43.457,12.695,28.809,0
1512555683.384,-10.742,32.227,38.086,6.836,31.738,0
1512555683.388,-14.648,28.320,35.645,8.301,22.949,0
1512555683.391,-11.719,27.832,43.457,9.277,25.391,0
1512555683.395,-5.859,33.203,32.715,9.277,24.414,0
1512555683.399,-13.184,37.598,19.531,10.254,-2.930,0
1512555683.403,-13.184,32.227,23.926,12.695,10.254,0
1512555683.407,-0.488,35.156,46.387,16.113,73.730,0
1512555683.411,-1.953,36.133,56.641,12.207,66.895,0
1512555683.415,-6.836,32.227,38.574,8.789,54.688,0
1512555683.419,-13.672,37.109,19.531,7.812,61.523,0
1512555683.423,-8.301,38.086,29.297,18.555,68.848,0
1512555683.427,5.371,31.738,22.949,11.230,38.086,0
1512555683.431,-0.488,34.180,28.320,-4.395,16.113,0
1512555683.434,-14.648,42.969,33.691,1.953,43.457,0
1512555683.438,-16.113,45.898,20.020,11.719,56.641,0
1512555683.442,-13.672,43.945,24.902,4.395,27.832,3
1512555683.446,-5.371,46.387,32.715,9.766,14.160,0
1512555683.450,-2.930,49.805,37.109,15.625,26.367,0
1512555683.454,-7.812,47.363,42.969,0.977,40.527,0
1512555683.458,-5.859,46.387,16.113,-1.465,29.785,0
1512555683.462,-17.090,42.480,6.836,5.859,12.695,0
1512555683.466,-22.461,40.527,44.922,0.000,49.805,0
1512555683.470,-14.648,43.457,47.363,1.465,59.570,0
1512555683.473,-14.160,48.340,33.691,3.418,30.273,0
1512555683.477,-5.859,62.012,37.109,5.371,31.738,0
1512555683.481,-11.230,56.641,32.715,0.488,37.109,0
1512555683.485,-19.043,44.922,23.438,-3.906,41.504,0
1512555683.489,-20.508,45.898,28.809,-5.371,24.414,0
1512555683.493,-20.020,47.852,13.672,-5.371,-1.953,0
1512555683.497,-11.230,52.246,12.695,-2.441,21.973,0
1512555683.501,-12.695,57.129,21.484,-7.324,8.789,0
1512555683.505,-6.836,59.570,21.484,-1.953,-25.879,0
1512555683.509,-12.695,54.688,21.484,-4.395,11.719,0
1512555683.513,-20.508,56.641,-4.883,-7.324,21.484,0
1512555683.516,-8.301,62.988,-8.789,4.883,0.977,0
1512555683.520,-0.488,62.988,22.949,13.672,24.902,0
1512555683.524,-1.465,64.941,35.645,13.184,21.484,0
1512555683.528,-10.254,58.594,26.855,-3.418,27.344,0
1512555683.532,-17.090,48.340,12.207,-13.672,31.250,0
1512555683.536,-18.555,52.246,23.926,-11.230,12.695,0
1512555683.540,-10.254,61.035,27.344,1.465,18.555,0
1512555683.544,-4.883,49.805,16.602,7.812,29.785,0
1512555683.548,-5.371,44.922,17.090,-0.977,18.555,0
1512555683.552,0.488,51.758,7.812,9.277,20.508,0
1512555683.556,7.324,55.176,15.625,8.789,65.430,0
1512555683.559,5.859,57.129,24.902,-6.348,35.645,0
1512555683.563,16.602,56.152,28.809,3.906,-6.836,0
1512555683.567,13.184,53.711,45.410,21.484,15.625,0
1512555683.571,10.742,59.570,52.246,27.344,41.016,0
1512555683.575,20.508,58.594,39.551,26.367,34.180,0
1512555683.579,7.812,48.340,13.184,12.695,7.324,0
1512555683.583,-1.465,47.363,20.020,5.371,9.766,0
1512555683.587,0.488,44.434,46.875,9.766,20.996,0
1512555683.591,-1.465,46.387,35.156,7.812,9.766,0
1512555683.595,-4.395,45.898,16.602,6.348,-25.391,0
1512555683.598,-2.930,40.039,36.133,8.789,-39.062,0
1512555683.602,-9.766,35.156,36.621,11.230,0.488,0
1512555683.606,-12.207,33.203,14.648,11.230,-11.230,0
1512555683.610,-9.277,32.715,23.438,11.230,-29.297,0
1512555683.614,-7.324,34.180,34.668,10.742,-8.301,0
1512555683.618,0.000,36.133,35.156,16.602,6.836,0
1512555683.622,5.371,38.086,40.527,23.438,33.203,0
1512555683.626,-6.836,41.504,32.715,16.602,35.156,0
1512555683.630,-14.648,39.062,22.461,6.348,8.301,0
1512555683.634,-5.371,32.227,8.301,10.742,31.250,0
1512555683.638,-1.953,34.180,20.508,16.113,44.434,0
1512555683.641,-8.301,36.621,49.316,15.137,4.883,0
1512555683.645,-11.719,29.785,44.922,6.348,8.301,0
1512555683.649,-2.441,34.180,46.875,13.184,13.184,0
1512555683.653,-3.906,40.039,41.504,22.949,4.395,0
1512555683.657,-6.348,29.785,28.809,21.973,-8.789,0
1512555683.661,-11.230,38.086,25.879,18.555,-0.977,0
1512555683.665,-13.672,36.621,31.250,11.230,7.812,0
1512555683.669,5.371,32.715,38.574,24.414,-16.602,0
1512555683.673,15.625,41.992,48.828,33.203,13.672,0
1512555683.677,6.836,34.668,33.203,17.578,2.930,0
1512555683.681,2.441,29.785,12.695,7.324,-30.273,0
1512555683.684,4.883,33.691,28.320,10.742,-1.465,0
1512555683.688,7.812,35.156,45.898,13.184,1.465,0
1512555683.692,3.906,33.203,41.504,9.766,19.043,0
1512555683.696,-3.906,33.691,26.367,18.555,15.625,0
1512555683.700,-9.766,32.715,29.297,14.160,-0.977,0
1512555683.704,-18.066,21.484,36.621,1.953,23.438,0
1512555683.708,-19.043,20.996,35.645,2.930,46.387,0
1512555683.712,-21.484,25.391,7.812,4.395,43.457,0
1512555683.716,-33.691,14.648,-1.953,-3.418,13.184,0
1512555683.720,-23.926,10.254,23.926,4.883,-0.488,0
1512555683.723,-28.320,18.555,32.715,0.977,4.883,0
1512555683.727,-42.480,19.043,26.367,-13.184,-10.254,0
1512555683.731,-20.508,19.043,19.531,-6.348,-18.555,0
1512555683.735,-17.090,20.508,24.902,-5.371,23.438,0
1512555683.739,-14.648,19.043,23.926,14.648,52.734,0
1512555683.743,-12.207,19.043,28.320,22.461,7.812,0
1512555683.747,-25.879,18.066,33.691,17.090,7.324,0
1512555683.751,-20.996,21.973,23.926,12.207,48.340,0
1512555683.755,-11.230,19.531,20.508,11.719,24.414,0
1512555683.759,-14.160,20.020,26.855,19.531,39.551,0
1512555683.763,-22.949,20.508,34.668,9.277,39.551,0
1512555683.766,-20.020,13.184,33.203,8.789,35.645,0
1512555683.770,-9.277,19.531,33.203,17.578,37.109,0
1512555683.774,-8.789,26.855,28.809,10.742,-14.160,0
1512555683.778,-14.160,18.066,28.320,2.441,2.930,0
1512555683.782,-2.930,18.555,31.738,18.066,28.320,0
1512555683.786,1.953,27.344,20.020,27.832,20.996,0
1512555683.790,0.488,23.926,29.785,16.602,21.973,0
1512555683.794,4.883,23.438,42.480,28.320,35.156,0
1512555683.798,-5.859,25.879,24.902,37.598,45.410,0
1512555683.802,-11.230,25.391,20.020,26.367,-5.859,0
1512555683.806,-5.371,35.156,31.250,20.996,-10.254,0
1512555683.809,-0.488,38.086,33.691,19.043,22.461,0
1512555683.813,7.324,30.273,31.738,28.320,34.668,0
1512555683.817,19.043,36.133,36.133,34.180,-4.883,0
1512555683.821,21.973,39.062,41.504,33.691,-26.855,0
1512555683.825,13.672,34.180,41.992,30.273,37.109,0
1512555683.829,6.348,28.809,46.875,23.926,42.480,0
1512555683.833,9.766,29.785,27.832,19.531,4.883,0
1512555683.837,20.020,42.480,4.883,28.320,9.277,0
1512555683.841,21.973,41.016,22.949,34.180,8.789,0
1512555683.845,20.508,34.668,41.504,33.691,0.488,0
1512555683.848,16.113,35.645,27.832,31.738,-6.836,0
1512555683.852,20.996,38.574,30.762,34.668,-1.465,0
1512555683.856,23.926,41.504,50.781,31.250,50.293,0
1512555683.860,20.996,40.527,40.039,32.715,35.645,0
1512555683.864,20.020,39.062,18.066,33.691,-1.953,0
1512555683.868,14.160,46.875,31.250,24.414,-5.371,0
1512555683.872,4.395,42.969,37.109,28.320,27.832,0
1512555683.876,2.441,30.273,26.855,38.574,29.785,0
1512555683.880,2.441,26.367,35.156,35.645,-15.625,0
1512555683.884,-0.977,25.879,38.086,20.020,-30.273,0
1512555683.888,8.789,32.227,21.484,22.949,-8.301,0
1512555683.891,13.184,35.645,28.809,30.273,0.488,0
1512555683.895,1.465,31.250,41.504,23.926,-30.762,0
1512555683.899,-1.953,28.809,16.602,10.742,-23.438,0
1512555683.903,-9.277,27.344,13.184,19.531,-4.883,0
1512555683.907,-23.438,26.855,49.805,11.230,-18.066,0
1512555683.911,-19.531,26.855,49.316,5.371,-16.602,0
1512555683.915,-10.254,28.320,24.902,27.344,-1.953,0
1512555683.919,-5.859,31.250,36.133,29.297,8.301,0
1512555683.923,-6.836,27.832,49.316,28.320,1.465,0
1512555683.927,-5.859,23.438,45.898,26.855,-27.832,0
1512555683.931,0.000,26.367,39.551,26.855,12.207,0
1512555683.934,-3.418,24.902,21.484,25.391,40.527,0
1512555683.938,-7.324,21.484,18.555,30.273,-7.812,0
1512555683.942,-4.395,27.344,28.809,29.785,-33.691,4
1512555683.946,0.488,28.809,39.062,20.996,3.906,0
1512555683.950,1.465,24.902,46.875,27.344,15.137,0
1512555683.954,6.348,23.438,39.551,35.156,9.277,0
1512555683.958,10.254,25.391,44.434,35.645,12.695,0
1512555683.962,29.297,39.062,27.344,47.363,-7.324,0
1512555683.966,41.016,42.480,21.973,44.922,-11.719,0
1512555683.970,25.391,29.297,51.758,25.879,-14.648,0
1512555683.973,11.719,31.250,56.641,29.785,-11.719,0
1512555683.977,17.090,27.832,53.711,43.945,14.160,0
1512555683.981,17.578,20.996,46.875,37.109,12.207,0
1512555683.985,12.207,24.414,40.527,25.391,8.301,0
1512555683.989,16.113,23.438,52.734,25.879,-8.301,0
1512555683.993,22.461,28.320,62.012,38.574,-3.418,0
1512555683.997,22.949,40.039,43.457,43.457,23.438,0
1512555684.001,16.113,28.320,44.922,32.227,34.668,0
1512555684.005,12.695,20.020,50.293,27.344,34.180,0
1512555684.009,14.648,24.902,51.758,37.109,33.691,0
1512555684.013,2.930,28.809,44.434,38.574,-7.324,0
1512555684.016,-3.418,25.391,39.551,20.508,-32.227,0
1512555684.020,-7.324,17.090,42.969,15.137,20.020,0
1512555684.024,-13.184,18.066,35.645,20.508,19.043,0
1512555684.028,-7.812,23.438,27.832,34.180,-9.277,0
1512555684.032,1.953,22.949,38.574,35.645,23.438,0
1512555684.036,7.324,23.438,29.297,33.203,32.227,0
1512555684.040,14.160,26.367,18.066,42.480,32.715,0
1512555684.044,1.465,23.438,40.039,33.203,21.484,0
1512555684.048,-0.977,21.973,38.574,25.391,-4.883,0
1512555684.052,10.742,24.902,19.531,31.250,9.766,0
1512555684.056,7.324,27.832,37.109,27.344,22.461,0
1512555684.059,21.484,34.668,54.199,36.133,0.488,0
1512555684.063,23.438,38.574,46.387,33.691,9.277,0
1512555684.067,12.207,32.715,38.086,32.715,39.551,0
1512555684.071,13.672,29.785,29.297,41.016,10.254,0
1512555684.075,11.719,30.273,31.250,21.973,-0.977,0
1512555684.079,2.930,23.926,32.227,16.602,36.133,0
1512555684.083,-2.441,20.020,30.273,17.090,58.105,0
1512555684.087,4.395,20.996,21.484,18.555,33.203,0
1512555684.091,8.789,26.855,19.043,27.832,11.230,0
1512555684.095,3.906,29.297,18.555,26.855,13.184,0
1512555684.098,3.418,30.273,26.367,20.996,-5.859,0
1512555684.102,0.000,28.809,30.273,20.508,-14.648,0
1512555684.106,5.859,32.715,40.039,20.508,-3.906,0
1512555684.110,22.949,45.898,47.363,27.344,24.902,0
1512555684.114,19.043,50.781,28.320,25.879,53.711,0
1512555684.118,14.160,39.551,16.113,15.625,37.109,0
1512555684.122,9.277,30.273,15.137,14.160,39.062,0
1512555684.126,2.441,31.738,23.438,11.719,50.293,0
1512555684.130,4.395,34.668,27.344,10.254,35.645,0
1512555684.134,7.812,48.340,17.090,21.973,34.668,0
1512555684.138,5.371,46.875,18.066,25.391,46.875,0
1512555684.141,-0.488,34.668,22.949,21.973,61.523,0
1512555684.145,9.766,41.992,42.480,25.391,45.410,0
1512555684.149,9.277,39.551,47.363,12.207,-0.488,0
1512555684.153,-7.812,28.809,25.391,-3.418,12.207,0
1512555684.157,-3.418,31.738,28.320,5.371,21.484,0
1512555684.161,-9.277,37.598,24.414,9.277,-11.719,0
1512555684.165,-17.578,30.762,17.090,4.883,-1.465,0
1512555684.169,-6.836,26.855,36.133,1.953,23.438,0
1512555684.173,-10.254,30.273,41.504,-10.254,19.043,0
1512555684.177,-6.348,30.273,12.207,-2.930,2.930,0
1512555684.181,-9.766,29.297,17.578,6.348,9.766,0
1512555684.184,-9.277,31.250,56.641,16.113,10.742,0
1512555684.188,-5.859,30.762,57.617,17.090,9.277,0
1512555684.192,-27.832,21.973,47.363,-8.789,-3.906,0
1512555684.196,-28.809,18.555,36.133,-5.859,-2.441,0
1512555684.200,-24.414,26.855,33.203,9.277,11.230,0
1512555684.204,-15.137,33.203,25.879,7.812,17.090,0
1512555684.208,1.465,32.715,20.020,20.020,1.465,0
1512555684.212,-0.488,35.156,48.828,33.691,-15.625,0
1512555684.216,-0.488,31.738,55.664,28.320,11.719,0
1512555684.220,10.254,31.250,27.832,26.367,-8.789,0
1512555684.223,8.789,31.250,26.367,18.066,-25.391,0
1512555684.227,4.395,26.855,41.504,11.230,-3.418,0
1512555684.231,0.488,33.203,32.715,21.484,13.184,0
1512555684.235,18.555,41.016,33.691,32.227,19.043,0
1512555684.239,30.762,39.551,31.250,29.297,-4.395,0
1512555684.243,26.855,39.062,19.531,21.484,-17.090,0
1512555684.247,18.555,35.645,38.086,27.832,-7.812,0
1512555684.251,20.996,46.387,38.086,43.945,-14.160,0
1512555684.255,29.297,54.688,28.809,46.387,-43.457,0
1512555684.259,29.297,50.781,44.922,41.016,-31.250,0
1512555684.263,35.156,62.500,41.504,41.016,-5.859,0
1512555684.266,31.738,60.059,48.828,41.504,-17.578,0
1512555684.270,27.832,44.434,25.391,29.297,-60.059,0
1512555684.274,28.320,43.457,8.789,26.855,-57.617,0
1512555684.278,23.438,47.852,34.180,38.086,-14.160,0
1512555684.282,27.832,53.711,39.551,44.434,-16.602,0
1512555684.286,32.715,49.316,49.805,34.180,-17.090,0
1512555684.290,33.203,46.875,46.387,26.367,-1.465,0
1512555684.294,30.273,60.059,37.109,39.551,6.836,0
1512555684.298,28.320,57.129,46.875,46.387,-29.297,0
1512555684.302,29.297,42.969,34.668,43.457,-55.664,0
1512555684.306,19.043,39.062,15.137,33.691,-5.371,0
1512555684.309,18.555,43.945,38.086,25.879,-4.883,0
1512555684.313,13.672,44.922,45.410,23.438,-41.016,0
1512555684.317,11.719,46.875,20.020,24.414,-19.531,0
1512555684.321,4.395,42.969,42.480,21.973,18.555,0
1512555684.325,8.789,36.621,74.219,21.484,15.137,0
1512555684.329,13.184,43.457,67.871,19.043,1.953,0
1512555684.333,11.230,41.016,60.059,9.766,-18.555,0
1512555684.337,26.855,42.969,53.711,25.879,-10.254,0
1512555684.341,19.043,40.039,45.898,34.668,-28.809,0
1512555684.345,-3.906,26.367,37.598,15.625,-40.039,0
1512555684.348,0.488,31.738,39.551,21.484,-4.395,0
1512555684.352,17.578,41.016,37.109,34.668,4.395,0
1512555684.356,7.812,41.992,28.809,28.320,-5.859,0
1512555684.360,5.371,39.062,35.156,38.086,0.977,0
1512555684.364,13.672,38.574,35.156,43.945,9.277,0
1512555684.368,17.090,35.645,47.852,40.527,13.672,0
1512555684.372,17.578,37.109,63.477,32.227,3.906,0
1512555684.376,20.508,42.969,50.293,33.203,0.977,0
1512555684.380,25.391,37.109,26.367,46.387,-9.277,0
1512555684.384,23.438,41.504,16.113,46.387,-8.301,0
1512555684.388,19.043,45.410,26.367,38.086,-3.418,0
1512555684.391,18.555,34.180,38.086,42.480,-27.344,0
1512555684.395,24.902,32.715,36.621,48.340,2.441,0
1512555684.399,29.297,33.203,30.762,42.480,13.184,0
1512555684.403,30.762,32.227,28.809,38.574,-13.672,0
1512555684.407,33.203,37.109,28.809,51.758,-12.695,0
1512555684.411,38.574,42.480,20.508,61.035,4.883,0
1512555684.415,41.992,48.340,22.461,63.965,6.348,0
1512555684.419,40.527,49.316,39.062,56.641,10.254,0
1512555684.423,37.598,44.434,55.664,41.992,5.371,0
1512555684.427,38.086,43.457,36.133,40.527,20.020,0
1512555684.431,40.527,40.527,32.227,38.574,35.156,0
1512555684.434,28.809,41.016,33.203,30.762,5.859,0
1512555684.438,20.996,45.410,17.090,43.457,-13.672,0
1512555684.442,22.461,38.086,19.043,36.133,45.898,0
1512555684.446,25.391,40.527,23.438,24.902,40.039,5
1512555684.450,23.438,49.316,13.672,31.738,-29.785,0
1512555684.454,16.113,48.340,23.926,33.691,5.371,0
1512555684.458,12.695,47.852,54.199,38.574,32.715,0
1512555684.462,8.301,45.410,45.898,27.344,-1.465,0
1512555684.466,8.789,41.992,35.156,16.602,23.926,0
1512555684.470,18.555,49.316,35.645,34.180,44.922,0
1512555684.473,21.973,44.922,38.574,32.715,53.711,0
1512555684.477,4.883,33.203,23.438,20.508,27.344,0
1512555684.481,0.977,32.715,26.855,32.715,4.883,0
1512555684.485,7.324,33.691,45.898,32.227,23.926,0
1512555684.489,4.395,30.762,46.875,34.668,22.949,0
1512555684.493,8.301,24.902,32.715,40.039,32.227,0
1512555684.497,10.742,24.902,20.020,45.410,56.641,0
1512555684.501,12.207,27.344,34.180,49.805,86.914,0
1512555684.505,12.695,30.273,41.504,46.875,72.754,0
1512555684.509,10.742,29.785,50.293,42.969,71.289,0
1512555684.513,15.625,26.367,52.246,35.156,91.309,0
1512555684.516,20.996,27.344,33.203,48.340,67.383,0
1512555684.520,18.066,30.762,19.043,59.570,73.242,0
1512555684.524,26.367,31.250,29.785,53.711,36.621,0
1512555684.528,35.156,36.133,37.598,51.270,26.855,0
1512555684.532,23.926,42.480,32.715,45.898,59.082,0
1512555684.536,23.926,34.180,41.992,45.898,48.340,0
1512555684.540,27.832,26.367,27.344,44.434,42.480,0
1512555684.544,27.832,39.551,15.625,47.852,22.949,0
1512555684.548,35.645,43.945,51.758,45.410,29.785,0
1512555684.552,33.691,35.645,57.129,41.016,22.461,0
1512555684.556,37.598,35.156,39.551,41.992,-10.254,0
1512555684.559,31.250,32.227,45.898,42.969,5.859,0
1512555684.563,20.508,30.762,28.320,44.922,19.531,0
1512555684.567,25.391,34.180,16.113,34.180,3.418,0
1512555684.571,31.250,39.551,25.879,41.504,-25.879,0
1512555684.575,37.109,36.621,33.203,45.898,-30.273,0
1512555684.579,39.062,32.227,44.922,39.062,-20.508,0
1512555684.583,35.645,41.504,50.781,48.340,-44.434,0
1512555684.587,34.180,42.480,48.828,49.316,-63.965,0
1512555684.591,31.738,31.738,36.621,41.016,-39.062,0
1512555684.595,20.020,25.391,39.062,40.527,-27.832,0
1512555684.598,17.090,22.949,50.293,42.969,-26.855,0
1512555684.602,20.508,23.438,49.805,47.852,-50.293,0
1512555684.606,14.648,21.973,40.039,50.293,-43.945,0
1512555684.610,9.277,25.391,39.551,35.645,-5.859,0
1512555684.614,9.277,34.668,28.320,30.762,-49.805,0
1512555684.618,7.812,23.438,34.668,31.738,-81.543,0
1512555684.622,6.348,18.555,42.480,31.250,-56.152,0
1512555684.626,-1.465,31.250,37.598,31.250,-36.621,0
1512555684.630,11.719,30.762,32.715,40.039,-45.410,0
1512555684.634,19.043,27.832,16.602,46.875,-44.922,0
1512555684.638,6.836,23.926,24.414,42.480,-28.809,0
1512555684.641,0.488,18.555,44.434,31.738,-49.805,0
1512555684.645,1.465,15.137,37.598,34.180,-74.707,0
1512555684.649,-5.371,15.137,42.969,28.320,-62.012,0
1512555684.653,-8.789,13.672,38.574,22.461,-41.016,0
1512555684.657,-0.977,14.648,23.438,33.691,-48.828,0
1512555684.661,0.000,17.578,26.367,28.320,-47.363,0
1512555684.665,9.766,28.809,14.160,29.297,-63.965,0
1512555684.669,16.602,33.203,14.160,29.785,-72.266,0
1512555684.673,9.277,23.926,8.301,20.508,-92.773,0
1512555684.677,-1.953,23.438,6.836,10.254,-125.000,0
1512555684.681,-3.906,24.902,28.809,16.113,-86.914,0
1512555684.684,4.883,18.555,25.879,22.461,-72.266,0
1512555684.688,12.207,30.273,12.695,28.320,-82.520,0
1512555684.692,15.137,36.133,30.273,31.738,-83.008,0
1512555684.696,5.371,29.297,32.227,15.137,-84.961,0
1512555684.700,1.953,29.785,15.137,14.160,-93.750,0
1512555684.704,8.301,32.227,-0.488,20.508,-88.867,0
1512555684.708,15.137,40.039,2.930,24.414,-81.543,0
1512555684.712,15.625,43.457,26.367,24.414,-55.176,0
1512555684.716,18.066,43.945,20.508,23.926,-74.707,0
1512555684.720,9.766,44.434,-3.906,16.602,-134.766,0
1512555684.723,6.348,48.340,8.301,10.254,-116.699,0
1512555684.727,12.695,50.781,25.391,23.438,-79.102,0
1512555684.731,10.742,53.223,14.160,28.320,-89.355,0
1512555684.735,11.230,53.711,18.066,22.949,-111.816,0
1512555684.739,20.508,48.828,19.043,25.391,-51.758,0
1512555684.743,23.926,47.852,23.926,29.297,-65.430,0
1512555684.747,15.137,48.340,23.438,28.320,-113.770,0
1512555684.751,16.113,50.293,23.438,37.109,-61.523,0
1512555684.755,17.090,50.781,26.855,41.016,-59.082,0
1512555684.759,13.672,41.504,19.531,29.785,-58.594,0
1512555684.763,15.137,38.574,25.391,32.715,-55.176,0
1512555684.766,6.348,41.992,29.297,28.320,-106.934,0
1512555684.770,-9.766,39.062,26.855,14.648,-79.102,0
1512555684.774,-0.488,38.574,26.367,24.902,-41.992,0
1512555684.778,3.418,47.363,7.812,29.785,-68.359,0
1512555684.782,-6.348,40.039,0.488,20.508,-63.965,0
1512555684.786,1.953,29.785,23.438,22.949,-65.430,0
1512555684.790,6.836,39.551,20.508,39.551,-92.285,0
1512555684.794,-4.883,44.434,29.297,33.691,-99.609,0
1512555684.798,-8.301,38.086,53.223,21.484,-96.191,0
1512555684.802,-12.207,35.645,45.898,28.320,-108.887,0
1512555684.806,-12.207,41.016,29.785,33.691,-121.094,0
1512555684.809,-8.301,41.992,21.973,24.414,-138.184,0
1512555684.813,-16.602,42.480,28.809,14.160,-154.785,0
1512555684.817,-11.719,46.387,43.457,21.973,-126.953,0
1512555684.821,-10.742,42.480,41.016,20.996,-112.793,0
1512555684.825,-13.184,48.340,14.160,19.531,-131.348,0
1512555684.829,-7.812,54.199,18.555,23.926,-110.840,0
1512555684.833,-3.906,56.152,40.039,21.973,-98.145,0
1512555684.837,-1.953,51.758,35.645,15.625,-120.605,0
1512555684.841,-2.441,51.270,28.320,16.113,-115.723,0
1512555684.845,5.859,54.199,21.484,20.020,-97.168,0
1512555684.848,-10.254,43.945,21.484,-0.977,-83.496,0
1512555684.852,0.000,52.246,7.812,13.672,-76.172,0
1512555684.856,17.578,59.082,25.391,33.203,-59.570,0
1512555684.860,6.348,52.246,42.969,28.320,-62.500,0
1512555684.864,15.625,57.617,27.344,36.133,-51.270,0
1512555684.868,5.371,51.758,26.367,23.438,-56.152,0
1512555684.872,-8.789,46.387,19.043,15.625,-80.078,0
1512555684.876,2.441,45.410,8.301,25.879,-35.645,0
1512555684.880,3.418,48.828,28.320,21.484,-14.648,0
1512555684.884,0.977,51.758,41.992,23.926,-14.648,0
1512555684.888,-3.418,41.016,44.434,22.949,22.461,0
1512555684.891,-17.578,35.645,40.039,10.254,53.711,0
1512555684.895,-14.648,38.574,29.297,12.695,21.484,0
1512555684.899,-7.324,38.574,28.320,16.602,-37.109,0
1512555684.903,-9.766,35.156,20.508,10.254,-14.648,0
1512555684.907,-11.719,29.297,25.879,9.766,40.527,0
1512555684.911,-12.695,33.203,26.855,24.414,32.227,0
1512555684.915,-3.418,37.109,27.832,31.738,24.902,0
1512555684.919,1.953,35.645,38.086,25.879,47.852,0
1512555684.923,-0.977,36.621,27.344,19.043,63.965,0
1512555684.927,0.000,33.691,23.926,28.809,56.152,0
1512555684.931,-0.977,28.809,41.992,35.156,53.711,0
1512555684.934,2.930,35.156,43.457,25.391,85.449,0
1512555684.938,6.836,36.621,29.297,18.066,83.496,0
1512555684.942,2.441,32.227,25.879,20.020,77.637,0
1512555684.946,5.371,36.621,20.996,20.508,69.824,0
1512555684.950,9.277,38.086,31.738,24.902,83.008,0
1512555684.954,10.742,34.668,33.691,26.855,82.031,0
1512555684.958,9.766,36.133,27.832,25.391,53.223,0
1512555684.962,20.996,41.504,51.270,39.062,59.570,0
1512555684.966,17.578,38.574,53.711,40.527,66.406,0
1512555684.970,11.719,37.598,42.480,41.016,55.176,0
1512555684.973,16.602,36.133,31.250,41.992,19.531,0
1512555684.977,14.648,32.715,34.668,37.109,5.859,0
1512555684.981,18.066,38.574,33.691,42.480,51.270,0
1512555684.985,16.113,38.574,26.855,33.691,69.824,0
1512555684.989,18.555,36.621,41.504,30.273,41.504,0
1512555684.993,21.973,40.039,51.270,43.945,36.133,0
1512555684.997,18.555,44.922,46.387,45.410,67.383,0
1512555685.001,17.578,48.828,34.180,38.574,60.059,0
1512555685.005,23.926,57.129,35.645,41.016,15.625,0
1512555685.009,19.531,51.758,29.785,47.852,23.438,0
1512555685.013,20.508,43.945,16.113,41.992,45.898,0
1512555685.016,20.508,46.387,34.668,43.945,19.531,0
1512555685.020,9.766,43.457,59.082,40.527,-3.418,0
1512555685.024,4.883,36.621,47.363,14.160,16.113,0
1512555685.028,-7.812,37.598,37.109,0.977,44.922,0
1512555685.032,-8.789,41.504,25.879,15.625,21.484,0
1512555685.036,-4.395,41.016,25.391,18.066,13.672,0
1512555685.040,0.488,47.363,44.922,6.348,40.039,0
1512555685.044,7.324,47.363,38.086,12.207,23.438,0
1512555685.048,-0.488,44.922,14.160,24.902,-10.742,0
1512555685.052,-1.465,42.480,12.207,22.461,-10.742,0
1512555685.056,0.000,32.227,26.855,12.695,33.691,0
1512555685.059,-7.812,30.273,30.273,11.230,59.082,0
1512555685.063,2.441,39.062,18.066,19.043,46.387,0
1512555685.067,10.254,46.875,12.207,21.973,47.852,0
1512555685.071,-3.906,39.062,15.137,3.906,63.477,0
1512555685.075,-0.488,34.180,22.461,-0.488,50.293,0
1512555685.079,2.930,41.016,21.973,5.371,30.273,0
1512555685.083,-0.977,35.645,17.578,8.301,23.438,0
1512555685.087,3.418,27.832,28.320,9.766,9.766,0
1512555685.091,0.488,28.809,43.945,2.930,19.531,0
1512555685.095,9.766,28.320,37.598,4.883,17.578,0
1512555685.098,10.742,30.273,22.461,10.742,0.000,0
1512555685.102,2.930,34.180,40.527,14.160,26.367,0
1512555685.106,15.137,36.621,27.344,17.090,21.973,0
1512555685.110,13.672,38.574,21.484,13.672,16.602,0
1512555685.114,14.160,42.969,51.758,22.461,23.926,0
1512555685.118,13.672,38.574,53.711,35.156,44.434,0
1512555685.122,-3.418,26.367,28.320,19.531,31.738,0
1512555685.126,-9.766,26.855,6.348,5.371,-8.789,0
1512555685.130,-8.301,26.367,17.578,13.184,14.648,0
1512555685.134,7.324,24.902,35.645,22.461,41.016,0
1512555685.138,9.766,32.715,56.152,17.090,23.438,0
1512555685.141,-0.977,38.574,47.363,16.602,26.855,0
1512555685.145,2.930,37.109,34.668,17.090,55.664,0
1512555685.149,19.531,39.551,41.016,30.762,66.406,0
1512555685.153,24.902,43.945,39.062,27.832,53.223,0
1512555685.157,16.602,41.016,37.598,21.484,46.387,0
1512555685.161,28.809,45.410,4.395,38.086,51.270,0
1512555685.165,19.043,37.109,9.277,28.809,70.312,0
1512555685.169,-5.859,25.879,60.547,36.621,89.844,0
1512555685.173,0.000,28.320,46.875,28.320,89.355,0
1512555685.177,2.441,36.133,46.875,15.137,79.102,0
1512555685.181,-2.930,43.457,48.340,26.855,54.199,0
1512555685.184,12.207,38.574,35.156,42.969,30.273,0
1512555685.188,3.906,42.480,40.039,32.227,48.828,0
1512555685.192,2.441,49.805,31.250,27.832,96.680,0
1512555685.196,6.348,34.180,41.016,16.113,77.637,0
1512555685.200,-10.254,32.715,61.035,3.906,91.309,0
1512555685.204,-13.672,34.668,39.551,7.324,101.562,0
1512555685.208,0.488,30.273,37.598,8.789,88.867,0
1512555685.212,-9.766,31.250,48.828,6.348,96.680,0
1512555685.216,-13.672,32.227,32.227,-0.977,84.961,0
1512555685.220,-7.812,36.621,21.973,1.953,70.801,0
1512555685.223,-16.602,30.762,33.203,-5.371,76.660,0
1512555685.227,-23.438,24.902,39.551,-12.695,91.309,0
1512555685.231,-24.414,28.809,38.574,-7.812,88.379,0
1512555685.235,-11.719,28.320,36.133,7.812,104.492,0
1512555685.239,-14.648,26.855,28.320,5.371,116.699,0
1512555685.243,-17.090,29.785,30.273,-5.371,93.262,0
1512555685.247,0.977,26.367,36.621,12.207,86.426,0
1512555685.251,-0.488,25.391,36.621,21.973,109.375,0
1512555685.255,-2.441,27.832,44.434,8.301,101.562,0
1512555685.259,-1.953,30.273,41.016,9.277,82.031,0
1512555685.263,-3.906,26.855,19.531,11.230,94.238,0
1512555685.266,-7.812,22.949,23.438,8.789,122.559,0
1512555685.270,-13.184,25.391,30.762,11.719,75.684,0
1512555685.274,-15.137,25.879,35.156,4.883,42.969,0
1512555685.278,-23.438,25.879,36.621,3.418,70.312,0
1512555685.282,-18.066,32.227,23.438,18.555,109.863,0
1512555685.286,-16.113,41.504,39.062,16.113,111.816,0
1512555685.290,-17.578,36.621,43.457,1.465,113.770,0
1512555685.294,-8.789,28.809,36.133,15.137,146.973,0
1512555685.298,-5.371,32.227,35.645,25.391,114.746,0
1512555685.302,-9.277,28.809,33.691,20.996,86.914,0
1512555685.306,-5.371,28.320,17.578,26.855,106.934,0
1512555685.309,-2.930,35.645,18.066,25.391,102.051,0
1512555685.313,-5.371,37.598,45.410,22.949,79.590,0
1512555685.317,-2.930,35.156,49.316,20.996,78.613,0
1512555685.321,-0.977,34.668,48.828,23.438,45.410,0
1512555685.325,-4.883,42.480,47.852,20.996,62.012,0
1512555685.329,-4.883,48.340,44.434,11.719,115.234,0
1512555685.333,-7.812,45.898,44.922,14.160,104.492,0
1512555685.337,-20.508,41.016,39.551,1.953,85.449,0
1512555685.341,-3.906,41.016,12.695,12.695,123.047,0
1512555685.345,10.254,44.434,13.184,20.996,117.676,0
1512555685.348,5.371,41.992,40.527,12.207,80.566,0
1512555685.352,9.766,42.480,42.969,13.184,68.359,0
1512555685.356,12.695,40.039,42.969,18.066,83.984,0
1512555685.360,1.465,46.875,48.828,23.438,100.586,0
1512555685.364,-5.859,47.852,43.457,20.996,104.492,0
1512555685.368,-11.719,40.527,31.250,13.184,97.656,0
1512555685.372,-10.742,28.320,31.738,5.859,105.469,0
1512555685.376,-7.324,33.691,13.672,6.348,77.148,0
1512555685.380,-4.395,57.129,0.488,11.230,34.668,0
1512555685.384,-14.648,55.176,26.855,-1.953,48.340,0
1512555685.388,-10.254,43.457,47.363,1.953,91.309,0
1512555685.391,2.930,43.457,50.293,16.113,84.961,0
1512555685.395,-3.906,42.480,42.969,24.414,42.480,0
1512555685.399,-1.465,42.969,44.434,25.879,61.035,0
1512555685.403,3.906,44.922,48.340,11.719,92.773,0
1512555685.407,-0.488,41.016,30.273,14.648,77.148,0
1512555685.411,-0.488,33.203,42.480,21.484,70.312,0
1512555685.415,-8.789,32.715,42.969,18.066,60.059,0
1512555685.419,-14.648,37.598,26.855,14.648,53.711,0
1512555685.423,-5.371,41.992,36.621,17.090,71.777,0
1512555685.427,-4.395,46.387,38.086,19.531,50.781,0
1512555685.431,4.395,45.898,33.203,31.738,33.203,0
1512555685.434,7.324,39.551,45.898,31.738,46.387,0
1512555685.438,-2.441,40.527,46.387,21.484,36.621,0
1512555685.442,3.906,47.852,44.434,31.250,25.879,0
1512555685.446,3.906,38.086,38.574,32.227,55.176,0
1512555685.450,-13.672,27.344,23.438,26.367,50.781,0
1512555685.454,-9.277,32.715,21.484,32.227,36.133,0
1512555685.458,-6.348,34.180,35.645,16.113,45.898,0
1512555685.462,-6.348,30.762,41.504,16.113,21.484,0
1512555685.466,-9.766,33.691,42.969,14.648,2.930,0
1512555685.470,-15.137,37.598,43.945,18.555,-7.324,0
1512555685.473,-9.277,44.434,36.133,36.621,11.230,0
1512555685.477,-7.812,51.270,39.062,30.762,38.574,0
1512555685.481,-6.348,35.156,48.828,21.973,14.648,0
1512555685.485,-3.906,27.344,30.762,25.391,21.973,0
1512555685.489,-2.930,34.180,24.902,30.273,29.785,0
1512555685.493,6.836,43.945,46.875,41.504,47.363,0
1512555685.497,12.695,41.504,32.227,43.945,12.207,0
1512555685.501,-0.488,27.832,23.438,28.320,-31.738,0
1512555685.505,-5.371,34.180,45.898,27.832,-5.859,0
1512555685.509,2.930,42.480,48.340,39.551,10.254,0
1512555685.513,10.742,35.156,46.387,44.922,4.395,0
1512555685.516,1.953,39.062,42.480,36.621,-25.879,0
1512555685.520,8.301,31.738,27.832,34.180,-13.672,0
1512555685.524,20.020,34.180,30.273,40.039,-8.301,0
1512555685.528,5.371,43.945,41.504,37.109,30.273,0
1512555685.532,2.441,41.992,52.246,33.203,50.293,0
1512555685.536,11.719,46.875,40.527,38.086,43.457,0
1512555685.540,10.742,40.039,27.344,40.527,31.738,0
1512555685.544,3.906,40.039,51.758,35.156,15.137,0
1512555685.548,6.836,41.504,58.105,33.691,26.367,0
1512555685.552,7.812,33.691,41.992,33.203,39.551,0
1512555685.556,7.324,30.273,36.133,31.738,45.410,0
1512555685.559,5.859,37.598,44.434,32.715,13.672,0
1512555685.563,-8.789,37.598,29.785,24.902,-8.789,0
1512555685.567,-3.906,30.273,24.414,24.902,42.969,0
1512555685.571,4.883,37.598,32.715,32.227,53.711,0
1512555685.575,0.488,36.621,49.316,26.855,18.555,0
1512555685.579,-1.465,35.156,57.129,24.902,34.180,0
1512555685.583,5.859,36.133,39.062,29.785,63.965,0
1512555685.587,7.812,43.945,37.598,36.133,55.176,0
1512555685.591,-1.465,36.621,33.203,19.531,52.734,0
1512555685.595,-3.418,30.273,36.133,13.184,49.316,0
1512555685.598,4.395,37.598,39.062,28.320,48.340,0
1512555685.602,6.348,42.480,14.648,30.762,33.203,0
1512555685.606,4.883,31.250,23.926,21.484,4.395,0
1512555685.610,2.441,41.504,44.922,17.578,22.461,0
1512555685.614,12.207,64.941,31.738,36.133,80.078,0
1512555685.618,12.695,47.852,33.203,36.133,63.965,0
1512555685.622,2.441,36.133,36.621,24.902,24.902,0
1512555685.626,-1.953,42.969,31.250,11.719,74.219,0
1512555685.630,-2.441,42.969,32.227,12.695,81.543,0
1512555685.634,-11.719,46.875,23.926,8.789,52.246,0
1512555685.638,-7.812,45.898,22.461,8.789,58.105,0
1512555685.641,-2.441,39.062,25.879,12.207,57.129,0
1512555685.645,-1.953,38.086,26.855,4.883,59.570,0
1512555685.649,1.953,41.504,28.809,3.418,45.410,0
1512555685.653,2.441,47.852,39.551,13.672,35.156,0
1512555685.657,4.395,53.223,50.293,18.555,87.891,0
1512555685.661,5.371,50.293,47.363,22.949,84.961,0
1512555685.665,-12.695,31.738,33.691,7.812,58.594,0
1512555685.669,-20.020,28.320,22.461,-0.977,63.477,0
1512555685.673,-13.672,36.133,27.832,9.277,105.957,0
1512555685.677,-11.719,36.621,35.645,5.371,113.281,0
1512555685.681,10.254,43.945,40.039,10.742,92.773,0
1512555685.684,5.371,48.340,55.176,16.602,125.000,0
1512555685.688,-5.371,49.316,28.320,26.855,113.770,0
1512555685.692,1.953,55.664,17.090,24.414,67.383,0
1512555685.696,-2.441,40.039,44.434,13.672,61.523,0
1512555685.700,2.930,30.273,39.062,15.625,109.375,0
1512555685.704,7.812,43.457,46.387,29.785,131.836,0
1512555685.708,-0.488,40.527,29.297,28.809,86.426,0
1512555685.712,-7.812,35.156,18.066,19.531,73.730,0
1512555685.716,1.465,40.039,43.457,30.762,120.117,0
1512555685.720,7.324,43.457,59.082,36.621,114.746,0
1512555685.723,1.465,41.016,64.453,29.297,120.117,0
1512555685.727,2.441,44.434,47.363,34.180,106.934,0
1512555685.731,9.277,48.340,41.992,39.062,86.914,0
1512555685.735,-6.836,39.062,62.012,23.926,140.625,0
1512555685.739,-19.043,30.762,51.270,6.836,139.648,0
1512555685.743,-9.766,40.527,23.438,24.414,117.188,0
1512555685.747,-0.488,42.480,47.363,36.621,137.695,0
1512555685.751,4.395,41.504,49.316,20.020,130.371,0
1512555685.755,0.488,42.480,42.969,17.578,119.141,0
1512555685.759,12.207,41.504,39.551,31.738,124.512,0
1512555685.763,25.391,53.711,13.184,37.109,148.926,0
1512555685.766,22.461,56.152,20.508,32.715,144.531,0
1512555685.770,15.625,46.387,47.363,21.973,113.770,0
1512555685.774,22.949,43.945,43.945,22.949,126.465,0
1512555685.778,31.738,47.363,41.992,27.344,134.277,0
1512555685.782,34.180,51.758,25.879,29.785,110.352,0
1512555685.786,38.574,47.852,24.414,34.180,93.262,0
1512555685.790,31.738,48.340,47.852,34.668,106.934,0
1512555685.794,33.203,49.805,38.574,33.691,97.168,0
1512555685.798,41.992,46.875,22.461,29.785,47.852,0
1512555685.802,27.344,48.828,30.762,37.598,21.484,0
1512555685.806,17.090,39.062,48.828,43.945,73.730,0
1512555685.809,19.043,41.504,37.109,31.738,106.445,0
1512555685.813,20.508,58.594,26.367,37.598,53.223,0
1512555685.817,36.621,50.781,27.832,54.688,44.434,0
1512555685.821,35.645,37.598,47.363,54.199,78.125,0
1512555685.825,17.090,32.715,62.500,42.969,54.688,0
1512555685.829,7.324,23.926,48.828,27.344,35.156,0
1512555685.833,7.324,24.902,44.922,29.785,19.531,0
1512555685.837,15.137,31.250,47.852,41.016,21.973,0
1512555685.841,17.578,35.645,48.828,46.875,27.832,0
1512555685.845,17.090,31.250,58.105,46.387,-4.883,0
1512555685.848,29.297,37.109,60.059,52.246,-21.484,0
1512555685.852,26.855,41.992,63.477,54.688,4.395,0
1512555685.856,15.137,32.715,55.664,49.805,-6.348,0
1512555685.860,14.160,32.227,45.898,49.316,-27.832,0
1512555685.864,9.277,25.879,52.734,28.809,-19.531,0
1512555685.868,3.906,18.066,38.086,25.879,-7.324,0
1512555685.872,7.324,22.949,39.062,37.598,4.395,0
1512555685.876,7.812,34.180,53.711,43.457,-13.184,0
1512555685.880,2.930,31.250,58.105,33.691,-17.578,0
1512555685.884,-1.953,35.645,60.059,29.785,-9.766,0
1512555685.888,-1.953,40.039,58.594,31.738,-17.578,0
1512555685.891,6.348,32.227,65.430,31.250,-8.301,0
1512555685.895,-4.883,24.414,62.988,19.531,22.949,0
1512555685.899,-5.371,24.902,41.504,17.578,39.551,0
1512555685.903,21.973,33.691,22.461,40.527,39.062,0
1512555685.907,19.043,29.785,33.691,42.969,48.828,0
1512555685.911,11.719,22.461,44.434,37.598,43.945,0
1512555685.915,10.742,25.879,52.734,46.875,20.508,0
1512555685.919,0.977,33.203,56.152,52.246,40.527,0
1512555685.923,0.977,31.738,56.152,42.480,52.246,0
1512555685.927,4.395,18.066,58.594,35.645,44.434,0
1512555685.931,11.230,24.414,63.965,45.410,58.594,0
1512555685.934,10.742,25.879,38.086,42.969,31.738,0
1512555685.938,6.348,23.926,39.551,38.086,45.898,0
1512555685.942,10.742,29.785,65.918,43.945,101.562,0
1512555685.946,3.906,25.879,51.270,35.156,100.586,0
1512555685.950,1.465,36.621,52.734,35.645,82.520,0
1512555685.954,14.648,39.062,65.918,41.992,99.121,0
1512555685.958,21.973,30.762,64.453,41.992,114.258,0
1512555685.962,-4.883,29.297,52.734,23.438,96.191,0
1512555685.966,-14.648,22.949,50.781,14.648,63.477,0
1512555685.970,-3.906,28.809,31.738,24.902,70.312,0
1512555685.973,-8.789,51.270,35.645,19.531,70.801,0
1512555685.977,-11.230,48.828,61.523,17.578,20.508,0
1512555685.981,-12.695,35.645,57.129,15.625,-20.996,0
1512555685.985,-13.672,36.621,51.758,8.789,15.137,0
1512555685.989,-26.367,35.645,28.809,-3.418,45.410,0
1512555685.993,-34.668,36.133,28.809,-4.883,17.090,0
1512555685.997,-36.621,36.621,47.363,-4.395,28.320,0
1512555686.001,-37.598,37.598,41.504,-7.812,35.156,0
1512555686.005,-40.527,35.645,36.133,-8.301,24.414,0
1512555686.009,-38.086,35.156,51.270,-6.348,28.809,0
1512555686.013,-30.762,43.457,67.383,-6.348,38.086,0
1512555686.016,-31.738,44.922,57.129,-6.348,37.109,0
1512555686.020,-34.668,42.969,52.734,-9.766,33.203,0
1512555686.024,-28.809,46.387,38.086,-18.555,9.277,0
1512555686.028,-19.531,47.852,34.668,-10.254,-9.766,0
1512555686.032,-13.184,54.199,41.504,-1.953,24.902,0
1512555686.036,-16.602,52.246,33.691,-13.672,24.414,0
1512555686.040,-15.625,46.387,30.762,-13.672,-0.977,0
1512555686.044,-15.625,50.293,38.086,-2.930,15.137,0
1512555686.048,-5.371,53.223,44.922,4.883,22.461,0
1512555686.052,6.348,48.828,30.762,10.742,13.184,0
1512555686.056,-1.953,46.875,20.508,10.254,30.762,0
1512555686.059,-3.418,51.758,38.086,8.789,38.574,0
1512555686.063,8.301,48.828,40.039,17.090,35.156,0
1512555686.067,13.184,44.922,24.414,25.879,32.715,0
1512555686.071,2.441,57.129,36.621,23.926,30.762,0
1512555686.075,2.441,60.547,34.180,15.137,35.645,0
1512555686.079,25.391,62.500,43.945,16.602,49.805,0
1512555686.083,20.996,66.406,56.641,16.602,44.434,0
1512555686.087,20.020,63.477,41.016,25.391,22.949,0
1512555686.091,20.996,48.340,44.922,19.043,15.137,0
1512555686.095,8.789,44.922,41.504,4.883,51.270,0
1512555686.098,6.836,47.852,26.367,17.090,28.320,0
1512555686.102,1.465,39.551,19.043,16.602,0.488,0
1512555686.106,-2.930,34.668,18.555,7.812,41.992,0
1512555686.110,-4.883,37.598,9.766,10.742,56.152,0
1512555686.114,-6.836,55.176,20.996,10.254,28.809,0
1512555686.118,-5.371,53.223,44.922,8.301,-9.277,0
1512555686.122,0.977,36.133,50.781,15.625,17.090,0
1512555686.126,-3.418,50.293,50.293,17.578,50.781,0
1512555686.130,-3.906,55.176,59.570,16.602,36.133,0
1512555686.134,-1.953,29.297,54.199,12.207,22.949,0
1512555686.138,-6.836,26.855,28.320,5.371,24.414,0
1512555686.141,-0.488,41.016,23.926,2.441,3.906,0
1512555686.145,9.277,41.504,32.715,4.883,-2.930,0
1512555686.149,-1.953,44.922,36.133,14.160,17.578,0
1512555686.153,-21.973,43.457,44.434,4.395,32.715,0
1512555686.157,-16.602,36.133,45.898,-0.488,33.691,0
1512555686.161,-10.742,39.551,41.016,8.301,-14.648,0
1512555686.165,-10.742,43.457,50.781,5.859,-51.758,0
1512555686.169,-2.930,51.270,60.547,11.719,-41.504,0
1512555686.173,4.883,51.758,59.570,13.672,-36.133,0
1512555686.177,-17.090,29.297,44.922,-9.277,-57.617,0
1512555686.181,-36.133,30.273,25.879,-12.207,-52.246,0
1512555686.184,-21.973,37.598,22.461,-1.465,-33.203,0
1512555686.188,-5.859,27.832,31.738,0.977,-46.875,0
1512555686.192,-5.859,28.320,44.922,5.371,-48.828,0
1512555686.196,-6.836,31.738,31.738,10.742,-2.441,0
1512555686.200,1.953,32.715,22.461,15.137,-16.113,0
1512555686.204,4.883,45.410,39.551,19.043,-39.062,0
1512555686.208,6.836,44.922,41.016,18.066,-6.348,0
1512555686.212,10.742,36.621,38.086,21.484,1.465,0
1512555686.216,13.184,40.527,37.109,21.484,0.488,0
1512555686.220,11.719,30.273,47.363,24.414,-20.996,0
1512555686.223,0.977,30.762,41.016,21.484,-27.344,0
1512555686.227,-3.418,35.645,28.809,16.113,16.113,0
1512555686.231,-1.465,35.645,31.738,13.672,8.789,0
1512555686.235,-3.906,30.762,35.156,13.672,3.906,0
1512555686.239,-18.066,30.273,36.133,8.789,25.391,0
1512555686.243,-7.812,41.016,39.551,16.602,17.578,0
1512555686.247,-1.465,34.180,33.203,23.438,3.906,0
1512555686.251,-22.949,28.809,28.320,4.395,15.625,0
1512555686.255,-26.367,30.762,37.109,5.371,11.719,0
1512555686.259,-19.043,35.156,41.992,7.812,11.230,0
1512555686.263,-12.695,28.320,35.156,5.371,7.324,0
1512555686.266,-18.555,27.832,40.527,7.324,-22.461,0
1512555686.270,-20.996,20.508,42.969,9.277,-12.207,0
1512555686.274,-15.137,33.203,35.645,9.766,25.391,0
1512555686.278,-12.207,44.922,29.785,5.371,11.719,0
1512555686.282,-8.789,30.273,25.879,-9.277,-27.344,0
1512555686.286,-17.578,36.621,36.621,-18.066,-16.602,0
1512555686.290,-24.414,36.621,52.246,-15.137,20.996,0
1512555686.294,-15.137,35.156,52.246,-5.371,11.230,0
1512555686.298,-14.160,29.785,37.598,-4.883,19.531,0
1512555686.302,-21.973,32.715,24.902,-15.625,34.668,0
1512555686.306,-17.578,48.340,40.527,-9.766,1.465,0
1512555686.309,-8.301,38.086,61.035,4.395,-21.484,0
1512555686.313,-9.766,26.367,62.988,0.000,14.160,0
1512555686.317,-13.184,24.414,37.598,-9.766,11.230,0
1512555686.321,-13.184,22.949,26.855,-8.301,-14.160,0
1512555686.325,-8.301,20.996,33.691,4.395,0.488,0
1512555686.329,-2.930,25.879,27.344,12.695,-8.301,0
1512555686.333,6.836,33.691,35.156,25.391,-6.348,0
1512555686.337,18.066,30.762,39.551,33.691,2.930,0
1512555686.341,19.531,21.973,38.574,31.250,3.906,0
1512555686.345,25.391,39.062,55.664,33.203,-0.488,0
1512555686.348,27.832,41.016,56.152,35.156,-9.766,0
1512555686.352,18.066,34.180,35.156,38.574,-16.113,0
1512555686.356,15.625,28.809,31.250,34.668,-42.480,0
1512555686.360,7.812,30.273,37.109,21.484,-28.320,0
1512555686.364,0.977,33.691,47.363,19.043,-4.883,0
1512555686.368,3.906,27.344,46.387,29.297,-15.625,0
1512555686.372,3.418,34.180,38.086,29.297,-9.766,0
1512555686.376,4.395,38.574,20.996,21.484,-0.488,0
1512555686.380,12.695,39.551,43.457,29.297,-28.809,0
1512555686.384,19.531,44.434,68.848,41.504,-47.363,0
1512555686.388,10.742,35.156,56.152,34.180,-41.504,0
1512555686.391,0.977,27.344,42.969,18.066,-35.156,0
1512555686.395,-2.930,28.809,35.156,9.766,-25.391,0
1512555686.399,-5.859,31.250,33.203,13.672,-67.383,0
1512555686.403,-3.906,23.926,45.410,16.113,-67.871,0
1512555686.407,-1.953,34.668,38.574,21.484,-23.438,0
1512555686.411,0.977,28.320,20.508,28.809,-20.508,0
1512555686.415,3.418,11.719,37.109,26.367,-22.949,0
1512555686.419,3.906,24.414,70.312,20.508,-41.504,0
1512555686.423,1.465,30.273,65.918,29.297,0.488,0
1512555686.427,-12.207,24.414,60.547,22.461,13.672,0
1512555686.431,-10.742,18.066,51.270,9.766,-9.277,0
1512555686.434,-12.207,20.996,31.250,12.207,-19.531,0
1512555686.438,-20.508,19.043,43.945,18.555,-17.578,0
1512555686.442,-3.906,21.484,37.598,28.320,0.977,0
1512555686.446,4.395,20.508,12.207,23.438,-37.598,0
1512555686.450,7.324,30.273,27.344,23.926,-28.809,0
1512555686.454,17.090,54.688,54.688,33.203,18.555,0
1512555686.458,8.789,44.922,50.293,22.949,-0.488,0
1512555686.462,4.395,32.227,40.527,15.625,-34.180,0
1512555686.466,5.371,24.902,39.551,23.438,-25.391,0
1512555686.470,7.324,26.367,39.062,26.367,-10.254,0
1512555686.473,12.207,31.738,30.762,35.156,-25.879,0
1512555686.477,11.719,31.250,31.738,39.062,-16.602,0
1512555686.481,10.742,31.250,42.480,36.621,-11.719,0
1512555686.485,10.254,28.809,35.156,29.297,-9.766,0
1512555686.489,18.555,41.992,25.879,28.320,-13.672,0
1512555686.493,18.555,41.504,31.250,36.621,-40.527,0
1512555686.497,11.230,33.691,33.203,30.273,-50.293,0
1512555686.501,6.348,36.621,40.039,21.484,-32.227,0
1512555686.505,3.418,35.156,32.715,21.973,-44.434,0
1512555686.509,12.207,34.668,28.320,23.926,-58.594,0
1512555686.513,13.184,38.574,24.902,28.809,0.000,0
1512555686.516,-0.977,35.156,29.785,27.832,-13.672,0
1512555686.520,13.672,32.227,40.039,34.668,-41.504,0
1512555686.524,23.438,39.551,31.250,41.504,-15.625,0
1512555686.528,9.766,39.551,20.020,31.738,-29.297,0
1512555686.532,7.324,47.852,31.738,37.109,-37.598,0
1512555686.536,9.277,50.781,21.484,33.203,-46.387,0
1512555686.540,-6.348,40.527,11.719,9.277,-35.645,0
1512555686.544,-13.184,29.785,34.668,3.906,-12.207,0
1512555686.548,-11.230,33.203,50.781,0.977,-50.293,0
1512555686.552,-12.207,42.480,52.734,4.883,-70.312,0
1512555686.556,-4.395,36.621,46.387,11.719,-14.160,0
1512555686.559,-12.207,40.527,46.387,9.277,1.953,0
1512555686.563,-13.184,39.062,34.668,12.695,-36.621,0
1512555686.567,11.719,43.457,27.832,28.809,-41.504,0
1512555686.571,15.137,50.781,45.898,39.062,-5.371,0
1512555686.575,6.836,39.551,51.758,30.762,-2.930,0
1512555686.579,2.930,35.156,43.945,14.160,-3.418,0
1512555686.583,4.395,36.133,30.762,14.648,12.207,0
1512555686.587,0.000,26.367,31.250,15.625,-5.371,0
1512555686.591,2.441,28.809,34.668,20.508,5.859,0
1512555686.595,12.207,40.039,36.133,29.297,-24.902,0
1512555686.598,3.906,37.109,53.711,24.414,-41.016,0
1512555686.602,21.484,37.598,38.574,38.574,15.137,0
1512555686.606,23.438,39.551,32.227,40.039,-23.438,0
1512555686.610,8.301,33.691,39.062,30.762,-35.645,0
1512555686.614,10.742,35.645,34.180,36.621,-17.090,0
1512555686.618,16.602,34.668,39.551,36.621,-5.371,0
1512555686.622,15.137,31.738,38.086,31.738,0.488,0
1512555686.626,11.230,38.574,46.387,39.062,-32.715,0
1512555686.630,10.742,23.926,41.016,40.527,-18.555,0
1512555686.634,1.953,27.832,33.203,25.391,1.953,0
1512555686.638,0.977,46.387,36.133,24.414,-11.230,0
1512555686.641,25.391,43.945,34.180,41.504,-5.371,0
1512555686.645,23.438,40.039,42.969,39.551,1.465,0
1512555686.649,16.113,41.016,35.645,33.691,-17.090,0
1512555686.653,17.578,39.062,26.855,37.109,-24.414,0
1512555686.657,13.184,33.203,27.344,42.969,-14.160,0
1512555686.661,28.320,42.480,39.062,47.363,-4.395,0
1512555686.665,20.508,34.668,49.805,34.180,-5.371,0
1512555686.669,7.812,27.832,52.246,21.973,-1.953,0
1512555686.673,4.883,32.227,40.039,20.508,-13.184,0
1512555686.677,6.836,34.180,29.785,24.414,-32.227,0
1512555686.681,9.766,36.621,41.992,27.344,-4.395,0
1512555686.684,20.996,46.387,46.875,33.691,-4.395,0
1512555686.688,28.809,56.641,33.691,36.621,-19.531,0
1512555686.692,16.113,54.688,24.902,29.297,-8.301,0
1512555686.696,9.766,40.527,42.480,28.320,-13.184,0
1512555686.700,11.230,33.691,43.945,26.855,-20.996,0
1512555686.704,10.254,33.203,22.949,16.113,5.859,0
1512555686.708,14.160,39.062,3.418,14.648,0.000,0
1512555686.712,17.090,43.457,16.113,32.227,-27.832,0
1512555686.716,8.789,41.016,42.969,31.738,-35.156,0
1512555686.720,4.883,37.109,43.457,18.066,-35.645,0
1512555686.723,6.836,34.180,35.156,22.949,-36.621,0
1512555686.727,10.742,38.574,33.203,34.668,-45.898,0
1512555686.731,7.812,38.086,37.109,33.203,-79.590,0
1512555686.735,5.859,37.598,43.945,31.738,-51.758,0
1512555686.739,3.418,31.250,39.062,24.414,-19.043,0
1512555686.743,-0.977,27.832,23.438,16.113,-80.078,0
1512555686.747,-2.441,28.809,23.926,12.695,-84.473,0
1512555686.751,8.789,36.621,12.695,25.879,-41.016,0
1512555686.755,18.555,48.828,24.414,36.621,-48.828,0
1512555686.759,10.254,48.828,50.781,24.902,-41.504,0
1512555686.763,16.602,43.457,53.711,27.344,-45.898,0
1512555686.766,18.066,40.527,44.922,35.156,-51.270,0
1512555686.770,19.043,45.898,44.922,38.086,-40.527,0
1512555686.774,14.160,44.922,41.016,34.668,-68.359,0
1512555686.778,10.742,41.016,28.320,23.926,-72.266,0
1512555686.782,23.926,44.434,24.902,28.320,-47.363,0
1512555686.786,19.043,54.688,25.879,37.109,-46.387,0
1512555686.790,23.438,53.711,19.043,33.691,-36.621,0
1512555686.794,31.250,51.270,13.672,32.715,-45.410,0
1512555686.798,23.926,58.594,30.762,33.203,-53.711,0
1512555686.802,20.996,57.617,49.316,35.645,-65.918,0
1512555686.806,15.625,52.246,36.621,38.086,-77.637,0
1512555686.809,9.277,49.805,23.438,27.832,-62.500,0
1512555686.813,13.672,47.852,40.039,23.438,-34.180,0
1512555686.817,22.949,49.805,37.598,25.879,-47.852,0
1512555686.821,12.207,43.945,22.461,21.973,-62.500,0
1512555686.825,-2.441,44.922,15.137,18.555,-62.012,0
1512555686.829,18.555,57.129,12.207,31.250,-49.316,0
1512555686.833,32.715,53.711,33.691,34.180,-40.527,0
1512555686.837,27.832,65.918,34.668,31.738,-54.688,0
1512555686.841,31.738,68.359,29.297,41.992,-10.254,0
1512555686.845,44.922,58.105,44.922,49.805,-0.977,0
1512555686.848,42.480,61.523,39.062,51.758,-51.270,0
1512555686.852,22.461,46.875,19.531,52.246,-54.199,0
1512555686.856,19.043,40.527,12.695,41.016,-31.250,0
1512555686.860,20.996,45.410,7.324,36.621,-9.766,0
1512555686.864,21.973,48.828,21.973,45.410,-40.527,0
1512555686.868,19.531,46.875,26.855,43.457,-78.125,0
1512555686.872,19.531,45.898,25.391,31.250,-28.320,0
1512555686.876,25.391,50.293,39.062,33.691,-6.348,0
1512555686.880,22.461,46.875,41.016,46.875,-41.992,0
1512555686.884,20.996,52.246,39.062,37.598,-47.852,0
1512555686.888,13.672,50.781,41.504,27.344,5.859,0
1512555686.891,16.113,45.898,30.273,27.832,14.160,0
1512555686.895,21.484,54.199,36.133,28.320,-21.484,0
1512555686.899,4.883,52.734,35.156,19.531,-10.254,0
1512555686.903,0.000,47.363,26.367,5.859,10.254,0
1512555686.907,6.836,47.852,29.297,16.602,-5.371,0
1512555686.911,7.324,49.805,17.090,22.461,-17.090,0
1512555686.915,6.836,48.340,17.090,17.578,-11.719,0
1512555686.919,4.883,51.270,47.363,18.555,-9.277,0
1512555686.923,7.324,46.875,56.152,22.949,-37.598,0
1512555686.927,3.418,49.805,44.434,24.902,-28.320,0
1512555686.931,2.441,50.293,33.203,20.508,15.625,0
1512555686.934,9.766,43.945,30.762,18.066,-6.836,0
1512555686.938,4.395,43.945,33.691,20.020,-46.387,0
1512555686.942,0.488,41.016,23.926,20.020,-3.418,0
1512555686.946,12.207,42.480,20.996,23.926,25.391,0
1512555686.950,27.832,48.340,35.645,31.250,2.441,0
1512555686.954,21.973,45.410,33.691,35.156,9.766,0
1512555686.958,-1.465,40.039,34.180,30.273,-28.809,0
1512555686.962,7.324,40.527,38.574,32.715,-27.344,0
1512555686.966,7.324,30.273,42.969,26.367,0.977,0
1512555686.970,5.859,35.156,60.547,31.250,-7.324,0
1512555686.973,27.344,46.387,56.641,53.223,0.488,0
1512555686.977,24.414,33.203,58.594,43.457,12.695,0
1512555686.981,5.371,28.320,56.152,27.832,15.137,0
1512555686.985,5.371,28.809,43.457,34.668,2.930,0
1512555686.989,12.695,30.762,46.387,39.551,-7.812,0
1512555686.993,9.277,35.645,50.293,40.039,16.602,0
1512555686.997,11.719,35.156,55.664,38.574,17.578,0
1512555687.001,14.648,38.086,45.898,42.480,29.785,0
1512555687.005,7.324,39.551,37.109,40.039,48.828,0
1512555687.009,-2.930,35.645,34.180,24.414,39.551,0
1512555687.013,-9.277,29.297,31.738,16.602,-10.254,0
1512555687.016,-0.977,25.879,36.621,18.066,-29.297,0
1512555687.020,9.277,37.109,57.129,26.855,34.180,0
1512555687.024,4.395,37.598,58.594,29.297,37.598,0
1512555687.028,2.441,34.668,49.316,19.043,3.418,0
1512555687.032,1.465,43.457,47.363,15.137,10.254,0
1512555687.036,-6.348,37.109,41.992,22.461,39.551,0
1512555687.040,-3.906,27.344,50.781,7.324,52.246,0
1512555687.044,0.977,35.645,24.414,14.648,28.320,0
1512555687.048,-3.418,38.086,26.855,28.809,0.000,0
1512555687.052,7.324,44.434,50.781,26.855,-25.391,0
1512555687.056,13.672,45.898,40.527,23.926,-29.297,0
1512555687.059,10.742,41.504,35.645,20.996,-29.297,0
1512555687.063,7.812,38.086,44.434,17.578,-28.809,0
1512555687.067,13.184,41.504,52.246,26.367,5.859,0
1512555687.071,20.996,50.781,51.270,39.551,22.461,0
1512555687.075,14.160,54.199,44.922,28.809,-4.883,0
1512555687.079,4.395,49.316,24.414,29.297,-1.953,0
1512555687.083,-4.883,41.992,29.297,27.832,33.691,0
1512555687.087,-11.230,41.504,42.480,15.625,17.578,0
1512555687.091,2.441,37.109,46.875,25.391,9.766,0
1512555687.095,5.859,38.574,51.758,23.926,20.020,0
1512555687.098,-4.395,42.969,27.832,17.578,-1.465,0
1512555687.102,2.930,47.363,48.828,25.391,-9.277,0
1512555687.106,8.789,43.457,62.500,36.621,-29.785,0
1512555687.110,2.441,44.922,44.434,38.086,-36.133,0
1512555687.114,13.184,42.969,54.688,37.598,-12.695,0
1512555687.118,22.949,38.086,62.500,37.109,-24.902,0
1512555687.122,9.766,33.203,35.156,27.344,-27.344,0
1512555687.126,-1.465,34.668,32.227,23.438,-4.883,0
1512555687.130,8.789,38.086,22.461,38.086,12.207,0
1512555687.134,12.695,32.227,16.602,42.969,-2.441,0
1512555687.138,8.301,40.039,29.785,38.574,-32.227,0
1512555687.141,14.648,43.457,46.387,32.227,-12.207,0
1512555687.145,22.461,41.992,66.406,29.297,-15.625,0
1512555687.149,16.602,45.898,57.617,34.668,-25.879,0
1512555687.153,21.973,44.922,54.688,47.363,-3.906,0
1512555687.157,22.949,43.457,48.340,44.434,10.742,0
1512555687.161,21.484,49.316,33.203,36.133,-23.926,0
1512555687.165,27.832,55.176,57.617,54.688,-68.359,0
1512555687.169,21.973,54.688,57.129,61.035,-32.227,0
1512555687.173,17.578,44.434,43.945,41.504,-2.441,0
1512555687.177,11.719,32.715,36.133,28.809,-36.133,0
1512555687.181,15.137,40.039,32.715,29.785,-32.715,0
1512555687.184,17.090,40.527,44.922,27.832,-14.648,0
1512555687.188,17.090,40.039,36.133,34.180,2.930,0
1512555687.192,17.578,53.711,43.457,37.109,-8.789,0
1512555687.196,24.414,46.387,51.270,44.434,-45.898,0
1512555687.200,30.762,36.621,39.062,53.223,-27.832,0
1512555687.204,18.066,38.574,28.809,46.875,4.883,0
1512555687.208,17.090,31.250,51.758,42.969,-0.977,0
1512555687.212,33.691,37.109,66.406,58.105,2.930,0
1512555687.216,42.480,46.387,56.152,65.430,-16.602,0
1512555687.220,35.156,44.434,52.246,64.941,-26.855,0
1512555687.223,21.484,41.504,44.434,66.895,-36.621,0
1512555687.227,28.320,41.992,38.574,64.453,-17.090,0
1512555687.231,34.668,41.992,26.855,67.383,7.812,0
1512555687.235,32.715,41.992,41.504,63.965,12.207,0
1512555687.239,34.180,38.086,62.012,60.059,-5.859,0
1512555687.243,35.645,41.504,62.988,65.918,-47.852,0
1512555687.247,29.785,41.992,64.941,59.082,-23.438,0
1512555687.251,35.645,35.645,55.176,61.523,3.906,0
1512555687.255,48.340,39.062,50.781,83.008,-37.109,0
1512555687.259,55.176,41.016,52.734,95.703,-45.898,0
1512555687.263,54.199,37.598,41.504,93.750,-15.137,0
1512555687.266,54.688,35.156,25.879,85.449,-37.109,0
1512555687.270,51.758,35.645,28.320,82.031,-38.086,0
1512555687.274,46.387,36.621,39.551,79.102,-11.719,0
1512555687.278,57.129,37.598,44.922,76.660,4.883,0
1512555687.282,54.688,28.320,27.344,76.172,-0.977,0
1512555687.286,43.457,32.227,35.156,72.754,-10.254,0
1512555687.290,44.434,36.133,59.082,74.707,-8.301,0
1512555687.294,47.852,29.297,49.805,72.266,14.648,0
1512555687.298,45.410,29.785,41.992,64.453,-2.441,0
1512555687.302,46.387,36.133,36.133,63.965,-46.875,0
1512555687.306,36.621,30.762,37.598,54.199,21.973,0
1512555687.309,24.414,20.996,41.504,61.523,42.969,0
1512555687.313,29.297,33.203,31.738,63.477,17.578,0
1512555687.317,33.691,36.621,30.762,53.223,23.438,0
1512555687.321,34.668,31.250,31.738,58.105,55.664,0
1512555687.325,38.086,28.809,15.625,57.129,58.105,0
1512555687.329,51.758,27.832,21.973,56.152,31.250,0
1512555687.333,41.504,41.504,49.316,43.457,-7.812,0
1512555687.337,22.949,38.086,29.297,53.223,-7.812,0
1512555687.341,29.785,30.273,4.883,70.312,43.457,0
1512555687.345,33.203,30.273,29.297,55.176,9.277,0
1512555687.348,24.414,32.227,41.016,49.805,-8.301,0
1512555687.352,22.461,31.738,16.113,49.316,39.062,0
1512555687.356,23.438,23.926,28.320,51.758,42.480,0
1512555687.360,20.996,22.949,48.828,58.594,71.289,0
1512555687.364,24.902,17.578,39.062,60.547,87.402,0
1512555687.368,22.461,16.602,25.391,56.152,46.387,0
1512555687.372,26.367,20.508,16.113,57.617,44.922,0
1512555687.376,29.297,22.949,20.020,57.129,48.828,0
1512555687.380,38.086,21.484,27.344,60.547,65.430,0
1512555687.384,32.715,21.973,34.668,55.176,69.824,0
1512555687.388,29.297,21.973,32.715,66.895,34.668,0
1512555687.391,44.922,20.996,21.484,78.125,14.160,0
1512555687.395,44.922,21.973,26.367,75.195,40.527,0
1512555687.399,35.156,9.277,25.391,68.848,100.586,0
1512555687.403,29.785,16.602,13.184,63.477,69.824,0
1512555687.407,29.297,13.672,13.672,59.570,43.945,0
1512555687.411,29.785,10.742,17.090,59.082,104.492,0
1512555687.415,34.180,28.809,0.000,69.336,108.887,0
1512555687.419,47.363,20.996,22.461,72.266,102.051,0
1512555687.423,41.992,18.555,56.152,66.895,104.980,0
1512555687.427,31.738,22.949,53.711,70.312,88.867,0
1512555687.431,30.273,20.508,46.387,74.219,80.566,0
1512555687.434,38.086,19.531,50.781,75.684,85.449,0
1512555687.438,42.969,22.461,47.852,69.824,122.559,0
1512555687.442,41.016,26.367,21.973,69.824,131.348,0
1512555687.446,50.293,22.949,26.855,80.566,126.465,0
1512555687.450,50.781,20.996,30.273,82.520,113.770,0
1512555687.454,42.480,22.461,17.090,77.637,112.793,0
1512555687.458,52.734,11.719,9.766,72.266,145.020,0
1512555687.462,56.152,17.090,14.160,71.289,159.180,0
1512555687.466,47.363,27.344,27.832,73.242,126.465,0
1512555687.470,47.852,23.926,18.555,66.895,136.719,0
1512555687.473,54.688,26.855,11.719,60.547,149.414,0
1512555687.477,58.594,38.086,40.039,72.266,130.859,0
1512555687.481,69.336,41.016,41.992,81.543,134.766,0
1512555687.485,61.035,28.320,26.367,69.824,141.602,0
1512555687.489,41.504,26.367,28.320,66.895,162.598,0
1512555687.493,40.527,22.949,11.230,60.547,187.988,0
1512555687.497,34.668,16.602,1.953,51.758,173.828,0
1512555687.501,42.969,33.691,21.973,66.406,181.152,0
1512555687.505,46.875,33.691,42.480,72.754,185.059,0
1512555687.509,42.969,21.484,33.203,62.988,147.461,0
1512555687.513,38.086,29.297,20.020,54.688,159.180,0
1512555687.516,45.410,25.391,13.672,58.105,195.801,0
1512555687.520,51.758,31.250,23.438,64.941,155.273,0
1512555687.524,60.059,37.598,17.090,72.754,110.352,0
1512555687.528,64.941,22.461,-8.789,73.730,132.812,0
1512555687.532,51.758,13.672,0.488,63.965,166.504,0
1512555687.536,52.246,16.113,20.996,61.523,157.715,0
1512555687.540,44.434,10.742,28.809,55.664,116.699,0
1512555687.544,32.227,11.230,20.020,54.688,109.375,0
1512555687.548,34.180,21.973,16.602,63.477,109.863,0
1512555687.552,34.668,29.297,13.672,64.453,108.398,0
1512555687.556,37.109,26.855,4.395,61.523,100.586,0
1512555687.559,49.805,27.832,19.043,63.965,97.656,0
1512555687.563,40.039,14.648,21.484,60.547,88.379,0
1512555687.567,32.715,13.184,5.371,55.176,77.637,0
1512555687.571,34.668,28.320,0.488,54.199,87.891,0
1512555687.575,14.160,19.531,12.695,41.504,122.070,0
1512555687.579,23.926,16.113,24.902,43.945,132.324,0
1512555687.583,33.203,21.973,13.672,53.223,87.891,0
1512555687.587,25.879,27.344,6.836,45.410,84.961,0
1512555687.591,33.691,24.414,-2.930,44.434,101.562,0
1512555687.595,33.691,25.879,-11.230,45.410,109.375,0
1512555687.598,31.738,29.297,-1.465,48.340,104.980,0
1512555687.602,40.039,31.738,13.672,54.688,129.883,0
1512555687.606,39.062,32.227,19.531,58.105,133.789,0
1512555687.610,30.762,29.785,3.906,53.711,107.422,0
1512555687.614,27.832,30.762,-14.648,45.410,144.531,0
1512555687.618,20.020,27.344,9.766,40.527,143.555,0
1512555687.622,18.066,14.648,25.391,40.527,126.465,0
1512555687.626,27.344,14.648,20.996,46.875,128.418,0
1512555687.630,27.344,31.250,25.879,43.945,117.676,0
1512555687.634,42.969,37.109,30.273,51.758,132.324,0
1512555687.638,53.223,38.086,23.438,55.176,126.465,0
1512555687.641,46.387,40.527,14.160,43.945,114.746,0
1512555687.645,33.691,37.109,23.438,36.621,83.496,0
1512555687.649,20.996,31.738,13.184,27.344,103.516,0
1512555687.653,18.066,31.738,-9.277,25.391,142.578,0
1512555687.657,20.020,33.691,-1.953,22.949,98.145,0
1512555687.661,15.625,48.340,13.672,28.320,66.895,0
1512555687.665,16.602,39.551,25.391,31.250,84.473,0
1512555687.669,11.719,20.508,28.320,25.391,103.027,0
1512555687.673,14.160,30.762,19.043,33.691,50.293,0
1512555687.677,15.625,32.227,21.484,20.020,-6.348,0
1512555687.681,3.418,15.625,22.949,10.742,45.410,0
1512555687.684,1.953,21.484,30.762,20.996,85.449,0
1512555687.688,8.301,38.086,39.551,25.879,27.832,0
1512555687.692,-0.977,32.227,29.297,21.484,18.066,0
1512555687.696,0.488,26.367,21.973,19.043,41.504,0
1512555687.700,-1.953,25.391,30.273,15.137,30.273,0
1512555687.704,-10.742,26.367,38.086,11.230,36.133,0
1512555687.708,-1.953,25.879,36.621,19.531,10.742,0
1512555687.712,12.695,21.484,29.297,25.391,-19.043,0
1512555687.716,7.324,24.414,29.297,19.043,-12.695,0
1512555687.720,-1.465,31.738,36.621,22.949,-51.758,0
1512555687.723,2.930,31.250,41.992,21.973,-73.730,0
1512555687.727,0.488,31.738,28.809,16.602,-41.504,0
1512555687.731,-4.883,35.645,-2.930,19.531,-6.836,0
1512555687.735,4.883,31.250,10.742,21.973,-27.832,0
1512555687.739,8.301,31.250,26.855,19.531,-52.246,0
1512555687.743,-2.930,30.762,29.785,13.672,-37.109,0
1512555687.747,1.465,25.879,38.086,14.648,-74.707,0
1512555687.751,-5.859,32.715,43.945,5.371,-113.770,0
1512555687.755,-13.184,36.133,41.016,4.395,-85.449,0
1512555687.759,-12.695,31.250,41.504,1.953,-78.613,0
1512555687.763,-17.090,31.738,44.434,-6.836,-89.355,0
1512555687.766,-11.719,37.109,44.434,-8.301,-104.492,0
1512555687.770,-11.230,42.969,30.273,-10.254,-72.754,0
1512555687.774,-25.879,37.109,23.926,-14.160,-42.480,0
1512555687.778,-27.832,38.086,43.945,-21.973,-77.637,0
1512555687.782,-16.602,44.434,41.504,-17.090,-99.609,0
1512555687.786,-33.203,44.922,41.504,-21.973,-72.266,0
1512555687.790,-59.082,40.527,58.105,-34.668,-41.016,0
1512555687.794,-63.477,41.992,46.875,-29.297,-42.480,0
1512555687.798,-61.035,41.016,36.621,-33.203,-49.805,0
1512555687.802,-70.801,34.668,45.898,-43.945,-41.016,0
1512555687.806,-66.895,36.621,49.316,-43.457,-60.547,0
1512555687.809,-67.383,40.039,37.109,-41.504,-85.938,0
1512555687.813,-66.406,44.434,34.668,-45.410,-71.289,0
1512555687.817,-67.383,45.898,43.945,-48.828,-34.180,0
1512555687.821,-71.289,42.969,35.156,-41.504,-33.203,0
1512555687.825,-66.406,43.945,34.180,-40.039,-27.344,0
1512555687.829,-65.918,51.758,32.715,-42.969,-28.320,0
1512555687.833,-63.965,55.664,30.762,-44.434,-13.672,0
1512555687.837,-70.312,57.129,57.617,-54.688,-12.695,0
1512555687.841,-77.637,50.293,72.266,-57.129,-19.531,0
1512555687.845,-77.637,40.039,60.059,-62.012,2.930,0
1512555687.848,-79.102,45.410,60.547,-62.988,-13.184,0
1512555687.852,-82.520,47.363,73.730,-53.711,-14.648,0
1512555687.856,-79.590,45.410,66.895,-51.758,-19.531,0
1512555687.860,-65.918,40.039,41.992,-41.504,-9.277,0
1512555687.864,-47.363,43.457,20.996,-28.809,32.715,0
1512555687.868,-44.922,46.387,37.109,-32.227,28.809,0
1512555687.872,-47.852,37.109,54.199,-35.645,3.418,0
1512555687.876,-45.898,30.273,56.152,-33.203,28.809,0
1512555687.880,-42.969,30.273,47.852,-24.414,54.199,0
1512555687.884,-30.762,35.156,44.434,-12.695,38.574,0
1512555687.888,-23.438,38.086,57.617,-5.371,5.859,0
1512555687.891,-26.367,34.668,59.082,-4.395,40.527,0
1512555687.895,-23.926,36.133,44.922,-2.930,48.340,0
1512555687.899,-14.648,36.621,62.500,-0.488,-13.672,0
1512555687.903,-15.137,28.809,69.336,9.277,-2.441,0
1512555687.907,-7.812,28.809,44.922,10.254,14.648,0
1512555687.911,2.930,30.273,30.273,4.395,-8.789,0
1512555687.915,12.695,33.203,39.062,19.043,-22.461,0
1512555687.919,17.578,31.738,50.781,32.227,-5.859,0
1512555687.923,15.137,21.973,51.758,23.926,-12.695,0
1512555687.927,28.320,31.250,49.316,35.156,-41.992,0
1512555687.931,32.715,42.969,43.457,46.875,-28.809,0
1512555687.934,35.156,36.133,69.336,46.875,-24.414,0
1512555687.938,47.852,36.621,83.008,66.406,-11.719,0
1512555687.942,49.805,38.574,64.453,73.242,-59.570,0
1512555687.946,47.363,33.691,38.086,62.988,-117.188,0
1512555687.950,39.551,35.156,32.715,52.734,-58.594,0
1512555687.954,38.574,28.320,54.688,50.781,-37.598,0
1512555687.958,41.504,24.902,39.062,55.176,-81.543,0
1512555687.962,41.992,24.414,32.715,53.223,-75.195,0
1512555687.966,42.480,22.461,53.223,49.316,-59.570,0
1512555687.970,40.527,27.344,27.832,46.875,-45.898,0
1512555687.973,37.109,27.832,5.371,42.480,-33.691,0
1512555687.977,28.809,27.832,50.781,41.504,-44.434,0
1512555687.981,38.574,34.180,81.543,51.758,-29.785,0
1512555687.985,45.410,32.715,51.270,56.641,-22.461,0
1512555687.989,35.645,31.738,34.180,52.246,-56.152,0
1512555687.993,19.043,28.809,49.805,43.945,-65.430,0
1512555687.997,8.789,12.207,53.711,28.320,-32.227,0
1512555688.001,13.184,6.836,44.922,32.227,-31.738,0
1512555688.005,14.648,15.137,38.574,41.016,-36.133,0
1512555688.009,16.113,12.207,41.016,38.574,-4.395,0
1512555688.013,24.414,12.695,30.762,28.320,-0.977,0
1512555688.016,19.043,17.578,39.551,18.555,-13.672,0
1512555688.020,25.391,24.414,41.016,37.598,-20.508,0
1512555688.024,27.344,24.414,26.367,45.410,7.812,0
1512555688.028,12.207,20.508,46.387,30.273,37.109,0
1512555688.032,14.648,20.996,60.547,28.320,8.789,0
1512555688.036,26.367,20.996,63.477,47.363,-1.465,0
1512555688.040,19.531,15.625,50.293,47.852,-2.441,0
1512555688.044,-0.488,11.719,42.480,30.762,6.836,0
1512555688.048,4.883,-1.953,67.383,27.832,15.625,0
1512555688.052,18.066,0.488,63.965,34.180,-23.926,0
1512555688.056,17.090,11.230,32.715,44.922,10.254,0
1512555688.059,16.113,12.695,41.504,45.410,31.738,0
1512555688.063,18.066,14.648,51.758,40.039,-20.996,0
1512555688.067,21.484,8.789,45.410,42.480,-16.113,0
1512555688.071,30.273,13.184,35.156,44.922,25.879,0
1512555688.075,28.809,16.602,43.945,43.457,6.348,0
1512555688.079,22.461,12.207,62.988,36.133,4.883,0
1512555688.083,22.461,14.648,55.664,34.668,16.602,0
1512555688.087,30.273,15.137,43.457,45.898,18.555,0
1512555688.091,17.090,8.301,60.547,37.598,12.207,0
1512555688.095,8.789,10.742,60.059,32.227,-13.184,0
1512555688.098,21.973,12.695,45.898,44.434,4.395,0
1512555688.102,20.508,6.348,23.438,34.180,62.012,0
1512555688.106,20.020,6.836,16.113,29.785,48.340,0
1512555688.110,18.555,11.719,50.781,40.039,1.465,0
1512555688.114,14.648,4.395,75.195,34.668,35.645,0
1512555688.118,17.090,-2.930,71.777,25.879,57.617,0
1512555688.122,14.160,0.977,41.016,24.902,27.344,0
1512555688.126,27.344,10.254,61.523,39.062,42.969,0
1512555688.130,32.227,13.184,78.613,49.316,67.383,0
1512555688.134,20.996,9.277,63.965,35.156,48.340,0
1512555688.138,21.973,3.906,47.852,33.691,36.621,0
1512555688.141,24.902,6.836,36.133,41.992,47.852,0
1512555688.145,17.578,14.648,28.320,40.527,63.965,0
1512555688.149,18.066,10.742,25.879,41.504,61.523,0
1512555688.153,25.879,5.371,35.156,43.457,38.086,0
1512555688.157,26.855,9.277,41.992,47.363,40.039,0
1512555688.161,26.367,9.766,54.688,49.805,43.457,0
1512555688.165,30.762,4.883,60.059,46.875,38.574,0
1512555688.169,37.598,10.742,60.547,47.852,41.504,0
1512555688.173,38.574,15.137,65.430,61.035,22.949,0
1512555688.177,31.250,11.719,59.570,59.570,11.719,0
1512555688.181,21.484,1.953,51.758,50.293,24.902,0
1512555688.184,32.227,-7.324,44.434,51.270,8.301,0
1512555688.188,40.039,1.953,37.598,57.129,15.137,0
1512555688.192,31.250,3.906,36.133,58.105,40.527,0
1512555688.196,36.621,1.465,49.805,60.547,47.852,0
1512555688.200,46.875,14.648,51.758,64.941,22.949,0
1512555688.204,49.316,13.184,53.711,66.406,2.441,0
1512555688.208,50.293,6.836,55.176,69.336,4.883,0
1512555688.212,53.711,9.766,54.199,68.848,-15.625,0
1512555688.216,44.434,5.859,45.410,62.988,-27.832,0
1512555688.220,45.410,0.488,44.922,59.570,-2.930,0
1512555688.223,47.852,2.930,66.406,60.547,-10.254,0
1512555688.227,41.992,6.836,48.828,56.641,-36.621,0
1512555688.231,42.969,5.371,20.996,53.223,-55.664,0
1512555688.235,44.434,1.953,26.367,59.082,-11.230,0
1512555688.239,44.434,6.836,36.133,62.500,-5.859,0
1512555688.243,40.039,10.742,21.973,62.500,-20.508,0
1512555688.247,54.199,9.277,18.066,66.406,-8.789,0
1512555688.251,58.594,15.137,31.250,58.105,-11.230,0
1512555688.255,36.133,20.020,35.645,52.734,-13.184,0
1512555688.259,39.062,26.367,33.203,58.105,-2.930,0
1512555688.263,41.504,20.020,29.785,53.711,9.277,0
1512555688.266,33.691,7.812,22.461,46.875,18.555,0
1512555688.270,31.250,10.742,9.277,40.039,19.531,0
1512555688.274,32.715,23.438,49.805,42.969,10.742,0
1512555688.278,29.785,27.832,52.734,45.898,15.137,0
1512555688.282,21.973,16.602,26.855,40.039,25.391,0
1512555688.286,26.855,9.277,49.805,43.945,28.809,0
1512555688.290,30.273,17.090,62.012,43.457,8.301,0
1512555688.294,28.809,18.555,61.035,36.133,2.930,0
1512555688.298,36.133,18.066,55.664,39.551,33.691,0
1512555688.302,32.227,18.555,53.711,41.504,20.020,0
1512555688.306,20.020,13.672,60.547,35.645,8.789,0
1512555688.309,20.020,12.207,65.430,35.645,38.086,0
1512555688.313,19.043,10.254,38.574,39.062,40.039,0
1512555688.317,6.348,19.531,30.273,40.039,-13.672,0
1512555688.321,18.555,19.531,56.152,40.039,-20.508,0
1512555688.325,28.809,7.812,50.293,34.180,16.113,0
1512555688.329,34.668,19.531,55.176,49.805,-0.977,0
1512555688.333,38.574,34.180,77.637,62.012,-35.156,0
1512555688.337,31.250,21.484,77.148,50.781,-48.340,0
1512555688.341,24.414,7.324,60.059,48.828,-62.012,0
1512555688.345,10.742,6.348,40.527,49.316,-31.738,0
1512555688.348,13.672,7.812,42.969,45.898,-38.086,0
1512555688.352,18.066,8.301,68.848,41.992,-85.449,0
1512555688.356,22.461,9.766,70.801,40.527,-62.988,0
1512555688.360,23.438,14.648,61.523,46.387,-29.785,0
1512555688.364,25.391,23.438,76.660,48.828,-29.297,0
1512555688.368,28.809,20.996,72.754,55.176,-36.133,0
1512555688.372,27.344,17.090,76.660,55.664,-21.973,0
1512555688.376,31.250,23.438,59.570,51.758,-16.602,0
1512555688.380,25.391,15.137,41.504,48.828,-49.316,0
1512555688.384,18.066,8.789,62.500,46.387,-57.129,0
1512555688.388,25.391,13.184,67.871,53.223,-22.949,0
1512555688.391,32.227,15.137,61.035,58.594,-26.367,0
1512555688.395,37.109,19.531,27.344,63.965,-32.715,0
1512555688.399,35.645,19.531,26.855,63.965,-21.973,0
1512555688.403,41.504,19.043,77.637,70.312,-8.301,0
1512555688.407,41.016,24.902,70.801,73.242,-6.836,0
1512555688.411,45.898,20.996,62.012,63.965,-10.254,0
1512555688.415,45.410,9.277,70.312,56.641,-13.672,0
1512555688.419,32.715,16.602,37.109,63.477,1.953,0
1512555688.423,41.016,21.484,38.574,70.312,15.625,0
1512555688.427,43.945,17.090,76.660,65.430,-6.836,0
1512555688.431,41.504,19.043,72.754,65.918,18.555,0
1512555688.434,41.992,22.949,63.965,74.707,38.574,0
1512555688.438,25.391,20.508,59.570,66.406,17.090,0
1512555688.442,22.949,28.320,52.246,59.082,33.203,0
1512555688.446,38.086,28.320,59.082,59.570,42.480,0
1512555688.450,33.691,17.090,56.152,51.758,23.438,0
1512555688.454,29.785,19.043,30.762,48.340,-15.137,0
1512555688.458,30.273,24.414,10.742,55.176,-24.902,0
1512555688.462,24.902,20.996,34.668,52.734,-8.301,0
1512555688.466,29.297,23.438,60.059,53.711,-28.320,0
1512555688.470,44.434,36.621,62.012,65.430,-42.480,0
1512555688.473,36.621,25.391,65.430,51.270,-20.508,0
1512555688.477,10.254,20.508,62.988,41.016,12.207,0
1512555688.481,4.883,32.227,45.898,44.434,-0.977,0
1512555688.485,11.230,35.156,36.621,31.738,4.883,0
1512555688.489,23.926,29.785,42.480,35.156,1.465,0
1512555688.493,27.344,25.391,46.387,45.410,0.488,0
1512555688.497,19.043,26.367,42.480,34.180,0.488,0
1512555688.501,20.508,27.344,19.531,35.156,-19.043,0
1512555688.505,21.973,28.320,25.391,46.875,-19.043,0
1512555688.509,17.090,31.250,44.922,52.246,-4.395,0
1512555688.513,11.230,36.133,50.781,40.039,-7.324,0
1512555688.516,17.578,41.016,50.781,30.273,-14.160,0
1512555688.520,11.719,39.551,48.828,24.902,12.695,0
1512555688.524,1.465,33.203,55.664,21.973,32.227,0
1512555688.528,-0.488,36.133,52.246,17.090,18.066,0
1512555688.532,0.000,46.387,51.270,19.531,10.254,0
1512555688.536,-0.977,46.387,52.246,21.973,10.742,0
1512555688.540,-6.836,48.340,56.641,11.230,20.996,0
1512555688.544,-18.066,47.852,42.480,-0.977,5.859,0
1512555688.548,-15.625,54.688,43.945,4.395,-1.953,0
1512555688.552,-18.066,65.918,58.594,-0.488,12.695,0
1512555688.556,-40.039,62.988,50.293,-29.297,36.621,0
1512555688.559,-44.434,61.035,52.734,-30.273,10.254,0
1512555688.563,-42.480,60.547,56.641,-20.508,-18.066,0
1512555688.567,-41.016,56.641,56.152,-26.367,10.254,0
1512555688.571,-46.387,56.152,56.641,-28.809,24.414,0
1512555688.575,-55.176,59.082,67.871,-34.668,15.625,0
1512555688.579,-51.270,58.594,75.684,-40.039,26.367,0
1512555688.583,-52.734,53.223,69.336,-38.574,61.035,0
1512555688.587,-63.965,52.246,69.336,-49.805,52.246,0
1512555688.591,-72.266,62.012,58.594,-62.500,29.785,0
1512555688.595,-63.477,64.941,50.293,-46.875,28.809,0
1512555688.598,-69.336,64.941,38.086,-52.246,-11.230,0
1512555688.602,-72.266,60.547,36.133,-60.547,-45.898,0
1512555688.606,-67.871,56.641,55.664,-58.594,-53.223,0
1512555688.610,-73.242,48.828,33.203,-58.594,-24.902,0
1512555688.614,-64.941,54.199,23.438,-43.457,-8.789,0
1512555688.618,-58.594,71.289,58.594,-39.551,-45.410,0
1512555688.622,-62.012,71.289,72.754,-35.156,-64.453,0
1512555688.626,-70.312,67.871,74.219,-47.363,-50.293,0
1512555688.630,-72.754,60.547,76.172,-62.500,-50.781,0
1512555688.634,-56.641,65.918,60.547,-40.527,-60.547,0
1512555688.638,-50.781,63.477,62.012,-41.016,-32.227,0
1512555688.641,-55.176,57.129,51.758,-45.410,-10.742,0
1512555688.645,-51.758,62.012,17.578,-41.504,-14.648,0
1512555688.649,-52.734,64.453,49.316,-44.922,-45.410,0
1512555688.653,-49.805,57.129,69.336,-39.062,-41.016,0
1512555688.657,-43.945,53.711,44.434,-29.785,-11.230,0
1512555688.661,-39.551,59.082,43.457,-27.832,-10.254,0
1512555688.665,-41.504,62.012,49.316,-31.250,-27.832,0
1512555688.669,-41.016,65.430,54.688,-24.902,-10.742,0
1512555688.673,-35.645,64.941,63.477,-22.949,15.137,0
1512555688.677,-39.551,56.152,61.035,-28.809,-10.742,0
1512555688.681,-54.199,56.641,41.504,-41.016,9.766,0
1512555688.684,-45.898,58.594,39.062,-27.344,30.762,0
1512555688.688,-31.250,36.621,19.043,-8.789,14.648,0
1512555688.692,-29.785,37.598,16.602,-13.184,-13.672,0
1512555688.696,-32.715,48.828,50.781,-13.672,-49.316,0
1512555688.700,-22.461,46.875,38.086,-8.301,9.277,0
1512555688.704,-7.812,52.734,20.996,0.488,52.734,0
1512555688.708,-8.789,43.457,48.340,0.488,4.883,0
1512555688.712,-13.672,40.527,62.012,-1.953,7.812,0
1512555688.716,-15.625,40.527,46.387,1.465,41.504,0
1512555688.720,-11.230,35.645,44.434,7.324,53.223,0
1512555688.723,-11.230,36.133,49.805,6.836,92.285,0
1512555688.727,-18.066,33.691,37.109,-2.441,90.332,0
1512555688.731,-9.766,30.273,22.949,6.348,91.309,0
1512555688.735,-1.465,28.320,34.668,13.184,93.750,0
1512555688.739,-1.953,31.738,43.945,15.137,113.770,0
1512555688.743,0.000,33.691,35.645,24.414,110.352,0
1512555688.747,7.324,40.039,36.621,24.902,104.004,0
1512555688.751,9.277,29.297,27.832,23.438,110.352,0
1512555688.755,-4.883,27.344,29.785,10.254,56.152,0
1512555688.759,-8.301,35.156,57.617,8.301,65.918,0
1512555688.763,13.184,27.344,54.688,32.227,103.516,0
1512555688.766,22.461,27.832,34.180,35.156,101.074,0
1512555688.770,21.484,27.344,23.926,25.879,96.680,0
1512555688.774,21.973,31.738,31.738,22.949,102.539,0
1512555688.778,22.949,34.180,38.574,22.949,101.074,0
1512555688.782,23.926,35.645,21.484,26.855,80.566,0
1512555688.786,30.273,40.527,24.902,40.039,72.754,0
1512555688.790,27.832,38.574,33.691,46.387,71.289,0
1512555688.794,27.344,39.062,26.367,33.691,67.871,0
1512555688.798,21.484,38.086,18.555,27.832,47.852,0
1512555688.802,12.207,35.156,33.691,24.902,34.180,0
1512555688.806,24.902,32.227,55.664,28.809,88.867,0
1512555688.809,38.086,40.527,34.668,45.898,94.238,0
1512555688.813,31.738,42.480,23.438,43.457,35.156,0
1512555688.817,23.926,30.762,48.340,30.762,41.504,0
1512555688.821,28.809,30.762,43.457,33.691,39.551,0
1512555688.825,28.320,39.551,29.297,33.203,19.531,0
1512555688.829,35.645,41.504,47.363,40.527,27.344,0
1512555688.833,35.645,34.668,44.434,45.410,13.672,0
1512555688.837,25.879,40.527,31.738,34.668,-13.672,0
1512555688.841,18.555,40.039,36.133,33.691,2.930,0
1512555688.845,21.973,36.133,36.133,32.227,-17.578,0
1512555688.848,21.973,39.551,37.109,25.391,-56.641,0
1512555688.852,23.438,41.504,37.109,23.926,-22.949,0
1512555688.856,36.133,44.922,23.926,30.273,-15.137,0
1512555688.860,21.973,41.016,21.973,27.344,-71.777,0
1512555688.864,8.301,35.645,39.062,15.625,-86.426,0
1512555688.868,9.277,29.297,54.199,8.789,-68.359,0
1512555688.872,5.859,32.715,60.547,16.602,-83.008,0
1512555688.876,8.301,30.762,27.344,19.043,-100.586,0
1512555688.880,7.324,29.297,21.973,17.090,-111.328,0
1512555688.884,3.906,32.227,36.621,20.996,-108.398,0
1512555688.888,13.184,25.879,21.484,24.902,-118.652,0
1512555688.891,17.090,31.738,22.461,23.926,-127.930,0
1512555688.895,16.602,35.645,26.855,31.738,-114.258,0
1512555688.899,14.160,27.344,28.320,29.297,-113.281,0
1512555688.903,19.043,32.227,43.945,22.461,-101.562,0
1512555688.907,12.207,29.785,58.105,14.648,-113.281,0
1512555688.911,-1.953,26.367,41.992,8.301,-108.887,0
1512555688.915,5.859,32.227,9.277,22.949,-107.910,0
1512555688.919,5.859,30.273,23.438,20.020,-126.465,0
1512555688.923,2.930,37.109,47.363,14.160,-125.000,0
1512555688.927,14.160,41.992,35.645,21.484,-130.371,0
1512555688.931,10.254,38.086,38.086,20.996,-143.066,0
1512555688.934,10.742,44.922,53.711,31.250,-175.293,0
1512555688.938,-0.977,41.504,34.668,22.949,-152.832,0
1512555688.942,-12.695,26.367,32.715,2.930,-113.770,0
1512555688.946,-2.441,26.855,56.152,8.301,-100.586,0
1512555688.950,-8.301,32.227,49.805,2.441,-109.375,0
1512555688.954,-6.836,40.039,35.645,4.883,-98.633,0
1512555688.958,0.488,42.969,41.016,20.996,-78.125,0
1512555688.962,-2.930,40.527,53.711,16.602,-74.219,0
1512555688.966,3.906,40.527,43.945,21.973,-56.152,0
1512555688.970,1.953,40.039,21.973,22.461,-17.578,0
1512555688.973,-7.324,40.527,10.742,13.184,-35.645,0
1512555688.977,-2.441,48.828,11.719,24.414,-57.129,0
1512555688.981,1.953,45.410,38.574,20.996,-61.035,0
1512555688.985,6.836,34.668,43.457,9.277,-49.805,0
1512555688.989,10.742,36.621,38.086,16.602,-2.441,0
1512555688.993,8.301,40.039,40.039,28.809,-11.230,0
1512555688.997,15.137,48.340,35.645,35.156,-41.992,0
1512555689.001,16.602,50.781,35.645,26.855,-36.621,0
1512555689.005,19.043,53.711,26.367,29.785,-21.973,0
1512555689.009,22.949,57.617,29.297,37.598,-22.461,0
1512555689.013,11.230,55.176,27.344,24.902,-39.551,0
1512555689.016,14.648,56.641,23.926,17.578,-33.691,0
1512555689.020,16.113,49.316,25.391,23.926,-48.340,0
1512555689.024,3.418,44.922,15.137,20.020,-66.406,0
1512555689.028,1.465,45.898,18.555,15.625,-53.711,0
1512555689.032,0.488,44.922,34.668,12.207,-25.879,0
1512555689.036,-0.488,48.828,26.855,12.695,-43.945,0
1512555689.040,-0.488,54.688,31.738,26.855,-53.711,0
1512555689.044,-3.418,52.734,36.133,23.926,-30.762,0
1512555689.048,4.395,47.363,29.785,13.184,-37.109,0
1512555689.052,-3.906,38.086,20.020,5.371,-56.641,0
1512555689.056,-7.812,42.969,27.344,4.395,-60.547,0
1512555689.059,4.883,50.781,42.480,16.113,-38.086,0
1512555689.063,-4.883,44.922,35.156,9.277,-5.859,0
1512555689.067,-14.160,49.316,38.574,-5.371,-16.113,0
1512555689.071,-4.883,48.340,22.949,5.371,-45.410,0
1512555689.075,-0.977,30.762,11.230,5.859,-24.414,0
1512555689.079,-9.766,31.738,23.438,-6.348,0.000,0
1512555689.083,-13.184,46.387,38.574,-6.348,-15.625,0
1512555689.087,-17.090,41.992,56.152,-13.184,-20.020,0
1512555689.091,-19.043,40.039,43.457,-13.184,-6.348,0
1512555689.095,-13.672,41.992,18.066,-11.230,-4.395,0
1512555689.098,-12.695,39.551,19.043,-10.742,-19.043,0
1512555689.102,-8.789,51.270,36.133,7.812,-26.855,0
1512555689.106,-1.953,53.223,44.434,19.531,-5.371,0
1512555689.110,-7.812,42.480,43.457,11.719,8.301,0
1512555689.114,-17.578,40.039,24.902,-4.395,-23.926,0
1512555689.118,-26.367,36.621,27.344,-9.766,-27.832,0
1512555689.122,-21.973,37.109,32.227,-8.301,-17.578,0
1512555689.126,-9.766,38.574,22.461,-0.977,-23.926,0
1512555689.130,-3.906,39.062,26.855,10.254,-57.129,0
1512555689.134,2.930,43.945,1.465,21.484,-67.383,0
1512555689.138,6.348,43.457,-4.395,23.438,-57.129,0
1512555689.141,8.789,46.387,42.480,28.809,-35.156,0
1512555689.145,9.277,47.363,57.129,29.297,-26.855,0
1512555689.149,0.488,34.180,30.762,17.578,-27.832,0
1512555689.153,-4.395,33.203,13.672,19.531,-14.160,0
1512555689.157,-2.930,35.645,-6.836,18.066,-53.223,0
1512555689.161,6.836,30.273,-8.301,24.414,-89.355,0
1512555689.165,13.672,39.062,20.996,27.344,-68.359,0
1512555689.169,19.043,50.293,33.691,32.227,-34.180,0
1512555689.173,20.020,45.410,5.859,42.969,-35.156,0
1512555689.177,19.531,39.551,6.836,41.016,-45.898,0
1512555689.181,17.090,42.969,29.297,31.250,-71.777,0
1512555689.184,21.973,46.875,24.414,26.367,-66.406,0
1512555689.188,28.320,44.434,44.434,28.809,-64.453,0
1512555689.192,19.531,41.504,27.344,16.113,-63.965,0
1512555689.196,16.113,42.969,0.977,20.020,-49.316,0
1512555689.200,12.207,39.062,10.742,21.973,-48.340,0
1512555689.204,9.277,43.457,20.996,14.160,-68.848,0
1512555689.208,24.414,54.199,13.672,30.762,-81.543,0
1512555689.212,26.367,46.875,2.930,37.109,-53.223,0
1512555689.216,5.859,33.203,7.812,22.949,-51.270,0
1512555689.220,6.348,36.621,24.414,20.508,-61.035,0
1512555689.223,8.789,29.785,38.574,22.461,-47.363,0
1512555689.227,6.348,29.297,36.621,25.391,-16.113,0
1512555689.231,15.625,45.898,35.645,44.434,-19.531,0
1512555689.235,13.672,39.551,-5.371,41.016,-38.086,0
1512555689.239,4.883,33.203,-29.297,23.438,-24.414,0
1512555689.243,9.277,36.133,16.602,28.809,-6.836,0
1512555689.247,15.625,34.668,44.434,22.461,-43.945,0
1512555689.251,14.160,28.320,29.785,5.371,-47.363,0
1512555689.255,8.789,27.832,14.648,-1.953,-3.418,0
1512555689.259,6.348,30.273,19.531,6.348,-0.488,0
1512555689.263,8.789,34.668,33.691,16.602,-22.461,0
1512555689.266,11.719,36.133,40.527,13.672,-43.457,0
1512555689.270,10.254,33.691,26.367,12.695,-10.254,0
1512555689.274,23.926,38.086,25.391,26.367,13.672,0
1512555689.278,31.250,42.480,33.691,26.855,-9.766,0
1512555689.282,23.926,42.480,17.090,25.879,-45.410,0
1512555689.286,23.438,41.504,12.695,30.762,-30.273,0
1512555689.290,19.043,32.715,18.066,26.367,10.742,0
1512555689.294,16.602,31.250,20.020,19.531,-12.695,0
1512555689.298,20.508,41.016,4.395,16.602,-32.715,0
1512555689.302,28.809,41.992,2.930,32.227,5.371,0
1512555689.306,28.809,39.062,32.227,34.180,5.371,0
1512555689.309,21.484,39.551,35.645,29.297,-27.344,0
1512555689.313,27.832,39.551,14.160,33.203,0.488,0
1512555689.317,31.738,44.922,23.438,28.809,36.621,0
1512555689.321,37.598,57.129,48.340,42.969,31.738,0
1512555689.325,43.457,48.828,26.367,49.805,3.906,0
1512555689.329,30.762,33.203,23.438,25.391,22.949,0
1512555689.333,21.973,45.410,37.598,22.461,42.480,0
1512555689.337,23.926,48.340,24.414,26.367,15.137,0
1512555689.341,23.926,39.551,39.062,20.508,9.766,0
1512555689.345,22.949,41.504,23.438,22.949,23.438,0
1512555689.348,31.250,42.969,-16.602,34.180,5.859,0
1512555689.352,36.133,46.875,20.020,46.875,-7.812,0
1512555689.356,35.156,46.387,23.438,44.922,-17.578,0
1512555689.360,29.297,41.504,28.809,32.227,1.465,0
1512555689.364,31.250,41.992,47.852,35.645,23.926,0
1512555689.368,27.832,42.480,37.109,38.086,19.043,0
1512555689.372,16.602,36.621,50.781,35.645,27.344,0
1512555689.376,15.137,33.691,49.805,29.785,27.344,0
1512555689.380,13.672,35.645,38.574,24.902,19.043,0
1512555689.384,18.555,39.062,28.320,27.344,25.391,0
1512555689.388,15.137,39.062,21.484,28.809,34.668,0
1512555689.391,8.789,34.180,39.551,33.691,35.645,0
1512555689.395,17.090,38.574,47.852,40.527,15.625,0
1512555689.399,13.184,26.855,39.551,38.086,2.441,0
1512555689.403,8.789,26.855,21.484,25.391,0.977,0
