timestamps,TP9,AF7,AF8,TP10,Right AUX,Marker0
1512569199.499,25.391,12.695,41.504,30.762,-428.223,0
1512569199.502,23.926,18.555,53.711,41.504,-438.965,0
1512569199.506,34.668,29.785,48.340,51.270,-412.598,0
1512569199.510,35.645,25.391,28.320,41.016,-419.434,0
1512569199.514,32.227,20.508,33.691,29.785,-453.613,0
1512569199.518,29.297,19.531,31.250,23.438,-458.984,0
1512569199.522,33.691,22.949,40.039,23.926,-455.078,0
1512569199.526,42.480,28.320,56.641,28.320,-445.801,0
1512569199.530,49.805,39.551,53.223,44.922,-472.656,0
1512569199.534,53.711,39.551,41.992,53.711,-504.395,0
1512569199.538,37.109,24.414,35.645,28.320,-487.305,0
1512569199.541,26.367,21.973,33.203,9.277,-468.750,0
1512569199.545,30.273,21.973,31.250,16.602,-485.352,0
1512569199.549,40.039,24.414,32.227,27.832,-484.375,0
1512569199.553,33.691,31.738,50.293,38.574,-459.961,0
1512569199.557,20.020,31.738,47.363,44.434,-492.676,0
1512569199.561,23.926,31.250,33.203,44.922,-506.348,0
1512569199.565,28.320,32.715,30.762,36.133,-501.465,0
1512569199.569,28.320,31.738,33.691,29.785,-520.996,0
1512569199.573,29.785,29.297,42.480,21.973,-557.129,0
1512569199.577,33.203,30.762,44.922,19.043,-589.355,0
1512569199.581,30.762,32.715,26.367,15.625,-558.594,0
1512569199.584,26.367,32.227,28.320,20.020,-523.926,0
1512569199.588,18.555,32.715,41.016,20.996,-531.250,0
1512569199.592,15.625,29.297,32.227,8.301,-548.340,0
1512569199.596,16.113,28.320,28.320,4.883,-533.691,0
1512569199.600,19.043,33.691,46.875,4.395,-542.480,0
1512569199.604,16.113,29.785,43.945,4.883,-566.895,0
1512569199.608,12.695,24.902,20.996,0.977,-549.805,0
1512569199.612,19.531,31.250,20.996,-1.465,-568.848,0
1512569199.616,31.250,34.180,34.668,6.836,-546.875,0
1512569199.620,37.598,35.156,42.480,15.137,-552.734,0
1512569199.624,33.691,35.156,44.922,23.438,-614.258,0
1512569199.627,31.250,36.621,46.387,27.344,-592.285,0
1512569199.631,36.133,40.527,47.363,22.949,-574.219,0
1512569199.635,29.785,31.738,40.039,12.207,-593.262,0
1512569199.639,29.297,26.855,35.156,9.766,-574.707,0
1512569199.643,39.062,28.320,34.180,21.484,-567.871,0
1512569199.647,35.156,24.414,39.062,19.531,-603.516,0
1512569199.651,31.738,22.949,44.922,10.742,-610.840,0
1512569199.655,40.039,28.809,38.086,15.625,-610.840,0
1512569199.659,36.621,31.738,33.203,16.113,-615.234,0
1512569199.663,36.621,25.391,35.156,17.090,-618.652,0
1512569199.666,47.363,31.250,40.527,30.273,-633.301,0
1512569199.670,54.199,35.156,43.457,33.203,-604.004,0
1512569199.674,55.664,31.738,41.504,31.738,-544.922,0
1512569199.678,55.176,34.668,47.852,37.109,-550.781,0
1512569199.682,50.781,32.715,48.340,38.574,-556.641,0
1512569199.686,46.387,32.227,36.621,33.203,-549.805,0
1512569199.690,53.711,36.621,42.480,39.062,-549.316,0
1512569199.694,54.199,35.156,47.852,38.574,-545.410,0
1512569199.698,34.180,26.367,45.410,27.344,-520.508,0
1512569199.702,12.695,23.926,42.480,24.902,-531.738,0
1512569199.706,17.090,25.879,34.668,19.043,-563.477,0
1512569199.709,30.273,26.367,42.969,17.578,-574.707,0
1512569199.713,41.992,36.621,49.316,39.551,-596.191,0
1512569199.717,51.758,44.434,42.480,42.969,-562.500,0
1512569199.721,40.527,32.227,32.227,20.508,-532.715,0
1512569199.725,35.156,32.227,27.832,18.555,-592.773,0
1512569199.729,39.551,36.133,31.250,22.949,-613.770,0
1512569199.733,21.973,30.273,32.227,15.625,-567.383,0
1512569199.737,38.086,49.316,45.898,33.203,-544.434,0
1512569199.741,62.988,67.871,62.012,47.852,-564.941,0
1512569199.745,23.926,36.133,39.551,14.648,-597.656,0
1512569199.749,2.930,18.066,21.484,-0.488,-596.191,0
1512569199.752,26.367,36.133,37.109,12.207,-597.656,0
1512569199.756,28.320,41.016,32.715,5.371,-622.559,0
1512569199.760,21.484,32.227,33.203,1.465,-612.305,0
1512569199.764,27.832,34.668,20.996,4.883,-583.496,0
1512569199.768,28.320,33.691,11.719,14.160,-605.469,0
1512569199.772,28.320,29.297,20.996,19.043,-607.910,0
1512569199.776,38.574,30.273,20.508,20.020,-576.172,0
1512569199.780,44.434,35.156,23.438,18.066,-589.355,0
1512569199.784,52.734,45.410,37.109,14.648,-590.820,0
1512569199.788,49.316,43.457,36.133,21.973,-576.172,0
1512569199.791,36.621,37.109,30.762,18.555,-558.594,0
1512569199.795,43.457,42.480,46.387,26.367,-558.594,0
1512569199.799,41.992,41.016,38.574,21.973,-579.102,0
1512569199.803,31.250,31.738,30.762,12.207,-595.215,0
1512569199.807,34.668,35.645,40.039,17.578,-577.637,0
1512569199.811,24.902,33.203,34.180,18.066,-569.336,0
1512569199.815,17.578,26.855,31.738,20.508,-598.145,0
1512569199.819,31.738,30.273,43.945,26.367,-625.488,0
1512569199.823,44.434,38.574,45.898,30.762,-602.539,0
1512569199.827,34.180,38.574,40.039,37.598,-595.703,0
1512569199.831,16.113,26.855,35.156,33.691,-609.375,0
1512569199.834,20.020,28.809,38.574,16.602,-567.383,0
1512569199.838,30.762,32.227,45.410,15.137,-543.945,0
1512569199.842,28.809,29.297,36.133,25.391,-554.688,0
1512569199.846,24.414,33.203,33.691,39.062,-588.867,0
1512569199.850,26.855,41.504,57.617,36.133,-598.633,0
1512569199.854,22.461,40.039,77.148,25.879,-564.453,0
1512569199.858,11.719,26.367,50.293,17.090,-575.195,0
1512569199.862,8.301,20.508,21.973,6.836,-615.723,0
1512569199.866,15.137,29.785,37.109,7.812,-633.301,0
1512569199.870,23.438,34.180,38.574,15.625,-597.656,0
1512569199.874,25.391,28.320,29.297,14.648,-594.238,0
1512569199.877,34.668,38.086,37.598,16.113,-612.305,0
1512569199.881,47.852,45.898,51.758,21.973,-611.328,0
1512569199.885,44.922,40.527,49.805,12.695,-601.074,0
1512569199.889,38.086,37.109,30.273,0.488,-620.117,0
1512569199.893,32.227,33.203,15.137,2.441,-638.184,0
1512569199.897,28.809,33.691,28.320,3.906,-614.258,0
1512569199.901,30.273,36.621,43.945,7.812,-617.188,0
1512569199.905,27.344,35.645,40.527,11.230,-645.508,0
1512569199.909,34.668,38.574,30.762,10.742,-661.133,0
1512569199.913,54.199,54.688,41.992,30.273,-616.211,0
1512569199.916,46.387,48.828,46.387,20.508,-619.629,0
1512569199.920,25.879,29.297,33.691,1.953,-634.277,0
1512569199.924,20.508,27.344,23.438,5.859,-628.418,0
1512569199.928,32.227,31.738,19.531,6.348,-652.832,0
1512569199.932,47.852,33.691,25.391,4.395,-649.902,0
1512569199.936,41.016,35.645,34.180,8.789,-639.648,0
1512569199.940,21.484,39.062,36.621,24.902,-665.527,0
1512569199.944,20.996,34.180,33.203,28.809,-688.477,0
1512569199.948,30.762,30.762,28.809,24.414,-678.223,0
1512569199.952,39.062,32.715,35.645,23.926,-710.449,0
1512569199.956,39.551,34.668,48.340,27.832,-701.172,0
1512569199.959,36.133,37.598,40.527,17.578,-642.090,0
1512569199.963,38.086,37.598,27.832,12.695,-652.344,0
1512569199.967,41.016,30.273,28.320,14.160,-667.969,0
1512569199.971,52.734,32.227,40.039,23.438,-642.090,0
1512569199.975,42.969,36.133,55.664,36.133,-631.836,0
1512569199.979,26.855,30.273,42.969,32.227,-640.137,0
1512569199.983,28.809,25.879,36.133,31.738,-643.066,0
1512569199.987,23.926,24.414,41.016,19.531,-672.852,0
1512569199.991,30.762,28.320,39.062,14.160,-675.293,0
1512569199.995,35.645,29.297,36.621,28.809,-696.289,0
1512569199.999,28.320,27.344,45.898,21.484,-726.562,0
1512569200.002,25.879,28.809,41.992,7.812,-685.059,0
1512569200.006,24.414,24.902,35.156,9.766,-662.598,0
1512569200.010,22.949,28.809,45.898,19.531,-664.551,0
1512569200.014,26.855,33.691,36.621,30.762,-638.184,0
1512569200.018,27.832,30.762,29.297,24.902,-644.043,0
1512569200.022,25.391,28.320,40.039,20.996,-670.410,0
1512569200.026,32.227,24.902,51.270,26.855,-652.832,0
1512569200.030,39.551,23.926,44.434,24.902,-631.348,0
1512569200.034,39.551,22.461,34.668,22.949,-626.465,0
1512569200.038,31.250,25.879,47.852,30.762,-635.254,0
1512569200.041,14.160,23.926,51.270,29.297,-656.738,0
1512569200.045,11.230,19.531,41.504,21.484,-625.000,0
1512569200.049,17.090,15.625,39.551,19.531,-592.285,0
1512569200.053,21.484,13.672,40.527,34.668,-571.777,0
1512569200.057,29.297,19.531,48.828,36.133,-566.406,0
1512569200.061,26.855,19.043,46.875,26.367,-563.477,0
1512569200.065,27.832,21.484,38.086,33.691,-557.129,0
1512569200.069,34.668,29.785,45.898,34.180,-583.008,0
1512569200.073,26.855,23.926,44.434,32.715,-606.445,0
1512569200.077,14.648,13.184,30.273,24.902,-596.191,0
1512569200.081,19.531,12.695,23.438,14.648,-600.586,0
1512569200.084,30.273,24.414,32.715,15.625,-626.465,0
1512569200.088,41.504,34.180,45.898,20.020,-666.504,0
1512569200.092,39.551,36.133,49.316,25.391,-645.996,0
1512569200.096,31.250,32.227,42.969,23.438,-637.695,1
1512569200.100,23.438,20.996,33.203,11.719,-666.992,0
1512569200.104,31.250,33.203,53.223,28.809,-653.809,0
1512569200.108,37.598,46.875,61.523,31.738,-636.719,0
1512569200.112,17.578,31.250,30.273,5.371,-659.180,0
1512569200.116,21.484,25.879,18.066,10.254,-689.453,0
1512569200.120,31.250,24.414,23.438,12.695,-671.387,0
1512569200.124,29.785,22.461,23.438,9.766,-659.668,0
1512569200.127,30.273,26.855,20.020,21.973,-698.242,0
1512569200.131,20.508,30.762,37.598,20.996,-745.605,0
1512569200.135,25.391,29.297,55.664,14.648,-731.934,0
1512569200.139,30.273,31.738,45.898,17.090,-698.242,0
1512569200.143,29.297,34.668,22.949,33.691,-699.707,0
1512569200.147,24.902,28.320,34.180,37.598,-709.473,0
1512569200.151,27.344,32.227,46.875,30.762,-693.848,0
1512569200.155,36.621,39.551,44.434,30.273,-685.059,0
1512569200.159,30.762,29.785,43.945,21.484,-708.008,0
1512569200.163,21.973,20.508,37.109,16.113,-734.375,0
1512569200.166,16.113,17.578,29.785,10.254,-715.820,0
1512569200.170,34.668,27.344,32.227,16.602,-683.105,0
1512569200.174,41.016,36.621,38.086,29.785,-705.566,0
1512569200.178,26.367,29.297,41.016,26.367,-737.793,0
1512569200.182,37.598,29.297,45.898,32.227,-722.656,0
1512569200.186,41.016,26.367,43.457,29.297,-710.449,0
1512569200.190,28.320,20.996,31.738,16.113,-746.094,0
1512569200.194,30.273,29.297,44.434,35.156,-767.090,0
1512569200.198,41.504,27.832,52.734,44.922,-729.492,0
1512569200.202,41.992,33.203,58.105,44.922,-704.102,0
1512569200.206,31.738,27.344,54.199,25.879,-709.961,0
1512569200.209,26.855,13.184,29.297,6.836,-703.613,0
1512569200.213,35.156,22.461,32.227,17.090,-702.637,0
1512569200.217,19.043,22.461,34.668,24.902,-727.051,0
1512569200.221,20.508,27.832,43.457,33.203,-749.512,0
1512569200.225,34.668,33.203,58.105,29.297,-764.160,0
1512569200.229,33.203,31.250,33.691,34.180,-736.816,0
1512569200.233,41.016,33.691,25.391,31.250,-718.262,0
1512569200.237,34.668,29.785,41.504,21.484,-765.137,0
1512569200.241,25.391,23.926,38.086,36.133,-783.203,0
1512569200.245,26.367,22.949,33.203,27.344,-779.297,0
1512569200.249,34.668,25.391,30.762,4.883,-817.871,0
1512569200.252,31.738,26.855,44.922,4.883,-844.727,0
1512569200.256,19.531,21.973,48.828,8.789,-804.199,0
1512569200.260,25.391,25.391,40.039,15.625,-802.246,0
1512569200.264,30.762,31.738,38.086,20.996,-828.613,0
1512569200.268,27.832,27.344,36.621,14.160,-825.684,0
1512569200.272,29.785,32.227,47.852,19.043,-833.984,0
1512569200.276,41.992,38.086,44.922,16.113,-812.012,0
1512569200.280,46.875,28.320,37.598,11.719,-819.824,0
1512569200.284,34.180,19.531,30.762,9.766,-841.797,0
1512569200.288,25.391,15.625,17.090,6.836,-814.941,0
1512569200.291,26.367,20.508,24.414,21.484,-813.965,0
1512569200.295,15.137,21.973,31.250,21.484,-830.566,0
1512569200.299,13.184,22.461,31.738,12.695,-830.566,0
1512569200.303,21.484,29.785,43.945,27.344,-823.242,0
1512569200.307,21.973,30.273,51.758,27.344,-833.984,0
1512569200.311,30.273,32.715,66.406,28.320,-833.496,0
1512569200.315,36.621,36.621,60.059,47.363,-821.289,0
1512569200.319,24.414,28.320,31.250,35.156,-825.195,0
1512569200.323,22.461,21.484,25.879,14.648,-818.359,0
1512569200.327,28.809,24.414,32.227,14.648,-845.703,0
1512569200.331,23.438,24.414,37.109,21.973,-839.355,0
1512569200.334,12.207,17.090,32.715,21.973,-828.125,0
1512569200.338,19.043,20.996,30.762,25.391,-818.848,0
1512569200.342,32.227,27.832,42.480,32.715,-807.617,0
1512569200.346,33.691,26.367,54.688,27.344,-808.594,0
1512569200.350,34.668,24.902,48.340,27.832,-799.805,0
1512569200.354,31.250,30.762,41.016,23.438,-827.637,0
1512569200.358,31.738,35.645,50.781,18.555,-818.848,0
1512569200.362,39.551,31.250,50.781,15.625,-803.223,0
1512569200.366,31.250,23.438,32.227,12.207,-808.105,0
1512569200.370,10.254,17.090,19.043,11.230,-839.844,0
1512569200.374,15.137,21.484,29.297,13.672,-837.891,0
1512569200.377,33.203,31.738,40.039,21.973,-815.430,0
1512569200.381,23.926,23.926,33.203,18.066,-802.246,0
1512569200.385,21.484,18.066,44.922,19.531,-802.246,0
1512569200.389,52.246,38.574,57.617,28.320,-797.852,0
1512569200.393,53.711,39.551,39.551,25.391,-773.926,0
1512569200.397,33.203,29.297,35.156,25.879,-789.551,0
1512569200.401,21.973,29.297,40.527,32.715,-790.039,0
1512569200.405,9.277,20.020,55.176,20.996,-746.582,0
1512569200.409,3.418,14.648,42.969,0.977,-754.883,0
1512569200.413,15.137,18.555,25.879,6.836,-782.227,0
1512569200.416,27.344,20.020,35.645,10.742,-812.988,0
1512569200.420,20.996,19.043,35.156,14.160,-800.293,0
1512569200.424,17.090,15.625,28.320,19.531,-730.957,0
1512569200.428,26.367,18.555,30.762,13.672,-731.445,0
1512569200.432,30.762,28.809,41.504,15.625,-759.277,0
1512569200.436,35.645,27.344,42.969,20.508,-766.113,0
1512569200.440,25.879,22.461,37.109,20.508,-768.066,0
1512569200.444,13.184,17.578,34.668,35.645,-744.141,0
1512569200.448,27.832,23.438,43.457,36.133,-743.652,0
1512569200.452,38.574,30.762,50.293,13.184,-731.445,0
1512569200.456,30.273,23.438,40.039,9.277,-727.539,0
1512569200.459,16.113,14.160,34.668,11.719,-761.230,0
1512569200.463,9.277,14.160,40.039,5.371,-754.395,0
1512569200.467,26.367,21.484,29.297,14.648,-732.422,0
1512569200.471,35.156,26.855,25.879,17.578,-738.281,0
1512569200.475,37.109,24.902,36.621,10.254,-713.867,0
1512569200.479,51.758,37.598,57.617,33.203,-652.832,0
1512569200.483,40.039,39.062,51.270,45.898,-647.461,0
1512569200.487,14.648,23.438,25.391,30.273,-686.523,0
1512569200.491,21.973,24.902,35.156,20.508,-694.824,0
1512569200.495,34.180,28.809,41.992,20.508,-671.875,0
1512569200.499,34.180,32.227,35.645,27.344,-660.645,0
1512569200.502,28.809,24.902,31.250,26.855,-678.223,0
1512569200.506,20.020,14.648,28.320,22.949,-685.547,0
1512569200.510,24.902,20.020,32.715,13.184,-672.852,0
1512569200.514,27.832,26.367,36.621,8.301,-651.855,0
1512569200.518,28.809,30.273,32.227,14.160,-649.414,0
1512569200.522,28.809,28.809,33.203,15.137,-673.828,0
1512569200.526,21.973,24.414,30.762,17.090,-670.410,0
1512569200.530,22.949,20.996,25.391,21.973,-669.434,0
1512569200.534,22.461,25.391,36.621,19.531,-670.410,0
1512569200.538,15.625,23.926,57.617,18.555,-661.133,0
1512569200.541,19.043,18.066,56.641,18.555,-627.441,0
1512569200.545,20.020,18.555,27.832,10.254,-607.910,0
1512569200.549,20.508,17.090,24.414,11.230,-618.164,0
1512569200.553,42.969,34.668,40.527,31.250,-635.254,0
1512569200.557,52.734,35.156,46.387,20.996,-640.137,0
1512569200.561,37.598,14.648,38.086,6.836,-603.027,0
1512569200.565,29.297,19.531,32.227,24.902,-619.629,0
1512569200.569,38.086,27.344,39.551,30.762,-618.652,0
1512569200.573,55.664,32.715,42.969,26.855,-589.355,0
1512569200.577,39.062,29.785,33.203,26.367,-605.469,0
1512569200.581,26.855,22.949,29.785,20.508,-591.309,0
1512569200.584,38.574,23.926,34.180,11.230,-552.734,0
1512569200.588,25.391,18.066,28.320,5.371,-519.043,0
1512569200.592,23.926,21.484,31.250,12.695,-490.234,0
1512569200.596,32.227,31.738,49.316,20.508,-493.164,0
1512569200.600,20.996,25.879,54.199,28.809,-482.422,0
1512569200.604,22.949,24.902,44.922,38.574,-450.684,0
1512569200.608,26.367,21.484,45.410,22.461,-454.102,0
1512569200.612,32.715,20.508,44.434,23.926,-459.473,0
1512569200.616,50.781,30.273,36.621,38.574,-446.777,0
1512569200.620,44.922,24.902,36.133,19.531,-462.891,0
1512569200.624,30.273,18.066,34.668,8.301,-444.824,0
1512569200.627,41.016,23.438,43.457,31.738,-426.758,0
1512569200.631,49.805,27.344,54.199,43.945,-443.848,0
1512569200.635,47.363,27.832,58.105,39.062,-426.270,0
1512569200.639,20.508,21.484,41.992,28.809,-426.758,0
1512569200.643,25.391,19.531,33.691,19.531,-422.852,0
1512569200.647,49.316,24.414,43.945,32.715,-422.852,0
1512569200.651,37.598,22.461,47.363,38.086,-410.645,0
1512569200.655,26.855,19.531,50.293,28.809,-429.199,0
1512569200.659,18.555,16.602,41.504,22.949,-454.102,0
1512569200.663,18.555,20.020,38.086,22.949,-389.648,0
1512569200.666,22.949,16.602,31.250,29.297,-360.352,0
1512569200.670,29.297,24.414,40.039,36.621,-402.344,0
1512569200.674,40.039,36.133,51.758,32.715,-404.785,0
1512569200.678,27.832,32.227,31.738,17.578,-366.699,0
1512569200.682,20.996,23.926,32.715,3.418,-410.156,0
1512569200.686,33.691,26.855,34.180,2.930,-441.406,0
1512569200.690,36.133,30.762,38.574,14.160,-412.109,0
1512569200.694,39.062,29.785,44.434,28.320,-416.016,0
1512569200.698,36.621,22.461,32.227,15.137,-433.105,0
1512569200.702,26.367,18.555,30.273,4.395,-451.660,0
1512569200.706,20.508,20.508,36.621,16.113,-445.312,0
1512569200.709,27.344,21.484,40.527,19.531,-410.645,0
1512569200.713,43.945,37.598,53.223,31.738,-421.875,0
1512569200.717,46.387,40.039,67.383,36.621,-431.641,0
1512569200.721,27.344,20.508,65.918,16.602,-405.762,0
1512569200.725,33.203,19.531,35.156,13.672,-404.785,0
1512569200.729,36.621,24.414,20.996,21.484,-403.809,0
1512569200.733,18.066,20.996,31.250,17.090,-402.832,0
1512569200.737,31.738,30.762,33.203,22.949,-388.184,0
1512569200.741,51.270,45.898,44.434,31.738,-367.188,0
1512569200.745,37.109,35.645,36.621,18.066,-401.367,0
1512569200.749,25.391,20.996,26.855,7.324,-390.625,0
1512569200.752,23.926,28.809,34.180,18.066,-349.121,0
1512569200.756,34.668,31.738,39.551,24.414,-354.492,0
1512569200.760,41.504,28.320,54.199,18.555,-365.723,0
1512569200.764,31.738,26.855,40.039,12.695,-404.785,0
1512569200.768,25.879,24.414,12.695,17.578,-398.926,0
1512569200.772,20.508,21.484,19.531,30.762,-389.648,0
1512569200.776,24.902,21.484,33.691,31.738,-412.598,0
1512569200.780,34.180,24.414,37.598,18.555,-408.691,0
1512569200.784,27.832,23.438,41.504,10.254,-404.297,0
1512569200.788,32.227,32.715,56.152,31.738,-429.199,0
1512569200.791,48.828,41.504,52.734,44.434,-482.422,0
1512569200.795,47.363,27.344,30.273,24.414,-464.355,0
1512569200.799,37.109,17.090,27.344,15.137,-411.133,0
1512569200.803,18.555,14.648,38.086,15.625,-403.320,0
1512569200.807,14.648,15.137,56.641,23.438,-432.617,0
1512569200.811,33.203,16.113,57.617,22.461,-437.500,0
1512569200.815,40.527,21.973,35.156,24.414,-407.227,0
1512569200.819,36.621,20.996,28.809,21.484,-404.785,0
1512569200.823,29.785,18.066,34.668,21.484,-437.500,0
1512569200.827,27.344,18.555,35.156,28.320,-449.707,0
1512569200.831,32.227,21.973,41.504,25.879,-440.430,0
1512569200.834,28.320,23.438,45.410,19.043,-441.406,0
1512569200.838,15.625,22.949,44.434,13.184,-467.773,0
1512569200.842,18.555,29.297,49.316,18.066,-465.332,0
1512569200.846,30.762,37.598,56.641,35.156,-447.266,0
1512569200.850,29.785,34.180,68.848,42.969,-457.520,0
1512569200.854,17.578,18.066,48.828,23.438,-445.312,0
1512569200.858,13.672,11.230,31.738,2.441,-436.035,0
1512569200.862,25.879,24.414,51.270,15.625,-471.680,0
1512569200.866,39.551,38.086,47.852,31.250,-480.469,0
1512569200.870,16.113,24.902,26.855,-1.953,-463.867,0
1512569200.874,6.836,11.719,30.762,-7.324,-464.355,0
1512569200.877,24.902,17.578,54.199,11.230,-490.723,0
1512569200.881,33.691,32.227,63.477,24.902,-523.438,0
1512569200.885,35.156,27.832,54.199,31.738,-529.297,0
1512569200.889,27.832,20.020,38.086,24.902,-520.020,0
1512569200.893,28.809,20.020,25.391,16.602,-574.707,0
1512569200.897,39.062,21.973,38.086,5.859,-603.027,0
1512569200.901,33.203,21.973,45.898,9.277,-556.641,0
1512569200.905,46.875,35.645,51.758,33.691,-554.688,0
1512569200.909,43.945,39.062,55.176,41.016,-588.867,0
1512569200.913,17.090,20.996,36.621,6.836,-612.305,0
1512569200.916,20.508,20.020,35.645,-0.977,-598.145,0
1512569200.920,20.996,24.902,40.039,13.672,-617.188,0
1512569200.924,20.996,26.855,34.180,3.418,-614.746,0
1512569200.928,32.227,33.203,39.551,8.789,-631.348,0
1512569200.932,27.832,30.762,58.594,30.762,-641.113,0
1512569200.936,19.043,23.926,54.199,34.180,-639.160,0
1512569200.940,5.371,19.531,39.062,18.066,-671.875,0
1512569200.944,8.789,24.902,44.922,17.578,-662.109,0
1512569200.948,26.855,26.367,45.410,31.250,-637.695,0
1512569200.952,25.391,19.043,35.156,19.531,-634.766,0
1512569200.956,22.949,21.484,27.832,11.230,-651.855,0
1512569200.959,14.648,20.020,30.273,18.555,-658.203,0
1512569200.963,20.020,28.320,45.898,36.621,-652.832,0
1512569200.967,27.344,32.715,47.852,44.922,-649.902,0
1512569200.971,29.297,27.832,37.598,32.227,-657.227,0
1512569200.975,34.668,30.762,48.340,22.949,-677.246,0
1512569200.979,34.180,33.691,53.711,17.578,-710.449,0
1512569200.983,29.785,33.691,39.551,9.766,-697.754,0
1512569200.987,22.461,27.832,27.344,4.883,-647.949,0
1512569200.991,24.414,20.508,22.949,6.348,-643.066,0
1512569200.995,18.555,16.113,32.227,6.348,-592.285,0
1512569200.999,28.809,27.832,41.992,11.719,-559.082,0
1512569201.002,40.039,39.062,46.875,22.461,-607.910,0
1512569201.006,46.387,45.898,48.340,29.785,-549.316,0
1512569201.010,56.641,52.246,52.734,36.133,-458.008,0
1512569201.014,42.480,36.133,40.039,21.973,-412.109,0
1512569201.018,32.227,23.438,29.785,6.836,-385.254,0
1512569201.022,29.297,23.926,32.227,2.930,-390.625,0
1512569201.026,34.668,24.902,20.508,15.137,-391.113,0
1512569201.030,54.688,30.762,33.691,29.785,-362.305,0
1512569201.034,50.781,25.391,43.457,25.391,-291.016,0
1512569201.038,40.039,23.926,45.410,22.949,-280.762,0
1512569201.041,41.992,33.203,52.734,24.902,-306.641,0
1512569201.045,46.387,34.180,53.711,31.250,-277.344,0
1512569201.049,51.758,35.156,44.922,38.086,-228.516,0
1512569201.053,46.875,32.227,34.668,36.621,-257.324,0
1512569201.057,36.621,26.855,36.133,32.715,-259.766,0
1512569201.061,25.879,21.484,36.621,22.949,-236.328,0
1512569201.065,36.621,27.832,30.762,25.391,-270.508,0
1512569201.069,42.480,34.180,38.086,26.367,-203.613,0
1512569201.073,24.902,22.461,28.320,22.461,-159.668,0
1512569201.077,26.855,21.973,25.391,23.926,-234.863,0
1512569201.081,56.641,36.133,42.969,27.344,-196.289,0
1512569201.084,62.012,37.598,35.156,19.043,-105.469,0
1512569201.088,51.758,37.598,47.852,28.320,-172.852,0
1512569201.092,41.504,42.480,56.152,40.039,-220.215,0
1512569201.096,31.738,30.762,25.879,22.949,-201.172,0
1512569201.100,32.715,21.484,17.090,22.949,-140.625,0
1512569201.104,31.250,26.855,24.414,33.203,-101.074,0
1512569201.108,32.227,31.738,22.461,24.902,-132.324,0
1512569201.112,29.297,27.344,20.996,17.090,-84.473,0
1512569201.116,33.203,27.832,32.715,21.973,-71.289,0
1512569201.120,41.992,31.250,35.645,27.832,-94.238,0
1512569201.124,34.180,34.668,38.574,32.227,-57.617,0
1512569201.127,30.762,37.109,47.363,32.715,-65.918,0
1512569201.131,36.621,33.203,31.250,25.391,-72.754,0
1512569201.135,28.809,26.367,21.973,3.906,-62.012,0
1512569201.139,24.414,29.785,26.367,7.324,-91.309,0
1512569201.143,28.320,32.715,32.715,21.973,-101.562,0
1512569201.147,36.133,36.133,40.527,20.020,-94.238,0
1512569201.151,35.156,35.156,35.156,14.160,-83.008,0
1512569201.155,33.691,32.227,27.832,8.789,-18.066,0
1512569201.159,23.926,27.344,33.691,18.555,-14.160,0
1512569201.163,21.484,29.785,36.621,21.973,-54.688,0
1512569201.166,30.762,35.156,36.621,13.672,-71.289,0
1512569201.170,39.062,35.156,37.598,13.184,-75.195,0
1512569201.174,49.805,38.574,16.602,15.625,-18.066,0
1512569201.178,44.922,30.762,18.555,20.996,-21.484,0
1512569201.182,32.227,25.391,24.902,15.625,-52.246,0
1512569201.186,29.785,26.855,34.668,4.395,16.602,0
1512569201.190,40.039,34.180,51.758,16.602,-2.441,0
1512569201.194,40.527,33.203,39.551,22.461,-85.449,0
1512569201.198,30.762,26.855,32.715,15.625,-59.570,0
1512569201.202,31.738,31.738,40.527,22.461,-85.938,0
1512569201.206,37.109,38.086,38.086,20.508,-36.133,0
1512569201.209,41.016,37.109,25.391,20.020,-32.227,0
1512569201.213,43.945,28.320,23.438,20.020,-53.223,0
1512569201.217,31.738,23.926,18.555,15.137,-0.488,0
1512569201.221,24.414,23.438,18.555,22.949,-38.086,0
1512569201.225,38.574,28.320,33.691,35.645,-67.871,0
1512569201.229,48.828,33.203,49.805,43.457,-14.160,0
1512569201.233,42.969,26.855,49.316,36.621,-4.395,0
1512569201.237,29.785,20.996,32.715,18.066,-27.344,0
1512569201.241,32.227,25.391,34.180,23.438,-2.930,0
1512569201.245,39.551,40.039,57.617,41.504,-18.555,0
1512569201.249,29.785,35.156,40.039,38.574,-29.785,0
1512569201.252,21.973,17.090,20.020,28.809,15.625,0
1512569201.256,27.832,22.949,41.504,32.227,36.133,0
1512569201.260,25.879,24.414,48.828,31.250,40.039,0
1512569201.264,23.438,13.672,32.715,19.043,-5.371,0
1512569201.268,24.414,14.160,16.113,23.438,25.879,0
1512569201.272,29.297,17.090,20.020,29.297,55.664,0
1512569201.276,32.227,27.832,36.133,33.691,-15.625,0
1512569201.280,44.922,42.969,48.828,52.246,16.602,0
1512569201.284,44.434,36.621,51.270,35.645,3.418,0
1512569201.288,25.879,16.602,41.504,8.789,-33.203,0
1512569201.291,20.508,9.277,29.785,11.230,-5.859,0
1512569201.295,19.043,14.160,34.180,7.812,22.461,0
1512569201.299,26.367,20.508,40.039,15.625,-41.016,0
1512569201.303,15.137,21.484,39.551,13.672,-29.297,0
1512569201.307,11.719,24.414,29.297,10.254,2.441,0
1512569201.311,26.855,26.855,27.832,22.461,-44.922,0
1512569201.315,26.367,25.879,25.879,20.020,7.324,0
1512569201.319,30.273,24.902,22.949,13.672,-20.996,0
1512569201.323,37.598,31.250,33.691,11.719,-66.895,0
1512569201.327,53.711,51.270,51.758,23.438,-29.297,0
1512569201.331,58.594,56.152,49.805,35.156,-4.883,0
1512569201.334,41.016,40.527,29.297,28.809,28.320,0
1512569201.338,29.297,35.156,29.297,16.602,17.090,0
1512569201.342,36.621,40.527,39.551,20.020,23.438,0
1512569201.346,34.180,30.273,30.273,20.996,18.066,0
1512569201.350,19.043,15.625,31.250,6.348,14.648,0
1512569201.354,24.902,18.555,29.785,13.184,62.500,0
1512569201.358,33.691,21.973,23.438,39.551,37.109,0
1512569201.362,34.668,23.438,20.996,29.297,12.695,0
1512569201.366,55.664,32.227,38.574,23.438,8.301,2
1512569201.370,71.289,36.621,63.477,39.551,61.035,0
1512569201.374,50.781,35.156,47.363,35.645,84.961,0
1512569201.377,39.062,31.250,33.691,45.410,53.711,0
1512569201.381,42.969,25.879,50.293,39.062,34.180,0
1512569201.385,36.133,21.973,51.758,27.344,1.465,0
1512569201.389,26.367,15.137,43.457,28.320,20.996,0
1512569201.393,21.484,7.324,25.391,14.648,47.852,0
1512569201.397,31.738,14.648,33.691,31.250,19.531,0
1512569201.401,44.922,22.461,53.223,48.340,7.812,0
1512569201.405,39.551,25.391,49.805,41.504,16.113,0
1512569201.409,37.109,27.344,39.551,34.180,10.254,0
1512569201.413,42.969,27.344,35.156,36.621,44.922,0
1512569201.416,50.293,34.668,47.363,50.781,49.316,0
1512569201.420,46.875,38.086,53.223,47.363,14.648,0
1512569201.424,35.156,33.203,48.340,23.926,14.648,0
1512569201.428,43.457,34.180,51.758,22.461,3.906,0
1512569201.432,26.855,23.926,53.223,17.578,-21.973,0
1512569201.436,1.465,18.066,45.898,20.020,-2.441,0
1512569201.440,8.789,17.578,26.855,30.762,11.230,0
1512569201.444,25.879,20.020,30.762,21.973,23.438,0
1512569201.448,33.691,33.203,46.387,29.297,-5.859,0
1512569201.452,45.898,35.645,49.316,28.320,15.625,0
1512569201.456,49.316,36.133,42.969,25.391,50.293,0
1512569201.459,37.109,36.133,60.547,26.367,32.227,0
1512569201.463,23.438,28.320,61.523,23.438,2.930,0
1512569201.467,12.207,22.461,35.645,13.184,26.855,0
1512569201.471,10.254,25.391,39.062,6.836,55.176,0
1512569201.475,19.043,29.297,35.645,11.230,10.742,0
1512569201.479,25.879,34.668,40.527,18.066,35.645,0
1512569201.483,34.668,39.062,53.223,20.508,66.895,0
1512569201.487,42.969,42.480,53.223,29.297,23.438,0
1512569201.491,33.203,47.363,69.824,32.227,28.320,0
1512569201.495,13.672,39.062,44.434,29.785,64.453,0
1512569201.499,11.230,32.227,21.484,16.602,64.941,0
1512569201.502,32.227,37.598,41.016,5.371,5.859,0
1512569201.506,37.598,39.551,40.039,9.766,2.930,0
1512569201.510,34.668,38.086,49.805,7.812,31.250,0
1512569201.514,42.480,37.109,48.340,17.578,28.320,0
1512569201.518,36.621,40.527,26.367,27.832,20.508,0
1512569201.522,42.480,44.922,41.992,35.156,-17.090,0
1512569201.526,41.504,39.551,54.688,54.688,-26.855,0
1512569201.530,35.645,38.574,41.992,50.781,37.598,0
1512569201.534,36.621,32.715,41.992,21.484,74.219,0
1512569201.538,30.273,24.414,49.316,20.508,0.488,0
1512569201.541,30.273,29.297,47.852,31.738,1.953,0
1512569201.545,41.016,32.715,57.129,43.945,12.207,0
1512569201.549,36.133,27.832,53.711,42.969,14.648,0
1512569201.553,22.949,22.949,30.762,41.504,87.891,0
1512569201.557,26.367,25.391,32.227,41.992,63.477,0
1512569201.561,27.344,29.297,56.641,41.504,16.113,0
1512569201.565,19.043,25.391,68.848,42.480,53.223,0
1512569201.569,12.207,17.578,58.594,35.156,57.129,0
1512569201.573,14.648,15.137,55.664,38.086,14.648,0
1512569201.577,18.066,20.020,57.129,45.410,-17.578,0
1512569201.581,23.438,25.391,48.340,44.434,21.484,0
1512569201.584,12.207,15.625,33.691,27.832,65.430,0
1512569201.588,10.742,12.695,27.832,24.414,56.641,0
1512569201.592,22.949,20.996,39.551,35.156,-17.578,0
1512569201.596,26.367,18.555,41.016,38.574,-20.020,0
1512569201.600,44.434,30.762,48.340,50.781,6.836,0
1512569201.604,43.945,34.180,51.270,50.781,-20.020,0
1512569201.608,35.156,22.461,36.621,32.715,45.898,0
1512569201.612,33.203,24.414,56.152,27.344,6.348,0
1512569201.616,30.273,31.738,54.688,31.738,-8.301,0
1512569201.620,26.855,35.645,36.133,33.203,37.598,0
1512569201.624,10.254,27.832,26.367,18.066,7.812,0
1512569201.627,10.254,23.438,16.602,18.066,14.160,0
1512569201.631,18.555,27.344,24.414,22.461,30.273,0
1512569201.635,29.297,36.133,37.598,26.855,-0.977,0
1512569201.639,20.508,39.062,33.203,24.414,-25.391,0
1512569201.643,9.766,36.133,41.504,21.484,-4.395,0
1512569201.647,20.996,29.785,43.945,20.996,27.344,0
1512569201.651,20.020,26.855,25.391,13.672,45.410,0
1512569201.655,22.949,35.645,28.320,20.508,6.348,0
1512569201.659,32.227,36.621,38.574,26.855,-1.465,0
1512569201.663,32.715,31.738,35.156,36.133,-9.766,0
1512569201.666,25.391,23.926,33.203,29.297,-2.930,0
1512569201.670,35.156,34.668,31.250,33.691,35.156,0
1512569201.674,41.992,41.504,33.203,51.758,77.637,0
1512569201.678,26.367,31.738,58.105,43.945,103.516,0
1512569201.682,26.367,31.738,40.039,34.668,20.996,0
1512569201.686,26.367,25.391,23.926,30.273,8.789,0
1512569201.690,37.598,32.715,41.016,47.363,60.059,0
1512569201.694,55.176,42.969,43.457,58.594,0.977,0
1512569201.698,42.969,30.762,38.574,40.039,-0.977,0
1512569201.702,37.109,27.344,32.715,27.344,31.738,0
1512569201.706,36.621,29.297,31.738,29.297,11.230,0
1512569201.709,32.227,25.879,30.762,36.133,20.508,0
1512569201.713,41.016,29.297,25.391,35.156,16.602,0
1512569201.717,45.898,37.109,36.621,41.504,-6.836,0
1512569201.721,50.781,40.039,45.410,46.387,-26.367,0
1512569201.725,52.246,40.527,42.480,31.250,-35.645,0
1512569201.729,38.574,41.504,40.527,34.180,19.531,0
1512569201.733,32.227,42.969,31.250,45.898,44.922,0
1512569201.737,25.391,37.598,21.973,36.133,64.941,0
1512569201.741,14.648,27.344,7.324,21.973,32.227,0
1512569201.745,14.648,24.414,17.578,20.020,-6.348,0
1512569201.749,26.855,33.203,18.555,30.273,31.250,0
1512569201.752,44.922,41.016,13.672,38.574,19.043,0
1512569201.756,57.129,41.992,32.227,48.340,14.160,0
1512569201.760,53.223,46.387,36.133,55.664,36.133,0
1512569201.764,48.340,50.781,49.316,56.152,9.277,0
1512569201.768,45.410,38.086,42.969,48.340,24.414,0
1512569201.772,44.922,32.227,29.785,39.551,54.199,0
1512569201.776,40.527,31.250,39.551,35.156,25.879,0
1512569201.780,25.879,21.484,22.949,29.297,22.461,0
1512569201.784,24.414,20.508,16.602,28.320,0.977,0
1512569201.788,27.832,24.414,31.250,30.762,-57.617,0
1512569201.791,35.156,30.273,29.785,37.598,-50.781,0
1512569201.795,50.781,37.598,37.598,54.199,50.781,0
1512569201.799,42.480,38.574,43.945,52.734,29.785,0
1512569201.803,27.832,34.668,30.762,36.133,-43.457,0
1512569201.807,38.574,25.391,22.461,40.527,-3.906,0
1512569201.811,45.410,24.414,36.133,41.504,0.977,0
1512569201.815,52.246,32.227,33.691,40.039,-22.949,0
1512569201.819,63.965,41.992,28.809,54.688,-19.043,0
1512569201.823,50.293,36.133,40.527,53.223,27.344,0
1512569201.827,46.387,36.621,35.156,49.805,9.766,0
1512569201.831,56.641,49.805,42.969,56.641,-93.750,0
1512569201.834,46.875,43.945,25.391,45.410,-85.449,0
1512569201.838,39.062,38.574,17.090,33.691,-41.016,0
1512569201.842,43.457,43.457,27.832,34.180,-68.848,0
1512569201.846,33.203,38.086,11.230,24.902,-22.461,0
1512569201.850,32.715,37.598,15.137,23.438,-15.625,0
1512569201.854,39.062,42.480,20.508,12.695,-20.996,0
1512569201.858,31.738,39.062,15.625,8.789,18.555,0
1512569201.862,33.691,44.922,24.414,16.602,-33.691,0
1512569201.866,36.133,45.410,47.852,16.602,-20.996,0
1512569201.870,38.574,39.551,36.133,22.461,28.320,3
1512569201.874,49.316,46.875,17.090,31.250,-41.504,0
1512569201.877,48.828,45.410,30.273,36.133,-26.855,0
1512569201.881,41.016,40.039,26.855,30.762,10.254,0
1512569201.885,34.668,31.250,15.137,24.902,-10.742,0
1512569201.889,35.156,32.227,20.996,40.527,-29.297,0
1512569201.893,55.176,56.641,41.016,58.594,8.789,0
1512569201.897,52.246,55.176,34.668,53.223,-28.320,0
1512569201.901,27.832,31.250,18.066,23.438,-40.039,0
1512569201.905,21.484,29.785,30.273,15.137,16.602,0
1512569201.909,24.902,33.203,32.227,15.625,39.062,0
1512569201.913,29.785,35.645,22.949,17.578,-36.621,0
1512569201.916,41.016,43.457,24.414,43.457,-100.586,0
1512569201.920,42.969,38.086,30.762,50.781,-3.418,0
1512569201.924,36.621,39.062,35.156,43.457,68.848,0
1512569201.928,41.504,47.852,36.621,54.199,55.176,0
1512569201.932,41.504,43.945,49.805,60.059,17.090,0
1512569201.936,25.879,37.598,58.594,49.316,34.180,0
1512569201.940,16.113,29.297,35.156,47.852,2.930,0
1512569201.944,22.949,22.949,12.695,45.410,-14.160,0
1512569201.948,41.016,27.832,22.461,40.039,19.043,0
1512569201.952,34.180,24.414,28.809,38.574,-5.859,0
1512569201.956,32.715,29.297,36.133,45.898,2.930,0
1512569201.959,41.992,39.062,37.598,54.199,29.297,0
1512569201.963,35.645,29.785,25.391,40.527,13.672,0
1512569201.967,30.762,26.367,33.203,23.926,-0.488,0
1512569201.971,26.367,35.645,40.039,33.691,11.719,0
1512569201.975,33.691,48.828,32.715,45.410,-19.531,0
1512569201.979,33.203,38.574,48.340,33.691,-31.738,0
1512569201.983,32.227,25.391,39.062,25.879,25.391,0
1512569201.987,39.062,34.668,20.508,36.621,32.715,0
1512569201.991,36.133,35.156,24.414,26.855,-2.930,0
1512569201.995,37.109,30.762,7.324,11.719,-17.578,0
1512569201.999,44.922,36.621,8.301,14.160,-9.766,0
1512569202.002,34.668,36.621,17.090,16.602,13.184,0
1512569202.006,21.484,31.738,6.348,14.648,15.625,0
1512569202.010,37.109,43.457,17.578,17.578,12.695,0
1512569202.014,57.617,55.176,32.715,31.250,27.832,0
1512569202.018,46.387,44.434,20.508,26.367,43.457,0
1512569202.022,41.016,38.086,17.090,20.996,50.293,0
1512569202.026,41.016,40.527,18.066,22.949,84.961,0
1512569202.030,37.109,36.133,21.973,27.832,123.535,0
1512569202.034,40.039,30.273,27.344,28.320,117.676,0
1512569202.038,38.086,30.762,20.020,19.531,61.035,0
1512569202.041,36.621,36.133,21.484,24.902,58.594,0
1512569202.045,39.062,35.156,12.207,27.832,52.246,0
1512569202.049,47.852,38.574,11.719,32.227,45.410,0
1512569202.053,51.270,48.340,35.156,40.039,66.895,0
1512569202.057,49.805,51.270,42.969,43.945,67.383,0
1512569202.061,34.668,36.621,18.066,36.133,75.195,0
1512569202.065,29.297,28.320,6.836,22.949,51.270,0
1512569202.069,39.062,38.086,27.344,23.438,33.691,0
1512569202.073,26.367,31.250,24.414,14.648,79.590,0
1512569202.077,25.391,29.785,20.996,25.879,91.797,0
1512569202.081,33.691,37.598,20.996,30.762,81.543,0
1512569202.084,37.598,36.621,28.320,20.996,94.238,0
1512569202.088,39.062,34.180,37.598,27.344,43.457,0
1512569202.092,31.738,35.156,26.855,31.738,32.227,0
1512569202.096,23.438,26.367,22.949,28.320,11.230,0
1512569202.100,25.879,20.996,33.691,28.809,-3.906,0
1512569202.104,32.715,23.438,34.668,40.039,14.160,0
1512569202.108,25.391,17.578,19.043,32.715,34.180,0
1512569202.112,27.344,16.113,23.438,19.043,12.207,0
1512569202.116,38.574,20.996,36.133,22.461,-12.207,0
1512569202.120,27.832,25.879,27.832,29.297,12.695,0
1512569202.124,8.789,20.508,28.809,26.855,37.598,0
1512569202.127,5.371,14.160,28.320,20.020,5.859,0
1512569202.131,16.113,17.090,32.227,22.461,8.789,0
1512569202.135,17.578,19.531,41.504,20.508,78.125,0
1512569202.139,14.648,7.324,35.156,4.883,79.102,0
1512569202.143,26.855,8.301,23.438,0.977,79.590,0
1512569202.147,34.668,15.625,20.508,11.230,86.914,0
1512569202.151,22.949,15.137,25.391,27.832,84.961,0
1512569202.155,5.371,14.160,27.832,26.367,23.438,0
1512569202.159,11.719,20.020,23.438,17.578,6.836,0
1512569202.163,34.180,33.203,31.738,28.320,28.809,0
1512569202.166,45.898,34.180,38.574,40.039,53.223,0
1512569202.170,41.016,24.902,35.156,39.551,33.203,0
1512569202.174,25.391,19.531,26.855,32.715,-4.395,0
1512569202.178,19.531,17.578,20.020,25.391,44.922,0
1512569202.182,31.250,20.020,15.137,25.391,93.750,0
1512569202.186,36.621,19.043,18.555,25.391,76.660,0
1512569202.190,26.855,18.066,34.180,17.578,33.203,0
1512569202.194,20.996,22.461,28.809,13.184,31.250,0
1512569202.198,24.414,29.297,17.578,13.184,67.383,0
1512569202.202,30.273,37.109,34.668,19.043,56.641,0
1512569202.206,37.109,43.457,43.945,28.320,59.570,0
1512569202.209,40.527,49.805,34.668,40.039,10.742,0
1512569202.213,33.203,39.062,27.832,36.621,-23.926,0
1512569202.217,26.367,32.715,24.414,21.484,19.531,0
1512569202.221,27.344,40.039,38.574,28.320,11.719,0
1512569202.225,23.926,38.086,35.645,35.645,57.617,0
1512569202.229,24.414,30.273,15.625,31.738,81.055,0
1512569202.233,25.391,23.926,27.344,25.879,41.992,0
1512569202.237,20.996,24.414,34.180,27.344,35.645,0
1512569202.241,29.297,28.320,26.855,32.715,17.090,0
1512569202.245,26.367,22.461,21.484,41.016,12.207,0
1512569202.249,20.508,20.996,28.809,37.109,-10.254,0
1512569202.252,30.762,25.391,49.316,20.508,21.973,0
1512569202.256,41.504,25.879,48.828,21.973,101.562,0
1512569202.260,41.016,28.809,31.738,31.250,104.492,0
1512569202.264,26.855,22.461,35.156,25.879,58.105,0
1512569202.268,26.367,20.020,35.156,18.066,0.000,0
1512569202.272,26.367,20.508,18.066,8.301,11.230,0
1512569202.276,26.855,21.484,20.996,11.230,30.273,0
1512569202.280,34.668,28.320,34.180,15.137,-7.324,0
1512569202.284,29.297,24.414,31.738,6.348,19.043,0
1512569202.288,26.367,20.508,25.391,13.184,7.324,0
1512569202.291,29.785,28.320,28.320,20.508,-23.438,0
1512569202.295,28.320,26.367,34.668,12.207,24.414,0
1512569202.299,25.391,18.555,35.156,7.324,21.484,0
1512569202.303,34.180,30.762,51.758,20.508,11.719,0
1512569202.307,47.852,42.480,60.059,39.062,10.254,0
1512569202.311,41.992,30.762,36.621,33.691,52.246,0
1512569202.315,42.480,23.926,33.691,22.461,63.477,0
1512569202.319,37.109,20.020,34.668,23.438,24.902,0
1512569202.323,21.484,11.719,27.344,14.648,51.270,0
1512569202.327,36.621,15.625,38.086,23.438,46.875,0
1512569202.331,40.527,20.996,50.781,42.480,51.270,0
1512569202.334,26.367,17.090,45.410,33.691,53.223,0
1512569202.338,37.598,17.090,39.551,35.156,50.781,0
1512569202.342,30.762,12.695,45.410,27.832,82.520,0
1512569202.346,21.484,11.230,48.828,16.602,65.918,0
1512569202.350,36.621,22.949,44.922,23.438,61.523,0
1512569202.354,43.457,28.320,50.781,28.809,66.406,0
1512569202.358,53.711,33.203,61.035,45.898,29.297,0
1512569202.362,62.012,37.598,49.316,52.734,7.324,0
1512569202.366,60.547,37.598,36.133,46.387,-22.461,0
1512569202.370,50.293,35.156,35.156,37.109,-4.883,4
1512569202.374,35.156,27.832,35.645,26.855,41.992,0
1512569202.377,44.434,38.574,40.039,40.527,78.613,0
1512569202.381,41.992,40.039,34.668,37.598,64.453,0
1512569202.385,38.086,32.227,30.273,24.414,37.598,0
1512569202.389,38.574,38.574,40.527,33.203,17.578,0
1512569202.393,31.250,39.551,38.574,32.227,4.883,0
1512569202.397,29.297,33.203,27.832,17.090,21.973,0
1512569202.401,33.203,32.227,44.922,15.137,50.293,0
1512569202.405,31.738,33.691,35.156,9.766,50.293,0
1512569202.409,32.227,44.922,19.043,19.043,-12.207,0
1512569202.413,28.320,42.969,26.855,19.531,-27.832,0
1512569202.416,21.973,34.668,25.879,12.695,-4.395,0
1512569202.420,19.531,30.762,31.250,14.648,15.137,0
1512569202.424,19.043,24.414,38.086,12.207,37.109,0
1512569202.428,20.996,27.832,38.574,11.230,20.996,0
1512569202.432,25.391,25.391,28.809,11.230,29.785,0
1512569202.436,32.227,23.438,30.762,16.602,69.336,0
1512569202.440,26.367,19.043,35.156,14.648,74.219,0
1512569202.444,23.438,11.719,37.109,9.766,30.762,0
1512569202.448,29.785,16.602,50.781,15.625,11.719,0
1512569202.452,27.832,21.973,50.293,22.949,9.277,0
1512569202.456,25.391,18.555,36.621,17.578,-9.277,0
1512569202.459,37.598,33.203,45.410,32.227,43.945,0
1512569202.463,38.574,41.992,47.852,39.551,32.227,0
1512569202.467,22.949,28.320,36.621,23.438,-8.301,0
1512569202.471,20.020,22.949,38.574,19.043,-35.645,0
1512569202.475,20.020,19.531,53.223,15.625,-14.160,0
1512569202.479,15.137,16.113,37.109,15.137,5.859,0
1512569202.483,21.484,19.531,18.066,17.090,59.570,0
1512569202.487,32.715,26.855,22.949,16.602,19.043,0
1512569202.491,36.133,31.250,30.762,18.066,-14.648,0
1512569202.495,36.133,39.551,45.898,31.738,26.367,0
1512569202.499,52.734,52.246,44.434,42.480,-11.230,0
1512569202.502,54.688,43.945,31.738,28.320,-28.320,0
1512569202.506,38.574,32.227,23.438,20.508,-20.020,0
1512569202.510,38.574,32.715,22.949,22.949,-42.480,0
1512569202.514,41.504,33.691,14.648,19.043,-26.855,0
1512569202.518,43.457,37.109,20.508,20.020,-11.230,0
1512569202.522,38.086,37.598,39.551,22.461,-38.574,0
1512569202.526,40.527,42.480,41.016,26.855,-4.395,0
1512569202.530,45.898,37.598,32.227,20.508,5.859,0
1512569202.534,35.645,29.785,27.832,19.043,14.648,0
1512569202.538,36.133,46.875,49.316,36.621,26.855,0
1512569202.541,35.156,49.805,47.363,38.086,-11.719,0
1512569202.545,26.367,33.691,30.273,27.344,14.160,0
1512569202.549,17.090,22.949,27.832,15.137,20.508,0
1512569202.553,16.113,19.531,20.996,18.555,-31.250,0
1512569202.557,31.250,31.738,26.855,32.227,-24.414,0
1512569202.561,31.738,39.062,39.062,32.227,3.418,0
1512569202.565,17.090,27.344,46.875,19.043,40.527,0
1512569202.569,9.277,17.090,37.598,6.348,3.906,0
1512569202.573,16.602,19.043,21.973,9.766,3.906,0
1512569202.577,15.137,20.020,25.391,20.508,68.359,0
1512569202.581,24.902,27.832,25.391,20.508,46.875,0
1512569202.584,25.879,29.785,18.066,10.742,33.691,0
1512569202.588,15.137,26.367,23.926,15.137,2.441,0
1512569202.592,19.531,25.879,33.203,20.508,-56.641,0
1512569202.596,24.414,27.344,38.086,20.020,-44.922,0
1512569202.600,23.926,28.320,46.387,22.461,-10.742,0
1512569202.604,35.645,41.016,52.734,32.715,18.555,0
1512569202.608,43.457,51.270,41.992,39.551,58.105,0
1512569202.612,35.156,37.598,22.461,21.973,-6.836,0
1512569202.616,31.738,30.273,27.344,12.207,-46.875,0
1512569202.620,37.109,37.109,30.762,25.879,30.273,0
1512569202.624,43.457,43.457,27.832,33.691,115.723,0
1512569202.627,50.781,52.246,32.715,37.598,109.863,0
1512569202.631,50.781,47.363,31.738,31.738,0.488,0
1512569202.635,37.598,33.203,21.484,24.902,-3.418,0
1512569202.639,33.203,34.668,23.438,27.832,52.246,0
1512569202.643,37.598,36.133,23.438,25.879,44.434,0
1512569202.647,43.945,38.086,32.227,32.715,10.742,0
1512569202.651,49.316,43.457,40.527,33.203,-1.465,0
1512569202.655,52.734,49.805,32.715,37.109,32.715,0
1512569202.659,41.504,44.922,38.086,41.016,19.043,0
1512569202.663,36.133,33.203,37.109,33.203,12.695,0
1512569202.666,35.156,30.273,33.203,26.367,40.039,0
1512569202.670,32.715,29.297,31.738,25.879,49.316,0
1512569202.674,36.133,27.832,27.832,21.973,60.547,0
1512569202.678,30.273,27.344,19.043,21.973,-29.297,0
1512569202.682,24.414,31.250,21.973,28.320,-39.062,0
1512569202.686,24.902,30.762,34.180,19.531,2.441,0
1512569202.690,22.949,24.902,34.668,11.719,42.480,0
1512569202.694,20.996,21.484,19.531,3.906,50.293,0
1512569202.698,21.484,20.020,17.578,-5.859,50.293,0
1512569202.702,15.137,18.555,35.156,0.977,53.223,0
1512569202.706,16.113,26.367,43.457,11.719,18.066,0
1512569202.709,28.809,37.109,39.062,29.297,-2.441,0
1512569202.713,29.297,33.691,49.316,30.762,18.066,0
1512569202.717,24.902,28.320,42.969,21.484,0.977,0
1512569202.721,31.738,31.738,36.621,25.879,-2.930,0
1512569202.725,26.855,26.367,32.715,20.508,15.137,0
1512569202.729,7.324,10.254,12.207,7.324,11.719,0
1512569202.733,16.602,14.160,15.137,18.066,10.742,0
1512569202.737,34.180,28.809,38.574,36.621,20.508,0
1512569202.741,35.645,28.320,40.039,35.156,30.762,0
1512569202.745,39.551,20.996,34.180,28.320,16.113,0
1512569202.749,39.062,25.879,41.016,39.551,-6.348,0
1512569202.752,35.645,27.832,37.598,39.062,41.992,0
1512569202.756,38.086,27.832,41.504,35.645,95.215,0
1512569202.760,40.039,31.250,49.316,41.504,60.059,0
1512569202.764,44.922,35.645,35.645,45.898,47.363,0
1512569202.768,43.457,33.203,32.715,41.504,64.453,0
1512569202.772,32.715,28.809,33.203,35.156,97.656,0
1512569202.776,26.367,27.344,23.438,34.668,102.051,0
1512569202.780,30.762,26.855,28.320,33.691,81.055,0
1512569202.784,33.203,31.738,26.367,36.133,43.457,0
1512569202.788,33.691,33.691,28.320,35.645,45.898,0
1512569202.791,42.480,37.109,41.992,36.133,5.371,0
1512569202.795,49.805,42.480,50.293,42.480,-1.953,0
1512569202.799,48.828,40.527,43.457,41.016,5.371,0
1512569202.803,37.109,35.645,38.086,30.273,29.297,0
1512569202.807,28.809,30.273,34.668,19.531,26.367,0
1512569202.811,22.949,26.855,31.738,13.184,57.129,0
1512569202.815,36.133,39.062,46.875,30.273,68.848,0
1512569202.819,46.875,52.246,66.406,34.668,25.391,0
1512569202.823,31.250,39.062,40.039,16.113,52.734,0
1512569202.827,21.973,27.344,20.020,5.859,53.223,0
1512569202.831,22.949,29.297,34.180,10.254,28.320,0
1512569202.834,19.043,28.809,44.434,22.949,16.602,0
1512569202.838,18.555,28.809,39.062,22.461,53.711,0
1512569202.842,27.344,31.250,31.250,15.137,33.203,0
1512569202.846,25.391,21.973,23.438,10.742,0.977,0
1512569202.850,22.949,17.090,25.391,11.230,38.574,0
1512569202.854,16.113,17.090,34.668,13.672,91.309,0
1512569202.858,20.996,25.391,46.387,21.973,66.406,0
1512569202.862,31.250,33.203,49.805,28.809,26.855,0
1512569202.866,29.297,27.832,36.133,24.414,46.875,0
1512569202.870,30.273,30.273,37.598,28.320,36.133,5
1512569202.874,39.551,42.969,49.805,48.828,31.250,0
1512569202.877,41.992,46.387,58.105,49.805,42.969,0
1512569202.881,45.898,44.434,50.293,45.898,58.594,0
1512569202.885,38.086,38.086,31.250,39.062,38.086,0
1512569202.889,33.691,31.250,33.203,29.785,29.785,0
1512569202.893,32.227,32.227,37.598,25.879,86.914,0
1512569202.897,18.555,32.227,38.574,26.855,82.520,0
1512569202.901,15.625,29.785,36.133,21.484,62.012,0
1512569202.905,30.762,41.504,38.086,33.691,13.184,0
1512569202.909,53.223,55.664,51.270,51.270,25.879,0
1512569202.913,48.828,42.480,47.363,38.086,84.961,0
1512569202.916,33.691,26.367,36.621,28.320,36.133,0
1512569202.920,32.715,30.273,42.969,34.180,4.883,0
1512569202.924,36.621,37.109,63.965,35.156,-6.348,0
1512569202.928,41.016,37.109,46.875,44.434,9.277,0
1512569202.932,46.875,41.504,31.738,60.547,104.980,0
1512569202.936,42.969,41.992,39.062,45.898,56.641,0
1512569202.940,26.367,25.879,33.203,17.578,31.250,0
1512569202.944,20.508,21.973,28.320,15.137,58.594,0
1512569202.948,22.461,25.391,32.227,24.414,22.949,0
1512569202.952,34.668,32.227,42.480,36.133,38.574,0
1512569202.956,43.457,34.668,35.645,41.504,33.691,0
1512569202.959,39.062,28.320,35.645,40.039,33.203,0
1512569202.963,39.062,28.809,53.223,40.527,49.316,0
1512569202.967,41.016,28.320,52.734,44.434,42.969,0
1512569202.971,32.227,20.508,36.621,36.133,52.246,0
1512569202.975,35.645,21.973,31.250,33.203,63.965,0
1512569202.979,43.945,25.391,36.133,35.645,47.852,0
1512569202.983,39.551,24.414,39.551,42.969,28.320,0
1512569202.987,27.344,21.484,41.992,46.387,22.461,0
1512569202.991,29.297,25.391,47.363,45.898,45.898,0
1512569202.995,33.203,30.273,45.898,52.734,50.781,0
1512569202.999,42.480,35.645,53.711,56.641,7.324,0
1512569203.002,38.086,25.879,59.570,41.992,36.133,0
1512569203.006,24.902,17.090,44.434,32.715,59.082,0
1512569203.010,31.250,26.367,30.762,36.621,53.223,0
1512569203.014,32.715,26.367,33.203,31.250,81.543,0
1512569203.018,41.992,33.691,44.922,38.086,23.438,0
1512569203.022,44.434,40.527,47.363,40.527,31.250,0
1512569203.026,35.156,35.156,43.457,36.133,84.473,0
1512569203.030,34.668,27.832,42.480,36.621,58.105,0
1512569203.034,50.293,33.203,41.504,43.457,68.359,0
1512569203.038,52.734,35.156,34.668,41.016,36.133,0
1512569203.041,38.086,25.391,34.668,33.691,49.805,0
1512569203.045,44.434,25.879,37.598,33.691,83.496,0
1512569203.049,44.434,27.344,35.645,31.738,49.316,0
1512569203.053,42.480,29.297,41.504,34.180,54.688,0
1512569203.057,48.828,34.180,47.852,36.133,48.340,0
1512569203.061,50.293,38.574,41.504,40.039,20.020,0
1512569203.065,52.246,39.551,38.086,35.645,-15.137,0
1512569203.069,57.129,40.527,54.199,38.574,25.879,0
1512569203.073,54.199,43.945,50.293,47.363,84.961,0
1512569203.077,42.969,37.109,28.320,34.668,64.941,0
1512569203.081,35.645,27.344,27.344,26.367,68.848,0
1512569203.084,25.879,19.043,25.391,18.555,80.566,0
1512569203.088,26.367,20.996,28.809,21.484,38.574,0
1512569203.092,39.062,26.855,33.691,34.180,38.574,0
1512569203.096,41.992,26.855,40.039,40.039,27.344,0
1512569203.100,44.922,30.762,48.828,47.852,56.152,0
1512569203.104,56.641,41.016,52.246,55.664,54.199,0
1512569203.108,58.105,41.504,52.734,48.828,15.137,0
1512569203.112,51.758,36.133,52.246,34.180,76.660,0
1512569203.116,49.316,36.133,42.969,40.039,86.914,0
1512569203.120,49.805,41.992,44.922,55.176,39.062,0
1512569203.124,38.086,30.762,36.621,43.945,47.363,0
1512569203.127,30.762,17.578,24.414,25.391,62.500,0
1512569203.131,40.039,23.926,29.785,30.762,36.621,0
1512569203.135,30.273,20.508,30.273,33.203,60.059,0
1512569203.139,25.391,23.926,40.527,42.969,48.340,0
1512569203.143,32.227,34.180,41.992,43.945,-2.441,0
1512569203.147,28.320,34.180,39.062,29.297,20.996,0
1512569203.151,48.340,46.875,50.781,37.109,59.570,0
1512569203.155,51.270,48.828,51.270,43.457,57.129,0
1512569203.159,27.344,34.180,36.621,32.227,57.617,0
1512569203.163,28.809,33.203,29.785,26.855,49.316,0
1512569203.166,23.438,27.832,24.414,15.625,56.152,0
1512569203.170,17.090,22.461,24.414,16.113,45.410,0
1512569203.174,16.602,23.438,29.297,19.043,17.090,0
1512569203.178,12.695,25.391,34.668,17.090,14.648,0
1512569203.182,21.973,29.785,34.668,19.043,9.766,0
1512569203.186,35.156,32.227,26.367,21.484,22.949,0
1512569203.190,32.227,29.785,21.484,25.391,72.266,0
1512569203.194,27.832,32.715,31.738,26.367,42.480,0
1512569203.198,32.227,38.574,43.457,33.691,17.090,0
1512569203.202,28.809,33.203,37.598,30.273,41.504,0
1512569203.206,24.902,26.855,40.527,21.484,37.109,0
1512569203.209,25.391,26.855,40.527,31.738,67.871,0
1512569203.213,24.902,25.879,41.992,25.391,53.223,0
1512569203.217,33.203,28.320,37.109,21.973,25.391,0
1512569203.221,27.344,22.949,24.414,18.066,27.832,0
1512569203.225,31.250,29.785,38.086,17.090,46.387,0
1512569203.229,45.898,40.527,45.410,29.785,33.691,0
1512569203.233,39.551,30.762,29.297,31.738,32.715,0
1512569203.237,32.227,27.832,31.738,23.926,40.527,0
1512569203.241,28.809,27.832,40.527,14.648,35.156,0
1512569203.245,39.551,25.879,32.227,19.531,41.016,0
1512569203.249,47.852,28.320,32.227,25.879,20.996,0
1512569203.252,34.668,25.391,42.480,19.043,44.922,0
1512569203.256,26.855,26.367,46.875,21.484,78.125,0
1512569203.260,37.109,32.227,35.645,28.809,37.109,0
1512569203.264,42.480,27.832,29.297,39.551,18.066,0
1512569203.268,54.199,44.434,50.781,54.688,46.875,0
1512569203.272,62.988,55.176,64.941,50.293,41.016,0
1512569203.276,48.340,36.621,36.133,32.715,33.691,0
1512569203.280,30.273,25.391,25.391,18.066,55.664,0
1512569203.284,37.109,26.855,31.738,23.926,53.223,0
1512569203.288,43.945,31.250,35.645,35.645,62.500,0
1512569203.291,35.645,33.691,41.016,36.621,71.289,0
1512569203.295,30.273,34.180,38.574,37.109,53.711,0
1512569203.299,30.273,36.133,57.617,42.480,45.410,0
1512569203.303,32.715,41.992,48.340,38.086,31.250,0
1512569203.307,36.133,38.086,28.320,24.414,46.875,0
1512569203.311,48.340,45.898,55.664,31.250,54.688,0
1512569203.315,49.316,51.758,52.734,35.645,41.992,0
1512569203.319,36.133,40.039,21.973,34.668,43.945,0
1512569203.323,18.066,28.320,20.020,30.273,26.367,0
1512569203.327,7.812,22.949,23.926,20.996,27.344,0
1512569203.331,16.602,22.461,24.414,15.137,46.875,0
1512569203.334,14.648,22.949,23.926,14.648,47.852,0
1512569203.338,10.742,23.926,29.297,10.742,8.789,0
1512569203.342,26.367,29.297,42.480,16.602,22.461,0
1512569203.346,47.363,42.480,48.828,26.855,15.137,0
1512569203.350,47.852,44.922,44.434,25.879,31.738,0
1512569203.354,21.973,29.297,36.133,17.090,73.242,0
1512569203.358,14.160,20.996,14.160,2.441,17.578,0
1512569203.362,20.508,24.414,12.695,7.812,-28.809,0
1512569203.366,12.695,18.066,29.297,1.953,-24.902,0
1512569203.370,10.742,25.391,36.133,6.348,-52.734,0
1512569203.374,23.926,32.715,44.922,28.320,-41.992,0
1512569203.377,23.438,27.344,32.227,19.531,33.203,0
1512569203.381,21.484,23.926,24.414,12.207,30.273,0
1512569203.385,33.203,22.461,33.691,18.066,10.742,0
1512569203.389,33.203,29.297,36.621,26.367,-7.812,0
1512569203.393,35.645,37.598,38.574,30.762,-54.688,0
1512569203.397,30.762,31.738,43.945,18.066,0.977,0
1512569203.401,20.996,28.320,51.758,16.602,28.320,0
1512569203.405,33.691,37.109,47.852,30.762,11.719,0
1512569203.409,25.879,23.438,19.043,18.066,10.742,0
1512569203.413,11.719,14.648,32.715,2.930,-20.020,0
1512569203.416,20.020,23.926,58.594,13.184,-34.180,0
1512569203.420,25.879,24.414,43.945,18.555,-45.898,0
1512569203.424,17.578,21.484,47.852,13.184,-20.996,0
1512569203.428,17.090,25.391,50.293,21.484,2.930,0
1512569203.432,36.621,37.109,39.551,32.715,-19.531,0
1512569203.436,41.992,35.156,37.109,25.879,8.301,0
1512569203.440,29.297,23.438,28.320,19.531,-2.441,0
1512569203.444,26.367,25.391,31.250,25.879,19.043,0
1512569203.448,27.344,23.926,45.898,27.344,73.730,0
1512569203.452,21.973,22.461,40.039,29.785,27.344,0
1512569203.456,14.648,21.484,34.180,17.090,20.508,0
1512569203.459,18.555,20.508,37.109,13.672,30.762,0
1512569203.463,34.668,26.367,36.133,20.996,5.859,0
1512569203.467,34.180,27.832,35.645,15.625,16.602,0
1512569203.471,31.250,34.668,67.871,24.902,22.949,0
1512569203.475,35.645,38.086,71.777,30.273,9.766,0
1512569203.479,27.832,26.855,28.320,19.043,48.340,0
1512569203.483,26.855,28.320,44.922,18.066,42.480,0
1512569203.487,24.414,27.344,64.941,30.273,24.902,0
1512569203.491,6.836,11.230,28.320,17.090,28.809,0
1512569203.495,2.930,7.812,17.090,8.789,10.742,0
1512569203.499,24.414,19.531,36.133,19.043,5.371,0
1512569203.502,31.738,24.902,35.156,20.020,1.465,0
1512569203.506,24.414,19.043,23.926,17.090,32.227,0
1512569203.510,39.551,29.297,27.832,25.879,34.668,0
1512569203.514,51.270,43.457,56.152,40.527,15.625,0
1512569203.518,37.109,34.180,47.852,41.992,15.625,0
1512569203.522,23.926,20.508,20.508,30.273,16.602,0
1512569203.526,30.273,23.926,33.203,25.879,45.410,0
1512569203.530,27.344,23.438,53.223,15.137,-30.762,0
1512569203.534,30.273,19.043,53.223,17.578,-77.637,0
1512569203.538,45.410,23.926,42.480,23.438,1.465,0
1512569203.541,34.180,19.531,32.227,10.742,34.180,0
1512569203.545,35.645,20.996,29.785,19.043,20.996,0
1512569203.549,44.434,24.414,32.227,29.297,26.855,0
1512569203.553,42.969,26.855,32.715,36.133,38.086,0
1512569203.557,42.480,29.297,37.109,41.504,5.371,0
1512569203.561,47.363,33.203,35.645,38.086,34.668,0
1512569203.565,44.922,36.133,47.363,39.551,37.598,0
1512569203.569,32.715,30.273,49.805,38.574,57.617,0
1512569203.573,27.344,25.391,53.223,23.438,45.410,0
1512569203.577,20.996,24.414,51.758,11.719,17.090,0
1512569203.581,23.438,25.879,31.250,23.926,47.852,0
1512569203.584,29.785,21.973,36.621,26.855,29.297,0
1512569203.588,32.715,22.949,38.086,22.949,-2.441,0
1512569203.592,44.434,34.668,38.086,38.086,-4.395,0
1512569203.596,50.293,41.016,50.781,50.293,-25.879,0
1512569203.600,33.691,31.250,50.293,41.504,-13.672,0
1512569203.604,15.137,19.531,31.250,26.367,26.367,0
1512569203.608,17.578,21.484,36.621,25.391,75.684,0
1512569203.612,33.203,30.273,53.223,25.879,65.918,0
1512569203.616,37.598,34.668,45.898,36.133,52.246,0
1512569203.620,18.066,31.250,45.898,31.738,36.621,0
1512569203.624,18.555,32.227,50.293,21.484,17.578,0
1512569203.627,35.156,35.156,44.434,30.273,65.430,0
1512569203.631,46.387,32.715,32.227,36.621,70.801,0
1512569203.635,51.270,31.738,37.598,32.227,106.934,0
1512569203.639,45.898,33.691,47.363,38.086,112.793,0
1512569203.643,36.133,32.715,50.781,41.504,114.258,0
1512569203.647,30.762,26.367,48.340,35.156,77.148,0
1512569203.651,23.926,26.855,60.059,27.344,38.574,0
1512569203.655,25.391,24.414,45.898,30.762,47.363,0
1512569203.659,37.109,24.902,24.414,41.992,31.738,0
1512569203.663,42.969,32.227,37.598,42.480,16.602,0
1512569203.666,41.016,27.344,42.969,29.297,-12.207,0
1512569203.670,43.457,22.461,38.086,17.090,11.230,0
1512569203.674,44.434,27.344,48.828,25.879,15.625,0
1512569203.678,51.270,38.574,48.828,40.039,3.906,0
1512569203.682,47.363,35.156,34.180,28.809,45.410,0
1512569203.686,44.922,32.715,36.621,26.855,19.043,0
1512569203.690,44.922,40.039,54.688,32.227,-12.207,0
1512569203.694,38.574,35.645,56.641,32.227,29.785,0
1512569203.698,37.109,32.227,55.176,30.762,46.875,0
1512569203.702,37.598,32.227,39.551,26.367,35.645,0
1512569203.706,35.645,26.367,21.484,16.602,15.625,0
1512569203.709,37.598,21.484,29.297,11.719,34.668,0
1512569203.713,35.156,20.508,37.598,12.207,62.988,0
1512569203.717,28.809,25.879,43.945,17.090,26.367,0
1512569203.721,33.691,37.598,57.617,34.180,4.883,0
1512569203.725,35.645,34.668,53.711,36.133,82.520,0
1512569203.729,26.855,25.391,32.227,17.578,125.488,0
1512569203.733,30.762,24.902,34.180,14.160,110.840,0
1512569203.737,25.391,28.320,44.434,31.250,103.027,0
1512569203.741,14.160,19.531,46.875,28.809,48.828,0
1512569203.745,16.113,11.719,44.922,33.691,18.555,0
1512569203.749,22.949,18.066,44.922,37.109,81.055,0
1512569203.752,33.691,24.902,44.922,26.367,75.195,0
1512569203.756,26.367,24.414,55.664,35.156,8.789,0
1512569203.760,28.809,24.902,62.500,39.551,70.801,0
1512569203.764,33.203,22.949,58.594,24.414,82.520,0
1512569203.768,26.855,20.508,51.270,21.484,21.484,0
1512569203.772,28.320,20.020,36.133,23.438,36.621,0
1512569203.776,27.832,22.949,38.086,21.484,84.961,0
1512569203.780,29.785,33.203,48.828,36.133,56.152,0
1512569203.784,43.945,44.434,61.523,53.711,54.199,0
1512569203.788,32.227,36.133,55.176,41.016,54.199,0
1512569203.791,17.578,19.531,45.898,20.508,66.406,0
1512569203.795,26.855,23.926,60.059,21.973,104.980,0
1512569203.799,41.504,36.133,53.223,42.480,35.156,0
1512569203.803,42.480,35.645,39.062,44.434,-15.625,0
1512569203.807,41.992,36.621,41.504,40.039,41.992,0
1512569203.811,45.898,42.480,46.875,49.805,95.703,0
1512569203.815,39.551,35.645,59.082,39.551,72.754,0
1512569203.819,39.062,30.762,49.805,32.715,22.461,0
1512569203.823,36.133,30.762,42.969,34.668,-11.230,0
1512569203.827,41.504,36.621,46.387,41.992,90.820,0
1512569203.831,52.734,40.527,51.270,50.781,75.684,0
1512569203.834,42.969,31.250,50.293,35.156,28.809,0
1512569203.838,42.480,29.297,35.156,31.250,69.336,0
1512569203.842,37.109,35.645,37.109,26.855,55.176,0
1512569203.846,25.391,30.273,37.109,19.043,65.918,0
1512569203.850,28.809,27.344,31.250,29.297,50.293,0
1512569203.854,45.898,40.039,52.246,44.434,34.180,0
1512569203.858,45.898,41.992,65.430,49.316,48.828,0
1512569203.862,34.668,37.109,54.688,37.109,88.379,0
1512569203.866,44.434,37.109,51.270,38.086,113.281,0
1512569203.870,45.898,32.715,59.570,38.574,82.031,0
1512569203.874,41.504,33.691,51.758,40.039,50.781,0
1512569203.877,52.246,36.621,48.828,46.875,53.223,0
1512569203.881,56.641,46.387,59.570,49.316,40.527,0
1512569203.885,42.969,43.945,46.875,56.152,34.668,0
1512569203.889,22.461,22.949,41.992,41.016,79.102,0
1512569203.893,13.184,20.020,42.969,26.855,65.918,0
1512569203.897,24.414,25.879,33.691,38.086,72.266,0
1512569203.901,33.203,30.273,39.551,44.434,88.867,0
1512569203.905,32.227,38.574,37.598,38.086,36.133,0
1512569203.909,30.762,37.598,32.715,41.016,23.926,0
1512569203.913,24.414,31.250,46.387,46.387,52.246,0
1512569203.916,39.062,32.715,55.176,46.875,39.062,0
1512569203.920,38.086,28.320,45.898,30.762,46.387,0
1512569203.924,40.039,24.902,36.621,28.320,53.711,0
1512569203.928,45.898,28.320,48.340,42.969,80.566,0
1512569203.932,20.020,21.973,41.992,32.227,63.477,0
1512569203.936,13.672,18.066,39.551,26.367,55.664,0
1512569203.940,29.785,18.066,35.156,36.133,69.824,0
1512569203.944,45.410,26.367,21.973,46.875,32.715,0
1512569203.948,44.434,32.227,37.598,48.828,26.855,0
1512569203.952,32.715,26.367,46.387,43.457,69.824,0
1512569203.956,35.156,33.203,47.852,46.387,74.707,0
1512569203.959,39.062,31.738,45.410,39.062,39.062,0
1512569203.963,45.410,28.320,42.480,41.016,43.457,0
1512569203.967,37.598,22.461,49.805,41.504,44.434,0
1512569203.971,23.926,16.113,54.688,32.715,58.105,0
1512569203.975,30.762,18.555,48.828,30.762,63.965,0
1512569203.979,35.645,21.973,24.902,25.879,50.781,0
1512569203.983,29.785,21.484,25.391,16.602,28.809,0
1512569203.987,28.809,12.695,37.109,13.672,14.648,0
1512569203.991,28.320,19.531,37.598,23.438,35.645,0
1512569203.995,26.367,27.344,45.410,27.344,50.293,0
1512569203.999,23.926,21.973,37.598,23.926,60.059,0
1512569204.002,26.367,20.996,36.133,20.996,29.785,0
1512569204.006,21.484,21.484,43.945,21.973,0.488,0
1512569204.010,11.719,20.020,45.898,33.203,5.859,0
1512569204.014,17.090,18.066,41.992,29.297,58.105,0
1512569204.018,33.691,16.113,31.250,21.973,58.105,0
1512569204.022,25.391,21.484,37.598,17.090,14.160,0
1512569204.026,16.113,25.391,42.969,14.648,39.062,0
1512569204.030,29.785,25.879,38.086,28.320,61.523,0
1512569204.034,28.320,24.902,28.809,39.062,83.984,0
1512569204.038,36.621,31.250,32.715,36.133,46.875,0
1512569204.041,55.176,39.551,45.898,46.875,44.922,0
1512569204.045,44.922,33.203,53.223,46.387,60.059,0
1512569204.049,29.785,18.066,41.504,25.879,19.043,0
1512569204.053,28.320,10.254,19.531,18.555,34.668,0
1512569204.057,30.762,20.020,30.273,33.691,60.059,0
1512569204.061,44.922,31.250,42.969,50.293,39.551,0
1512569204.065,47.363,23.926,40.527,37.109,59.570,0
1512569204.069,48.828,29.785,48.340,27.832,26.855,0
1512569204.073,38.574,36.133,52.246,23.926,-3.906,0
1512569204.077,27.344,30.762,50.293,22.461,36.621,0
1512569204.081,35.645,26.367,35.156,32.715,34.668,0
1512569204.084,40.039,25.391,43.457,35.156,18.555,0
1512569204.088,35.645,28.809,32.715,30.762,23.926,0
1512569204.092,37.109,28.320,13.184,24.902,21.484,0
1512569204.096,32.715,24.414,31.738,20.508,31.738,0
1512569204.100,21.484,25.879,36.133,18.555,32.227,0
1512569204.104,13.672,28.809,20.996,19.043,46.875,0
1512569204.108,13.184,25.391,24.902,10.254,21.484,0
1512569204.112,19.043,30.762,29.785,16.113,49.805,0
1512569204.116,18.066,39.551,34.668,32.715,65.430,0
1512569204.120,22.461,38.086,47.363,38.574,18.555,0
1512569204.124,28.809,36.621,47.363,24.414,16.602,0
1512569204.127,27.832,32.227,40.527,11.230,34.180,0
1512569204.131,27.344,25.879,26.855,15.137,22.461,0
1512569204.135,23.926,20.508,20.996,11.719,6.348,0
1512569204.139,16.113,18.555,26.367,7.324,9.277,0
1512569204.143,25.879,27.344,37.109,20.996,35.156,0
1512569204.147,39.062,40.527,45.410,32.715,37.109,0
1512569204.151,15.625,31.738,25.391,22.949,-32.227,0
1512569204.155,9.766,25.879,16.113,23.438,-34.668,0
1512569204.159,31.250,38.086,45.410,34.180,19.043,0
1512569204.163,41.016,41.504,53.223,21.973,26.367,0
1512569204.166,31.250,40.527,27.832,6.836,33.203,0
1512569204.170,21.484,37.109,27.832,14.160,2.930,0
1512569204.174,16.113,33.203,42.969,21.973,-11.230,0
1512569204.178,19.043,38.086,32.227,21.973,24.414,0
1512569204.182,21.484,33.691,23.926,10.254,0.000,0
1512569204.186,28.809,28.809,25.879,-1.953,-5.371,0
1512569204.190,42.969,26.367,39.551,-4.883,15.625,0
1512569204.194,44.434,34.668,63.965,14.648,15.625,0
1512569204.198,42.969,38.086,44.922,37.109,22.949,0
1512569204.202,34.668,37.598,23.438,38.574,42.969,0
1512569204.206,40.527,42.969,34.180,32.227,7.324,0
1512569204.209,52.246,37.109,23.438,16.113,26.855,0
1512569204.213,56.641,31.250,14.160,20.508,26.855,0
1512569204.217,44.434,27.832,31.250,31.738,33.203,0
1512569204.221,40.527,32.715,46.875,37.598,34.668,0
1512569204.225,51.758,41.992,44.434,47.852,16.113,0
1512569204.229,42.969,31.250,41.504,34.668,14.648,0
1512569204.233,48.340,32.715,40.527,37.598,5.859,0
1512569204.237,52.246,41.992,39.551,36.133,35.645,0
1512569204.241,42.480,37.109,39.062,23.438,-14.160,0
1512569204.245,48.340,44.434,34.668,36.621,-48.340,0
1512569204.249,41.992,34.180,25.391,26.855,-27.832,0
1512569204.252,36.621,22.949,22.461,17.090,-35.156,0
1512569204.256,46.875,28.809,28.809,35.156,-27.832,0
1512569204.260,49.316,23.926,31.250,33.203,-23.926,0
1512569204.264,43.945,21.973,20.996,20.508,-21.973,0
1512569204.268,37.598,27.832,39.551,27.832,4.883,0
1512569204.272,22.461,26.855,56.641,29.297,12.695,0
1512569204.276,29.297,24.902,34.180,23.438,-0.488,0
1512569204.280,38.574,28.320,28.809,22.461,19.043,0
1512569204.284,30.273,32.227,34.668,21.973,3.906,0
1512569204.288,36.133,34.668,37.109,20.996,-4.883,0
1512569204.291,36.133,34.180,30.273,18.555,-1.465,0
1512569204.295,25.879,27.344,22.461,9.766,-53.223,0
1512569204.299,20.508,18.555,23.926,2.441,-31.738,0
1512569204.303,20.020,17.090,28.320,8.301,1.953,0
1512569204.307,18.555,21.973,27.344,28.320,-12.695,0
1512569204.311,26.855,27.344,28.320,33.691,8.789,0
1512569204.315,40.039,28.809,29.297,24.902,8.789,0
1512569204.319,38.574,29.297,36.133,28.809,-50.293,0
1512569204.323,34.668,26.367,41.016,20.508,-22.461,0
1512569204.327,34.668,27.832,37.598,9.277,-35.645,0
1512569204.331,38.086,32.715,41.992,17.578,21.484,0
1512569204.334,41.016,29.297,37.598,20.996,18.066,0
1512569204.338,34.668,24.902,26.855,25.879,-67.383,0
1512569204.342,29.785,39.551,33.691,42.969,-7.812,0
1512569204.346,33.691,38.574,31.250,32.227,3.906,0
1512569204.350,33.203,17.578,18.555,12.695,36.621,0
1512569204.354,41.992,25.879,33.203,10.742,67.383,0
1512569204.358,40.527,31.250,50.781,13.184,55.664,0
1512569204.362,35.645,21.484,42.480,19.531,22.949,0
1512569204.366,38.086,19.531,39.551,25.391,31.738,0
1512569204.370,29.297,23.438,33.691,24.414,65.430,0
1512569204.374,30.273,29.785,33.691,31.738,33.691,0
1512569204.377,30.273,30.273,45.410,35.156,57.129,0
1512569204.381,27.832,24.902,46.387,24.902,23.438,0
1512569204.385,22.949,25.391,37.109,21.973,-19.531,0
1512569204.389,29.297,31.250,34.180,28.809,47.852,0
1512569204.393,53.223,32.715,40.039,33.691,94.238,0
1512569204.397,48.828,28.320,31.250,22.949,68.359,0
1512569204.401,44.434,32.227,29.785,28.809,30.762,0
1512569204.405,45.898,37.598,36.133,34.180,40.039,0
1512569204.409,41.992,39.551,42.969,27.832,49.316,0
1512569204.413,38.574,33.691,38.574,20.996,30.273,0
1512569204.416,24.902,20.996,46.387,18.066,67.871,0
1512569204.420,3.418,19.531,63.477,13.184,65.918,0
1512569204.424,9.766,24.414,27.832,14.648,8.301,0
1512569204.428,39.551,29.297,7.812,29.297,36.133,0
1512569204.432,43.945,32.227,28.320,35.645,15.137,0
1512569204.436,32.715,36.621,32.227,26.367,-6.836,0
1512569204.440,35.156,33.203,33.203,25.879,-5.371,0
1512569204.444,38.086,27.344,26.855,21.973,37.598,0
1512569204.448,39.551,27.832,24.414,21.484,73.730,0
1512569204.452,42.969,27.344,36.133,30.273,8.301,0
1512569204.456,54.688,45.410,50.293,50.781,34.668,0
1512569204.459,52.246,44.922,62.012,43.457,95.215,0
1512569204.463,31.738,23.926,40.039,16.602,22.461,0
1512569204.467,49.805,22.949,23.926,25.879,-23.438,0
1512569204.471,35.645,21.973,30.762,21.973,16.602,0
1512569204.475,15.625,21.484,32.715,10.254,20.020,0
1512569204.479,39.062,28.320,21.973,18.555,4.883,0
1512569204.483,42.480,36.621,28.320,24.414,13.184,0
1512569204.487,36.133,29.785,32.715,11.719,57.129,0
1512569204.491,47.363,24.902,21.973,23.926,42.969,0
1512569204.495,54.199,38.086,41.504,48.828,-30.762,0
1512569204.499,39.062,32.227,62.988,32.227,21.973,0
1512569204.502,31.250,26.367,37.109,14.648,63.965,0
1512569204.506,29.785,27.832,21.973,9.277,50.781,0
1512569204.510,36.133,28.809,40.039,22.461,108.398,0
1512569204.514,43.945,32.227,42.969,31.738,115.234,0
1512569204.518,41.504,27.344,47.363,28.320,115.723,0
1512569204.522,41.992,25.879,30.273,33.203,65.430,0
1512569204.526,37.109,31.250,22.461,25.391,56.152,0
1512569204.530,43.457,34.180,38.574,22.949,80.078,0
1512569204.534,47.852,35.645,34.180,35.156,59.570,0
1512569204.538,44.922,32.715,25.879,34.668,41.992,0
1512569204.541,45.898,30.762,44.434,39.062,62.988,0
1512569204.545,37.598,37.598,55.176,38.574,52.734,0
1512569204.549,29.297,30.273,36.133,29.297,28.809,0
1512569204.553,23.926,18.555,22.461,20.996,41.992,0
1512569204.557,26.855,20.508,47.852,26.367,26.855,0
1512569204.561,26.367,21.484,57.617,23.926,60.059,0
1512569204.565,19.043,19.043,20.996,10.742,93.750,0
1512569204.569,16.113,23.438,11.230,20.020,75.195,0
1512569204.573,22.949,29.785,30.273,20.508,60.547,0
1512569204.577,29.297,32.715,40.039,5.371,60.547,0
1512569204.581,23.926,34.668,28.320,8.301,77.148,0
1512569204.584,35.645,37.598,39.062,30.762,96.680,0
1512569204.588,27.344,32.227,49.316,29.297,116.211,0
1512569204.592,14.648,28.320,36.621,29.297,126.465,0
1512569204.596,23.438,24.902,25.879,18.066,110.352,0
1512569204.600,28.809,25.391,24.902,18.555,98.145,0
1512569204.604,37.109,30.273,40.039,21.973,94.727,0
1512569204.608,47.852,39.551,41.992,17.090,94.727,0
1512569204.612,51.270,42.480,38.574,38.574,105.469,0
1512569204.616,33.203,36.133,22.461,26.855,103.516,0
1512569204.620,21.973,27.832,11.719,7.324,94.238,0
1512569204.624,36.133,23.438,23.438,5.371,95.215,0
1512569204.627,39.551,29.297,41.992,1.465,111.328,0
1512569204.631,41.992,32.715,42.480,19.531,52.734,0
1512569204.635,47.852,41.504,36.133,39.062,50.293,0
1512569204.639,35.156,33.691,27.832,21.973,95.703,0
1512569204.643,25.391,21.973,15.625,6.836,89.355,0
1512569204.647,35.156,28.809,37.598,21.484,90.820,0
1512569204.651,52.734,37.598,48.828,25.879,74.707,0
1512569204.655,52.246,32.227,45.410,16.602,94.727,0
1512569204.659,39.551,25.879,36.133,15.625,110.352,0
1512569204.663,35.645,27.832,33.691,32.227,132.812,0
1512569204.666,38.574,34.180,25.879,36.133,128.906,0
1512569204.670,23.926,32.227,28.809,22.949,110.352,0
1512569204.674,20.508,33.691,42.969,22.461,104.492,0
1512569204.678,32.715,32.715,37.598,25.391,88.379,0
1512569204.682,34.180,16.602,24.414,19.531,132.324,0
1512569204.686,28.809,18.066,24.902,19.531,155.273,0
1512569204.690,33.691,30.273,43.457,25.391,91.797,0
1512569204.694,42.480,34.668,41.504,33.691,89.355,0
1512569204.698,46.387,30.762,31.738,28.809,128.418,0
1512569204.702,46.875,25.391,27.344,22.949,125.000,0
1512569204.706,42.480,21.973,26.367,23.438,103.027,0
1512569204.709,44.922,32.715,25.879,40.039,116.211,0
1512569204.713,41.992,33.691,39.551,59.082,142.578,0
1512569204.717,46.875,31.738,52.246,59.570,121.094,0
1512569204.721,41.504,33.691,41.016,47.363,118.164,0
1512569204.725,32.715,25.391,21.484,38.574,142.578,0
1512569204.729,46.387,21.484,24.414,34.668,144.531,0
1512569204.733,43.945,24.902,27.344,29.785,151.855,0
1512569204.737,39.551,34.180,29.785,48.340,121.582,0
1512569204.741,40.039,34.668,43.457,51.270,97.168,0
1512569204.745,32.715,28.320,46.875,25.391,137.695,0
1512569204.749,34.668,24.902,30.273,21.973,101.074,0
1512569204.752,47.363,34.180,23.926,27.832,69.336,0
1512569204.756,40.039,35.156,29.785,26.367,109.375,0
1512569204.760,30.273,21.484,36.133,15.625,107.910,0
1512569204.764,33.691,26.367,32.227,19.043,100.098,0
1512569204.768,34.668,33.691,42.969,31.738,95.215,0
1512569204.772,27.344,26.855,38.086,32.715,125.488,0
1512569204.776,26.367,24.902,23.438,28.809,142.090,0
1512569204.780,32.227,27.832,19.531,22.949,93.262,0
1512569204.784,27.344,28.809,15.625,19.043,75.195,0
1512569204.788,23.926,26.367,27.832,8.789,103.516,0
1512569204.791,29.297,22.949,33.691,15.137,112.305,0
1512569204.795,27.832,23.926,27.344,27.832,116.211,0
1512569204.799,29.785,24.414,31.738,15.625,122.559,0
1512569204.803,41.016,30.762,43.945,10.742,147.461,0
1512569204.807,32.227,31.250,47.852,17.578,147.949,0
1512569204.811,41.016,31.250,44.922,34.668,155.762,0
1512569204.815,36.133,28.809,34.180,30.273,162.598,0
1512569204.819,31.738,23.438,32.227,21.484,145.996,0
1512569204.823,46.387,23.438,43.457,19.043,150.391,0
1512569204.827,35.156,32.227,39.551,14.648,126.953,0
1512569204.831,30.273,31.738,36.621,22.949,107.422,0
1512569204.834,26.855,14.648,37.598,18.555,121.582,0
1512569204.838,22.949,11.719,33.691,13.184,120.117,0
1512569204.842,26.367,11.719,45.410,14.160,114.746,0
1512569204.846,33.691,17.578,48.828,31.738,133.789,0
1512569204.850,31.738,25.879,40.039,35.645,123.047,0
1512569204.854,33.203,26.367,33.691,36.133,114.746,0
1512569204.858,45.898,31.250,37.109,53.711,100.586,0
1512569204.862,54.199,35.645,46.875,58.594,92.285,0
1512569204.866,38.086,21.973,45.898,37.598,92.285,0
1512569204.870,36.621,14.160,42.480,17.090,54.688,0
1512569204.874,56.641,28.320,36.133,31.738,35.156,0
1512569204.877,49.805,33.691,29.297,35.156,60.547,0
1512569204.881,37.598,26.367,33.203,22.461,56.641,0
1512569204.885,42.969,27.832,46.875,34.180,26.367,0
1512569204.889,54.688,36.133,48.340,40.039,28.809,0
1512569204.893,41.016,33.691,32.715,25.391,25.879,0
1512569204.897,29.785,31.738,22.461,22.949,2.441,0
1512569204.901,41.992,42.480,48.828,44.922,9.277,0
1512569204.905,31.250,39.551,31.250,37.598,42.480,0
1512569204.909,18.555,21.973,4.883,22.949,24.902,0
1512569204.913,25.879,22.949,28.809,21.973,9.766,0
1512569204.916,31.738,29.785,39.062,15.137,-4.883,0
1512569204.920,37.598,26.855,31.250,12.207,-26.855,0
1512569204.924,32.227,27.344,20.996,22.949,13.672,0
1512569204.928,29.297,27.832,30.273,24.414,7.324,0
1512569204.932,41.992,31.738,36.621,32.227,-6.836,0
1512569204.936,54.199,40.039,49.805,47.852,29.297,0
1512569204.940,55.176,39.551,52.246,28.320,40.527,0
1512569204.944,38.574,38.574,28.320,-2.441,49.316,0
1512569204.948,38.086,35.156,24.902,11.719,50.781,0
1512569204.952,24.414,26.855,41.504,17.090,35.645,0
1512569204.956,12.695,26.855,43.457,19.043,21.973,0
1512569204.959,21.484,27.832,23.438,27.344,0.977,0
1512569204.963,15.137,27.344,18.555,6.348,0.488,0
1512569204.967,18.555,26.367,22.461,7.324,20.508,0
1512569204.971,31.738,29.297,32.715,21.973,32.227,0
1512569204.975,28.320,38.574,44.434,19.043,7.812,0
1512569204.979,24.414,38.086,48.828,10.254,6.348,0
1512569204.983,34.668,31.250,37.109,12.207,13.672,0
1512569204.987,47.363,30.762,41.016,31.250,-7.812,0
1512569204.991,57.129,43.945,57.129,48.828,19.043,0
1512569204.995,46.387,38.086,34.668,24.414,25.879,0
1512569204.999,44.434,26.855,22.949,3.418,10.254,0
1512569205.002,44.922,25.879,28.809,0.000,1.465,0
1512569205.006,25.391,24.414,26.855,6.836,-8.301,0
1512569205.010,29.785,29.785,29.785,15.625,0.488,0
1512569205.014,29.785,31.738,41.992,17.578,34.180,0
1512569205.018,33.691,32.715,44.922,24.902,36.621,0
1512569205.022,37.598,38.574,46.387,22.949,33.203,0
1512569205.026,38.574,35.156,67.871,24.902,36.133,0
1512569205.030,42.480,26.855,56.641,27.344,41.992,0
1512569205.034,30.273,26.855,37.109,28.320,33.203,0
1512569205.038,36.621,29.297,44.922,40.527,23.926,0
1512569205.041,48.828,30.273,35.645,43.457,30.273,0
1512569205.045,43.457,29.785,35.156,32.227,12.695,0
1512569205.049,24.414,13.184,46.387,17.578,-7.812,0
1512569205.053,27.344,15.625,38.086,33.203,2.441,0
1512569205.057,33.691,29.785,31.250,47.852,5.859,0
1512569205.061,24.902,24.414,31.738,29.785,4.883,0
1512569205.065,21.973,18.555,38.086,20.020,7.324,0
1512569205.069,16.602,19.531,43.945,22.949,-20.020,0
1512569205.073,14.648,22.949,44.434,29.297,-24.414,0
1512569205.077,25.391,27.344,37.109,26.855,-2.441,0
1512569205.081,26.855,19.043,23.926,2.441,-35.645,0
1512569205.084,10.742,6.836,35.645,-9.766,-37.598,0
1512569205.088,13.184,16.602,48.828,14.648,-5.371,0
1512569205.092,25.391,20.996,25.879,12.695,-4.395,0
1512569205.096,36.133,23.438,35.156,4.883,-31.738,0
1512569205.100,37.109,30.273,45.410,9.766,-42.480,0
1512569205.104,25.391,27.832,19.531,5.859,-5.371,0
1512569205.108,20.508,20.996,24.414,1.953,-12.695,0
1512569205.112,16.602,23.438,38.086,-0.488,-23.926,0
1512569205.116,26.367,32.715,31.738,15.625,13.672,0
1512569205.120,33.691,25.879,30.273,20.020,4.395,0
1512569205.124,29.785,19.043,20.508,7.812,-30.273,0
1512569205.127,48.340,28.809,31.250,9.277,-18.066,0
1512569205.131,47.852,32.227,41.992,11.719,-13.184,0
1512569205.135,37.109,39.062,41.016,19.531,-24.414,0
1512569205.139,55.176,36.621,52.246,29.297,-15.137,0
1512569205.143,51.270,20.020,30.762,19.531,-33.203,0
1512569205.147,37.109,21.973,32.715,16.113,-46.387,0
1512569205.151,37.109,23.438,41.016,28.320,-38.086,0
1512569205.155,30.273,18.066,35.645,28.809,-47.852,0
1512569205.159,24.414,9.277,26.367,11.230,-29.297,0
1512569205.163,45.898,17.090,43.457,24.902,-17.578,0
1512569205.166,66.406,32.227,54.688,45.410,-14.648,0
1512569205.170,52.734,24.414,26.855,21.973,-42.969,0
1512569205.174,50.293,30.273,43.945,24.902,-44.922,0
1512569205.178,69.824,45.898,64.453,55.176,-5.859,0
1512569205.182,64.941,36.621,41.992,41.016,-24.414,0
1512569205.186,43.457,28.320,24.902,15.625,-42.480,0
1512569205.190,34.668,23.926,43.457,15.625,-41.504,0
1512569205.194,42.969,22.949,57.129,28.320,-6.836,0
1512569205.198,48.340,34.668,36.621,27.344,-23.438,0
1512569205.202,40.527,31.250,26.367,20.508,-47.363,0
1512569205.206,37.598,25.391,34.180,25.391,-17.578,0
1512569205.209,33.203,26.855,40.039,23.926,-36.133,0
1512569205.213,29.297,28.809,34.180,19.531,-44.922,0
1512569205.217,32.227,40.039,30.762,29.785,-21.973,0
1512569205.221,53.223,50.293,39.551,46.387,-9.277,0
1512569205.225,46.875,45.410,54.199,31.738,24.414,0
1512569205.229,31.250,33.691,50.293,10.254,16.602,0
1512569205.233,23.438,22.461,28.320,13.184,-17.090,0
1512569205.237,12.695,20.508,20.508,15.625,-8.301,0
1512569205.241,19.531,34.180,38.574,12.695,10.254,0
1512569205.245,23.438,34.180,47.852,13.184,-8.301,0
1512569205.249,32.715,35.156,38.574,23.926,-10.254,0
1512569205.252,29.785,38.574,45.410,11.230,35.645,0
1512569205.256,17.090,22.461,32.715,-6.348,33.203,0
1512569205.260,27.832,28.320,13.672,10.254,8.789,0
1512569205.264,35.156,41.992,23.438,20.508,14.160,0
1512569205.268,29.785,35.156,21.973,12.207,55.176,0
1512569205.272,35.645,32.227,22.461,23.438,60.547,0
1512569205.276,32.227,29.297,34.180,21.484,47.363,0
1512569205.280,27.344,24.414,34.180,7.812,41.016,0
1512569205.284,34.180,29.785,47.852,10.742,28.320,0
1512569205.288,38.086,34.180,61.523,19.531,41.504,0
1512569205.291,44.922,30.273,43.457,16.602,29.297,0
1512569205.295,48.828,32.227,44.922,16.602,30.273,0
1512569205.299,34.668,37.598,48.828,29.297,50.293,0
1512569205.303,32.227,37.109,33.691,39.551,34.180,0
1512569205.307,42.480,31.738,45.898,42.480,32.227,0
1512569205.311,38.086,22.949,54.199,34.180,66.406,0
1512569205.315,44.434,25.391,35.156,34.668,55.664,0
1512569205.319,37.109,26.855,24.902,31.738,52.734,0
1512569205.323,36.133,29.785,25.391,35.156,57.129,0
1512569205.327,48.340,33.203,43.945,41.992,59.082,0
1512569205.331,34.668,24.902,45.898,35.645,79.590,0
1512569205.334,37.109,29.297,39.551,52.246,44.434,0
1512569205.338,51.270,39.062,59.082,62.988,-1.953,0
1512569205.342,39.551,29.785,58.594,49.805,34.180,0
1512569205.346,35.156,21.973,50.781,49.316,82.520,0
1512569205.350,38.086,22.461,60.059,54.688,61.035,0
1512569205.354,41.504,29.297,58.594,54.199,30.762,0
1512569205.358,40.527,25.391,40.527,48.340,23.926,0
1512569205.362,35.645,24.414,21.484,38.574,44.922,0
1512569205.366,40.039,19.531,23.438,28.809,39.062,0
1512569205.370,43.457,24.414,33.203,47.852,23.926,0
1512569205.374,36.621,36.133,46.387,64.453,49.805,0
1512569205.377,31.738,30.273,48.828,45.898,32.715,0
1512569205.381,33.203,23.438,44.434,32.227,27.344,0
1512569205.385,35.645,24.414,46.875,34.668,20.996,0
1512569205.389,37.109,28.320,51.758,42.480,27.344,0
1512569205.393,38.086,28.809,53.711,41.504,40.527,0
1512569205.397,38.574,30.273,46.875,36.133,49.805,0
1512569205.401,39.551,31.738,33.203,45.410,43.945,0
1512569205.405,30.273,26.855,31.250,45.898,65.918,0
1512569205.409,44.434,31.250,40.527,46.387,99.121,0
1512569205.413,48.340,36.133,47.852,30.273,82.031,0
1512569205.416,35.645,30.762,52.246,18.555,74.707,0
1512569205.420,54.688,36.133,43.945,47.852,93.262,0
1512569205.424,44.922,27.344,35.645,45.410,84.473,0
1512569205.428,28.320,17.578,33.203,32.715,89.844,0
1512569205.432,30.762,20.996,41.504,32.715,126.465,0
1512569205.436,50.293,28.320,53.711,46.387,115.723,0
1512569205.440,54.199,32.227,46.875,51.758,81.055,0
1512569205.444,36.621,20.508,39.062,31.738,58.594,0
1512569205.448,37.598,19.531,36.133,32.227,71.777,0
1512569205.452,40.527,25.879,56.152,45.410,91.797,0
1512569205.456,45.898,33.691,82.031,55.176,84.473,0
1512569205.459,59.570,41.992,58.594,55.176,93.750,0
1512569205.463,52.734,28.320,38.086,33.203,81.543,0
1512569205.467,45.410,22.949,25.391,25.879,62.500,0
1512569205.471,38.574,24.902,28.809,30.762,74.219,0
1512569205.475,18.066,15.137,32.715,33.691,68.359,0
1512569205.479,24.902,15.137,38.574,46.387,67.871,0
1512569205.483,37.598,24.414,59.570,47.852,57.617,0
1512569205.487,37.109,27.832,69.336,40.039,38.574,0
1512569205.491,30.273,24.414,49.316,43.457,54.199,0
1512569205.495,32.715,24.902,43.457,52.246,56.641,0
1512569205.499,25.879,21.973,45.410,46.875,20.508,0
1512569205.502,2.441,9.277,27.832,29.785,9.277,0
1512569205.506,6.836,9.766,20.508,24.902,33.203,0
1512569205.510,4.395,12.207,37.598,18.555,24.902,0
1512569205.514,-0.977,8.789,49.316,9.277,30.762,0
1512569205.518,20.508,16.602,43.945,20.996,49.805,0
1512569205.522,32.227,34.180,46.387,32.227,15.137,0
1512569205.526,22.949,31.738,49.316,31.250,-7.812,0
1512569205.530,20.508,26.367,38.086,36.621,-25.391,0
1512569205.534,30.273,37.109,35.645,37.109,-25.391,0
1512569205.538,24.414,32.227,25.391,19.531,-6.348,0
1512569205.541,14.648,28.320,19.043,5.859,2.441,0
1512569205.545,7.812,30.762,20.996,4.395,1.953,0
1512569205.549,13.184,28.809,9.277,0.000,-7.324,0
1512569205.553,24.414,32.227,19.531,-0.488,0.000,0
1512569205.557,30.762,45.410,28.809,11.230,-10.742,0
1512569205.561,33.203,48.828,21.973,13.672,10.254,0
1512569205.565,36.621,39.062,24.414,16.113,35.156,0
1512569205.569,47.363,45.898,32.227,26.855,31.738,0
1512569205.573,49.805,49.805,33.203,24.902,35.645,0
1512569205.577,42.480,37.598,28.320,15.625,33.691,0
1512569205.581,40.039,27.832,29.785,14.648,55.176,0
1512569205.584,41.504,28.809,32.715,18.066,82.031,0
1512569205.588,40.527,27.344,44.922,22.949,61.523,0
1512569205.592,53.223,31.738,36.621,40.527,66.406,0
1512569205.596,69.336,46.387,46.875,54.688,92.285,0
1512569205.600,63.477,40.039,48.828,49.805,80.078,0
1512569205.604,50.293,27.832,36.133,43.945,91.797,0
1512569205.608,40.527,25.391,38.574,44.922,84.473,0
1512569205.612,41.504,23.438,34.180,42.480,95.215,0
1512569205.616,48.828,23.438,42.969,40.527,102.539,0
1512569205.620,51.270,24.902,60.059,37.109,58.594,0
1512569205.624,38.086,20.996,45.898,33.203,62.988,0
1512569205.627,39.551,21.973,34.180,43.945,94.727,0
1512569205.631,47.852,35.156,46.387,57.129,84.473,0
1512569205.635,46.387,40.039,54.199,58.594,52.246,0
1512569205.639,33.203,32.715,41.016,43.457,50.293,0
1512569205.643,30.762,40.527,43.945,43.945,77.637,0
1512569205.647,38.574,43.457,57.617,55.176,63.965,0
1512569205.651,15.625,20.020,36.133,29.785,39.551,0
1512569205.655,11.230,19.531,17.578,19.531,62.012,0
1512569205.659,15.137,28.320,22.461,26.367,62.500,0
1512569205.663,14.160,27.832,39.551,27.832,37.598,0
1512569205.666,20.508,29.785,32.227,28.320,23.926,0
1512569205.670,23.438,30.273,19.531,30.273,36.621,0
1512569205.674,30.762,40.039,32.715,35.645,36.621,0
1512569205.678,24.414,40.039,37.109,28.809,25.391,0
1512569205.682,20.996,31.250,24.902,15.137,16.602,0
1512569205.686,28.320,35.645,30.762,24.414,47.363,0
1512569205.690,19.043,36.621,41.016,24.414,66.895,0
1512569205.694,23.438,37.598,34.668,18.555,30.273,0
1512569205.698,40.527,41.504,28.809,22.949,46.875,0
1512569205.702,41.992,34.668,30.273,28.809,65.918,0
1512569205.706,38.086,35.156,36.133,33.203,65.430,0
1512569205.709,43.457,44.922,41.016,35.156,67.871,0
1512569205.713,54.688,43.945,26.855,30.762,50.293,0
1512569205.717,56.152,34.180,31.738,30.273,53.711,0
1512569205.721,51.758,30.273,38.086,31.250,67.871,0
1512569205.725,46.875,33.691,28.320,28.809,58.105,0
1512569205.729,44.434,38.086,26.855,35.645,62.500,0
1512569205.733,57.129,45.410,41.016,50.781,73.730,0
1512569205.737,67.871,47.363,56.152,55.664,58.105,0
1512569205.741,60.547,36.133,51.758,31.250,28.320,0
1512569205.745,54.199,27.832,27.344,24.414,42.969,0
1512569205.749,37.109,21.973,34.180,26.855,79.590,0
1512569205.752,34.180,25.391,37.109,29.297,86.914,0
1512569205.756,45.898,32.715,30.762,49.316,66.895,0
1512569205.760,46.387,32.227,54.688,37.598,51.758,0
1512569205.764,37.598,32.227,53.711,25.391,72.754,0
1512569205.768,36.133,35.156,42.480,38.574,76.660,0
1512569205.772,44.922,43.457,39.551,55.664,62.988,0
1512569205.776,39.062,38.574,41.016,57.129,55.664,0
1512569205.780,30.273,27.344,52.246,47.852,69.824,0
1512569205.784,21.973,26.367,43.945,32.715,73.730,0
1512569205.788,5.859,19.043,41.504,14.648,64.453,0
1512569205.791,7.812,20.508,49.805,24.902,76.172,0
1512569205.795,15.137,22.949,36.133,29.785,88.379,0
1512569205.799,4.883,17.578,39.062,25.391,83.496,0
1512569205.803,2.441,17.090,51.270,26.855,56.152,0
1512569205.807,13.184,23.926,45.410,38.574,72.754,0
1512569205.811,20.020,25.391,41.016,39.551,77.148,0
1512569205.815,24.902,26.855,49.316,34.668,57.129,0
1512569205.819,37.109,31.250,49.316,41.016,61.035,0
1512569205.823,30.762,25.391,37.109,35.645,93.750,0
1512569205.827,0.488,13.672,25.391,24.902,104.492,0
1512569205.831,3.418,17.578,28.809,32.227,87.402,0
1512569205.834,13.672,23.438,52.734,37.598,83.984,0
1512569205.838,9.766,21.973,48.828,33.691,89.355,0
1512569205.842,20.996,28.320,36.621,41.504,91.309,0
1512569205.846,25.391,32.227,48.340,41.992,88.867,0
1512569205.850,27.344,34.180,47.852,39.062,81.055,0
1512569205.854,28.320,32.715,37.109,27.344,81.543,0
1512569205.858,15.625,23.438,31.738,14.648,53.711,0
1512569205.862,20.996,23.438,29.785,26.367,37.109,0
1512569205.866,23.926,20.996,27.344,24.414,62.500,0
1512569205.870,28.320,26.855,30.762,31.250,81.543,0
1512569205.874,33.203,33.203,47.363,50.781,83.496,0
1512569205.877,19.043,28.320,49.316,41.992,53.223,0
1512569205.881,19.043,28.320,39.551,34.180,76.660,0
1512569205.885,33.691,28.809,26.367,34.180,98.145,0
1512569205.889,36.133,24.902,41.504,22.949,81.543,0
1512569205.893,20.996,20.508,44.434,20.020,101.074,0
1512569205.897,19.043,21.973,34.668,32.715,96.680,0
1512569205.901,31.738,27.344,46.387,44.922,108.887,0
1512569205.905,38.086,35.156,58.105,49.316,87.402,0
1512569205.909,42.480,43.457,67.383,49.316,67.871,0
1512569205.913,45.898,38.574,63.477,54.688,102.539,0
1512569205.916,32.227,21.973,34.180,41.992,103.516,0
1512569205.920,20.020,17.090,34.180,24.902,70.312,0
1512569205.924,12.207,19.531,44.922,22.461,61.523,0
1512569205.928,4.883,18.066,37.109,27.344,91.797,0
1512569205.932,5.859,13.184,46.875,23.438,80.566,0
1512569205.936,14.648,18.555,44.434,30.273,74.707,0
1512569205.940,32.227,26.855,38.574,49.805,84.473,0
1512569205.944,48.340,44.922,50.781,66.895,103.027,0
1512569205.948,42.480,44.434,64.453,56.152,117.188,0
1512569205.952,21.484,26.367,51.270,30.762,55.176,0
1512569205.956,20.508,21.484,29.785,25.391,40.527,0
1512569205.959,29.297,19.531,27.344,22.949,73.730,0
1512569205.963,45.410,27.832,36.133,28.809,52.734,0
1512569205.967,40.527,30.762,43.945,27.344,37.598,0
1512569205.971,25.391,24.902,44.922,26.367,78.125,0
1512569205.975,31.250,26.367,47.852,33.203,86.426,0
1512569205.979,40.039,34.180,53.711,40.039,54.199,0
1512569205.983,45.410,35.156,36.621,37.109,63.477,0
1512569205.987,60.547,44.434,43.945,41.992,73.730,0
1512569205.991,50.781,45.410,47.363,47.852,82.520,0
1512569205.995,21.973,23.926,18.066,31.738,68.848,0
1512569205.999,19.531,20.508,21.973,21.973,41.504,0
1512569206.002,30.273,26.855,40.527,26.367,85.938,0
1512569206.006,43.945,32.715,41.504,32.227,101.074,0
1512569206.010,47.852,34.668,32.715,28.809,75.195,0
1512569206.014,47.363,36.621,48.828,37.598,64.453,0
1512569206.018,38.574,31.250,50.781,36.621,47.852,0
1512569206.022,31.250,26.855,42.969,34.668,71.289,0
1512569206.026,41.992,26.855,43.945,40.527,106.445,0
1512569206.030,41.992,24.414,43.945,37.109,105.469,0
1512569206.034,39.551,19.043,51.270,30.273,122.559,0
1512569206.038,48.340,20.508,39.551,35.156,132.324,0
1512569206.041,50.781,31.738,40.527,44.434,86.914,0
1512569206.045,38.086,24.414,56.641,39.062,93.750,0
1512569206.049,36.133,22.461,48.828,43.457,157.715,0
1512569206.053,56.641,40.039,45.898,68.359,160.645,0
1512569206.057,57.129,36.133,46.387,71.777,120.605,0
1512569206.061,36.133,13.672,53.223,48.340,103.516,0
1512569206.065,45.410,17.090,64.453,46.387,109.375,0
1512569206.069,58.594,30.273,55.664,61.035,123.047,0
1512569206.073,37.598,20.020,42.480,49.316,133.789,0
1512569206.077,32.715,11.719,31.250,34.668,138.672,0
1512569206.081,41.504,16.602,35.156,41.504,123.047,0
1512569206.084,51.270,31.738,48.828,49.805,95.215,0
1512569206.088,51.270,35.156,45.410,46.387,77.148,0
1512569206.092,52.734,34.180,44.922,46.875,104.492,0
1512569206.096,54.199,34.180,46.387,41.504,130.859,0
1512569206.100,38.574,27.344,35.645,24.902,125.488,0
1512569206.104,34.668,26.367,34.180,25.391,125.488,0
1512569206.108,31.738,23.438,33.203,25.879,154.297,0
1512569206.112,26.367,25.391,28.320,26.367,166.992,0
1512569206.116,32.715,34.180,35.645,25.879,146.484,0
1512569206.120,45.898,38.574,42.969,21.484,147.461,0
1512569206.124,55.176,41.992,39.551,26.855,188.477,0
1512569206.127,41.504,36.621,46.387,25.879,171.387,0
1512569206.131,29.297,28.320,49.805,19.043,121.582,0
1512569206.135,37.109,34.668,42.480,26.855,127.441,0
1512569206.139,42.480,39.062,46.875,35.156,183.594,0
1512569206.143,44.434,30.273,31.738,29.785,206.055,0
1512569206.147,43.945,30.273,15.137,16.602,178.711,0
1512569206.151,35.156,35.156,30.762,15.625,166.992,0
1512569206.155,39.062,49.316,58.594,39.551,168.457,0
1512569206.159,48.340,53.223,59.082,39.062,155.273,0
1512569206.163,37.598,37.109,36.621,23.926,137.695,0
1512569206.166,22.949,29.297,33.691,14.648,155.762,0
1512569206.170,23.926,29.785,31.738,18.066,163.086,0
1512569206.174,36.621,28.809,37.109,36.621,135.742,0
1512569206.178,46.387,30.273,40.039,32.715,111.816,0
1512569206.182,51.758,34.180,17.578,20.508,163.574,0
1512569206.186,35.645,34.180,20.020,20.996,178.711,0
1512569206.190,29.297,38.086,41.016,35.645,129.883,0
1512569206.194,44.922,47.363,54.688,47.363,142.090,0
1512569206.198,46.875,47.363,49.805,40.039,167.480,0
1512569206.202,44.434,37.598,41.992,33.203,169.434,0
1512569206.206,46.875,36.621,37.598,36.621,157.715,0
1512569206.209,42.480,37.109,26.855,43.945,154.297,0
1512569206.213,32.715,28.809,21.484,47.363,197.266,0
1512569206.217,33.691,29.297,37.109,44.434,180.664,0
1512569206.221,41.992,30.273,34.668,40.039,143.066,0
1512569206.225,51.270,31.250,28.320,42.969,151.855,0
1512569206.229,65.918,44.434,56.152,46.875,173.340,0
1512569206.233,58.105,41.016,60.547,46.387,161.133,0
1512569206.237,36.621,29.297,45.898,42.480,122.070,0
1512569206.241,37.598,29.297,48.828,46.387,151.367,0
1512569206.245,33.691,23.926,40.527,45.410,169.922,0
1512569206.249,30.273,20.508,29.297,35.645,146.973,0
1512569206.252,36.133,24.414,40.039,45.898,152.344,0
1512569206.256,41.016,32.227,48.828,63.965,146.973,0
1512569206.260,43.457,31.738,43.945,50.781,153.320,0
1512569206.264,33.691,23.926,37.109,30.273,171.387,0
1512569206.268,40.039,25.879,44.434,34.668,136.719,0
1512569206.272,53.711,38.574,54.199,49.316,132.812,0
1512569206.276,54.688,42.969,67.383,64.453,139.648,0
1512569206.280,55.176,32.715,54.688,58.105,108.887,0
1512569206.284,39.551,23.438,45.410,43.457,95.703,0
1512569206.288,34.668,22.949,49.316,44.922,128.906,0
1512569206.291,33.691,22.461,39.551,45.898,127.441,0
1512569206.295,23.438,12.207,43.945,38.086,112.305,0
1512569206.299,39.062,20.508,47.852,44.922,143.066,0
1512569206.303,44.434,31.250,43.457,53.711,174.316,0
1512569206.307,44.922,36.133,44.434,54.199,158.691,0
1512569206.311,61.523,42.480,47.852,67.383,141.602,0
1512569206.315,56.152,41.016,48.828,64.941,152.832,0
1512569206.319,45.898,32.715,42.480,42.480,154.785,0
1512569206.323,42.969,29.785,36.621,36.621,147.461,0
1512569206.327,46.387,36.621,36.621,47.363,92.285,0
1512569206.331,46.387,38.086,50.781,42.969,86.914,0
1512569206.334,42.969,34.180,40.039,28.809,145.020,0
1512569206.338,46.387,38.574,27.832,41.992,118.652,0
1512569206.342,40.039,38.574,36.133,43.945,113.770,0
1512569206.346,34.180,34.668,32.715,26.855,140.625,0
1512569206.350,41.016,38.086,30.762,34.180,131.836,0
1512569206.354,56.641,51.270,41.504,57.617,130.859,0
1512569206.358,59.082,57.617,47.363,60.547,141.113,0
1512569206.362,54.688,51.758,48.828,46.875,139.648,0
1512569206.366,48.340,36.621,33.203,32.715,144.531,0
1512569206.370,39.062,24.902,23.926,28.809,107.910,0
1512569206.374,29.297,28.809,39.551,26.367,93.750,0
1512569206.377,35.645,35.645,46.875,32.715,136.230,0
1512569206.381,38.086,29.297,46.387,29.785,134.277,0
1512569206.385,27.832,22.949,40.039,26.367,100.098,0
1512569206.389,35.645,26.367,26.855,40.039,109.863,0
1512569206.393,38.086,25.879,24.414,32.227,108.398,0
1512569206.397,36.133,25.391,33.691,35.156,104.492,0
1512569206.401,32.715,28.320,48.340,46.387,87.891,0
1512569206.405,29.297,27.832,42.480,36.621,59.082,0
1512569206.409,29.785,26.367,34.180,30.273,58.105,0
1512569206.413,28.809,24.902,41.016,33.691,64.941,0
1512569206.416,36.621,29.297,44.922,38.086,55.664,0
1512569206.420,38.574,32.715,54.688,37.109,65.918,0
1512569206.424,35.645,35.645,54.199,35.156,101.074,0
1512569206.428,36.133,37.598,42.480,40.527,62.500,0
1512569206.432,35.645,31.738,37.109,36.133,47.363,0
1512569206.436,45.410,38.574,40.039,43.457,79.102,0
1512569206.440,52.734,44.922,45.410,53.711,72.266,0
1512569206.444,41.992,40.039,38.574,38.574,58.105,0
1512569206.448,42.969,44.922,40.527,36.621,46.875,0
1512569206.452,54.199,46.875,37.109,45.410,60.547,0
1512569206.456,43.457,44.922,27.344,35.156,49.805,0
1512569206.459,41.992,43.945,39.062,32.715,12.207,0
1512569206.463,54.688,42.480,47.852,37.109,26.855,0
1512569206.467,39.062,32.715,43.457,27.832,58.105,0
1512569206.471,42.480,40.527,48.828,39.062,74.707,0
1512569206.475,55.664,47.363,46.387,45.898,69.824,0
1512569206.479,28.320,27.344,29.297,32.715,70.312,0
1512569206.483,16.602,26.855,25.879,37.109,68.359,0
1512569206.487,26.367,30.762,33.203,38.086,47.852,0
1512569206.491,19.531,25.879,20.020,22.949,47.852,0
1512569206.495,20.020,26.367,16.113,19.043,55.664,0
1512569206.499,33.203,34.180,48.828,33.691,100.586,0
1512569206.502,43.945,41.504,58.594,47.852,96.191,0
1512569206.506,41.992,33.691,41.504,46.387,2.930,0
1512569206.510,39.062,27.832,55.176,42.480,19.043,0
1512569206.514,60.059,41.504,63.965,44.434,95.215,0
1512569206.518,57.617,32.715,38.086,41.016,79.102,0
1512569206.522,34.180,13.184,15.625,38.086,47.852,0
1512569206.526,27.344,13.672,18.555,30.273,59.082,0
1512569206.530,37.598,20.508,27.832,26.855,73.242,0
1512569206.534,36.621,25.879,41.016,36.133,58.594,0
1512569206.538,25.391,25.391,51.758,38.086,55.176,0
1512569206.541,31.250,31.250,46.875,37.109,63.965,0
1512569206.545,23.926,28.809,32.227,31.250,77.637,0
1512569206.549,16.602,26.367,31.738,22.949,42.969,0
1512569206.553,30.762,41.016,45.898,29.785,29.785,0
1512569206.557,29.297,41.992,40.039,23.438,77.148,0
1512569206.561,25.391,34.180,33.203,9.277,71.289,0
1512569206.565,20.508,30.273,42.969,9.277,47.852,0
1512569206.569,17.578,33.203,27.832,18.555,68.848,0
1512569206.573,17.090,34.668,22.949,18.555,106.445,0
1512569206.577,30.762,38.574,39.551,20.996,114.746,0
1512569206.581,42.969,41.504,31.250,21.973,114.258,0
1512569206.584,32.227,33.203,23.438,20.996,128.906,0
1512569206.588,32.715,36.133,25.879,28.809,136.230,0
1512569206.592,48.828,41.016,41.504,39.062,136.230,0
1512569206.596,54.199,52.734,71.289,48.340,132.324,0
1512569206.600,51.270,52.734,55.176,39.551,141.113,0
1512569206.604,42.969,38.086,26.367,22.461,143.555,0
1512569206.608,34.668,29.297,28.320,17.578,142.578,0
1512569206.612,45.898,25.879,30.762,28.809,118.652,0
1512569206.616,43.457,32.715,35.645,31.250,145.508,0
1512569206.620,28.320,32.227,46.387,22.461,178.223,0
1512569206.624,28.809,28.809,43.945,24.414,160.645,0
1512569206.627,42.480,35.156,29.297,34.668,152.344,0
1512569206.631,50.781,40.039,41.016,46.875,175.293,0
1512569206.635,44.922,39.062,40.039,53.711,204.102,0
1512569206.639,35.645,37.598,31.738,44.434,197.754,0
1512569206.643,31.738,33.691,33.691,37.598,182.617,0
1512569206.647,43.945,36.133,38.574,47.852,203.125,0
1512569206.651,50.781,43.945,45.898,53.711,221.191,0
1512569206.655,35.156,34.668,41.504,43.945,205.566,0
1512569206.659,31.738,27.832,45.410,38.574,188.965,0
1512569206.663,38.086,26.367,31.738,40.039,194.336,0
1512569206.666,38.574,24.902,18.555,43.945,208.496,0
1512569206.670,44.922,32.227,46.387,46.875,213.867,0
1512569206.674,49.316,37.598,57.129,50.781,221.680,0
1512569206.678,49.316,33.203,34.180,49.316,218.262,0
1512569206.682,40.039,24.414,23.438,42.969,220.215,0
1512569206.686,49.316,35.156,45.410,59.082,210.449,0
1512569206.690,67.383,41.992,63.965,73.242,171.875,0
1512569206.694,44.922,22.949,55.664,54.688,206.055,0
1512569206.698,39.062,21.484,38.086,39.062,214.355,0
1512569206.702,42.969,22.461,28.809,40.527,183.105,0
1512569206.706,25.879,18.066,45.898,33.691,203.613,0
1512569206.709,26.855,18.066,32.227,33.203,211.914,0
1512569206.713,33.691,19.043,17.578,36.133,179.688,0
1512569206.717,32.227,22.461,37.598,27.832,201.172,0
1512569206.721,44.922,24.902,35.156,41.992,219.727,0
1512569206.725,56.641,27.344,41.992,50.293,187.012,0
1512569206.729,59.570,31.250,53.223,47.363,185.059,0
1512569206.733,52.246,29.785,47.852,45.898,193.359,0
1512569206.737,38.574,20.996,46.387,36.133,198.242,0
1512569206.741,34.180,19.043,38.574,27.832,203.613,0
1512569206.745,32.227,13.184,28.320,23.926,175.781,0
1512569206.749,41.992,20.020,40.527,36.133,155.273,0
1512569206.752,41.504,23.438,44.922,34.668,201.172,0
1512569206.756,23.926,9.277,31.738,17.090,218.750,0
1512569206.760,10.742,11.719,35.645,7.812,190.918,0
1512569206.764,19.043,18.555,45.898,15.625,204.102,0
1512569206.768,34.668,26.855,43.945,30.762,222.168,0
1512569206.772,30.762,29.785,48.828,34.668,202.637,0
1512569206.776,25.391,25.391,43.945,39.062,191.406,0
1512569206.780,16.113,20.508,52.734,33.203,218.262,0
1512569206.784,10.254,16.113,49.805,28.320,224.121,0
1512569206.788,24.902,18.555,38.574,40.527,192.871,0
1512569206.791,26.367,18.555,41.504,40.039,176.758,0
1512569206.795,24.902,22.949,27.344,37.598,194.336,0
1512569206.799,22.461,20.996,29.785,32.715,228.516,0
1512569206.803,11.719,14.648,32.227,22.949,193.359,0
1512569206.807,21.484,25.391,33.691,37.598,176.270,0
1512569206.811,46.875,45.410,47.852,48.828,213.867,0
1512569206.815,35.645,37.109,43.945,29.297,226.074,0
1512569206.819,19.531,24.414,39.062,21.484,206.055,0
1512569206.823,26.855,32.715,43.945,38.086,197.754,0
1512569206.827,35.156,37.109,40.527,38.086,208.496,0
1512569206.831,41.504,40.527,33.691,29.297,195.312,0
1512569206.834,39.551,38.574,17.090,28.809,204.102,0
1512569206.838,36.133,30.762,20.020,19.043,208.496,0
1512569206.842,47.852,38.086,30.273,21.973,220.703,0
1512569206.846,62.500,51.758,41.992,41.992,205.566,0
1512569206.850,49.805,42.969,38.574,25.879,184.082,0
1512569206.854,38.574,32.227,23.438,13.672,199.219,0
1512569206.858,28.809,30.762,17.090,15.137,202.148,0
1512569206.862,16.602,27.344,14.648,11.230,186.035,0
1512569206.866,32.227,35.156,24.902,14.160,180.176,0
1512569206.870,41.992,36.621,31.250,18.555,197.754,0
1512569206.874,28.320,31.250,29.297,17.578,217.773,0
1512569206.877,21.484,26.855,23.438,7.812,200.195,0
1512569206.881,28.320,29.785,23.926,9.766,167.480,0
1512569206.885,36.133,31.250,25.391,8.789,174.316,0
1512569206.889,33.691,29.785,24.414,3.418,197.266,0
1512569206.893,37.598,32.227,25.879,13.672,172.363,0
1512569206.897,35.645,30.273,35.645,13.672,162.109,0
1512569206.901,32.227,31.738,45.898,6.348,192.383,0
1512569206.905,34.180,32.227,28.320,14.648,175.781,0
1512569206.909,31.738,30.762,13.672,13.184,155.762,0
1512569206.913,21.484,34.180,26.367,4.395,162.598,0
1512569206.916,21.484,34.180,30.273,11.719,170.898,0
1512569206.920,20.508,29.297,26.367,13.672,150.391,0
1512569206.924,20.020,33.203,32.227,16.113,121.094,0
1512569206.928,27.832,41.504,32.715,26.855,118.652,0
1512569206.932,12.207,34.668,29.297,9.766,145.996,0
1512569206.936,21.484,39.551,30.762,16.602,170.898,0
1512569206.940,32.715,46.387,32.227,31.738,96.191,0
1512569206.944,8.301,28.320,20.020,9.277,76.172,0
1512569206.948,5.371,29.297,17.578,-0.488,103.027,0
1512569206.952,17.578,37.598,21.973,3.418,75.684,0
1512569206.956,20.020,37.598,19.531,-1.465,80.078,0
1512569206.959,3.418,32.227,20.996,-16.602,81.543,0
1512569206.963,8.301,35.156,30.762,-7.812,62.500,0
1512569206.967,14.160,40.039,29.785,2.441,41.504,0
1512569206.971,11.230,37.598,21.484,-8.789,60.547,0
1512569206.975,18.555,39.062,23.926,-7.812,71.777,0
1512569206.979,15.137,36.133,34.180,-3.906,62.500,0
1512569206.983,12.207,32.715,39.062,4.395,78.613,0
1512569206.987,21.973,34.180,39.062,4.883,67.383,0
1512569206.991,30.762,38.574,43.457,4.395,106.934,0
1512569206.995,41.504,48.340,56.152,16.113,138.184,0
1512569206.999,33.691,43.457,54.688,19.043,105.957,0
1512569207.002,21.484,35.645,52.734,21.484,90.820,0
1512569207.006,29.785,34.180,52.734,24.414,130.371,0
1512569207.010,38.574,34.180,52.734,18.555,141.602,0
1512569207.014,50.781,39.551,62.012,19.043,113.770,0
1512569207.018,40.527,37.598,52.246,17.578,142.578,0
1512569207.022,28.809,35.645,44.922,13.184,143.555,0
1512569207.026,33.203,45.410,41.016,24.414,127.441,0
1512569207.030,25.391,44.922,39.062,30.762,128.906,0
1512569207.034,17.578,35.156,55.176,28.320,119.629,0
1512569207.038,18.066,31.250,31.250,14.648,124.023,0
1512569207.041,10.254,28.320,22.461,3.906,137.207,0
1512569207.045,12.695,26.367,32.715,9.277,138.184,0
1512569207.049,-0.488,20.996,23.926,9.766,119.141,0
1512569207.053,-12.207,19.043,31.250,13.184,112.305,0
1512569207.057,-3.418,20.996,36.133,14.160,108.398,0
1512569207.061,0.977,19.043,26.855,6.836,94.727,0
1512569207.065,1.953,20.508,31.738,4.395,101.562,0
1512569207.069,4.395,25.879,47.852,5.371,90.820,0
1512569207.073,-3.906,23.438,32.715,0.488,84.473,0
1512569207.077,-6.836,18.066,24.902,-2.441,46.387,0
1512569207.081,1.953,22.461,39.062,5.371,43.457,0
1512569207.084,0.977,24.902,29.785,6.348,106.934,0
1512569207.088,-5.859,15.625,21.484,0.977,86.426,0
1512569207.092,-10.254,12.207,23.438,2.930,64.453,0
1512569207.096,0.000,16.602,26.855,5.859,104.980,0
1512569207.100,10.742,19.531,30.762,21.973,94.727,0
1512569207.104,15.137,21.973,34.180,23.438,60.059,0
1512569207.108,20.996,22.461,32.227,3.906,73.730,0
1512569207.112,33.691,25.391,29.785,12.695,79.590,0
1512569207.116,46.387,35.645,50.781,27.832,75.195,0
1512569207.120,31.738,36.621,49.805,30.273,40.527,0
1512569207.124,11.230,27.832,16.602,25.391,12.207,0
1512569207.127,6.836,14.160,9.277,3.418,71.289,0
1512569207.131,3.906,13.672,20.996,0.488,76.660,0
1512569207.135,-1.465,18.555,17.090,15.625,31.738,0
1512569207.139,6.348,17.578,9.766,16.602,30.273,0
1512569207.143,12.695,18.066,11.719,15.137,40.039,0
1512569207.147,18.066,23.926,15.137,21.484,33.691,0
1512569207.151,27.344,21.484,25.391,24.902,2.441,0
1512569207.155,24.902,20.020,34.180,31.738,7.812,0
1512569207.159,9.766,17.090,31.738,32.227,25.391,0
1512569207.163,20.996,16.602,37.109,28.809,14.160,0
1512569207.166,35.645,20.996,57.129,41.016,-6.836,0
1512569207.170,19.043,17.578,48.340,41.016,-14.160,0
1512569207.174,14.648,12.695,28.320,21.484,-4.395,0
1512569207.178,11.719,0.977,29.297,7.324,-20.020,0
1512569207.182,19.043,5.859,28.809,15.137,-62.988,0
1512569207.186,34.668,16.602,32.227,31.738,-29.297,0
1512569207.190,28.809,14.160,30.762,28.809,7.324,0
1512569207.194,20.508,20.020,28.320,20.996,-8.789,0
1512569207.198,19.043,23.438,41.504,21.484,13.184,0
1512569207.202,39.551,21.973,56.152,33.691,33.691,0
1512569207.206,43.457,24.902,56.641,39.551,7.812,0
1512569207.209,20.508,14.648,44.434,24.414,-1.465,0
1512569207.213,15.625,11.719,43.457,18.066,5.859,0
1512569207.217,15.625,12.695,32.715,19.043,23.438,0
1512569207.221,15.137,15.625,42.480,19.531,37.109,0
1512569207.225,28.320,22.949,57.129,29.785,14.160,0
1512569207.229,39.062,20.020,48.828,41.504,-9.277,0
1512569207.233,33.691,18.555,47.852,25.391,4.883,0
1512569207.237,31.250,19.043,52.734,11.719,11.719,0
1512569207.241,26.855,16.113,54.688,21.484,-10.254,0
1512569207.245,26.855,20.508,40.039,30.762,19.043,0
1512569207.249,22.461,18.555,28.320,21.973,49.805,0
1512569207.252,20.996,11.719,37.598,19.043,1.465,0
1512569207.256,29.785,9.277,48.828,20.996,-54.199,0
1512569207.260,30.273,7.324,55.664,21.973,-35.645,0
1512569207.264,18.066,6.836,48.828,30.762,2.441,0
1512569207.268,8.789,9.277,46.875,17.578,-29.785,0
1512569207.272,23.438,12.695,55.176,11.719,-68.848,0
1512569207.276,46.387,17.090,60.547,27.832,-49.805,0
1512569207.280,54.688,22.949,50.293,40.527,-21.973,0
1512569207.284,35.156,18.066,41.016,39.062,-45.898,0
1512569207.288,24.414,18.555,50.781,24.902,-67.871,0
1512569207.291,22.461,27.832,53.223,19.531,-58.594,0
1512569207.295,16.602,25.879,48.828,24.414,-50.293,0
1512569207.299,21.484,23.438,39.551,28.320,-83.008,0
1512569207.303,23.926,23.926,33.691,23.926,-85.449,0
1512569207.307,19.531,25.391,34.668,15.625,-62.500,0
1512569207.311,11.230,26.367,52.246,13.184,-54.199,0
1512569207.315,22.461,28.320,52.246,16.602,-43.945,0
1512569207.319,32.715,32.715,37.109,30.762,-46.875,0
1512569207.323,25.879,33.203,35.156,33.691,-41.992,0
1512569207.327,20.996,32.227,30.762,23.438,-53.223,0
1512569207.331,21.973,29.785,25.391,19.043,-51.270,0
1512569207.334,25.879,27.344,26.855,25.391,-37.598,0
1512569207.338,35.645,33.203,46.387,32.715,-15.137,0
1512569207.342,49.805,40.039,52.246,30.273,11.230,0
1512569207.346,53.223,43.945,44.922,39.551,17.090,0
1512569207.350,49.805,37.109,38.086,34.668,35.156,0
1512569207.354,41.992,30.762,37.109,31.738,41.992,0
1512569207.358,41.504,31.250,43.945,43.945,25.879,0
1512569207.362,41.504,29.297,57.129,25.879,20.020,0
1512569207.366,41.504,30.273,50.781,14.160,59.570,0
1512569207.370,42.480,33.203,44.434,38.574,74.707,0
1512569207.374,41.504,33.203,53.223,47.852,54.199,0
1512569207.377,31.738,26.855,38.574,32.715,58.594,0
1512569207.381,30.762,32.227,34.180,35.156,57.617,0
1512569207.385,43.945,47.852,52.734,47.363,54.199,0
1512569207.389,43.945,45.410,41.992,40.039,34.668,0
1512569207.393,25.391,30.273,26.855,12.695,-13.184,0
1512569207.397,9.277,20.996,29.785,-2.930,-12.207,0
1512569207.401,0.000,23.438,24.414,-5.371,8.301,0
1512569207.405,-3.906,27.344,33.203,-0.977,-14.648,0
1512569207.409,8.789,28.809,37.109,6.348,-45.410,0
1512569207.413,10.742,31.738,15.625,4.883,-35.645,0
1512569207.416,-5.371,30.762,19.531,6.348,-45.898,0
1512569207.420,-16.602,34.180,34.180,1.465,-49.805,0
1512569207.424,-0.488,40.527,28.809,4.395,-27.344,0
1512569207.428,11.719,38.574,29.297,15.625,-28.809,0
1512569207.432,5.371,30.273,43.457,4.883,-50.781,0
1512569207.436,21.484,33.203,34.180,0.977,-58.105,0
1512569207.440,39.062,41.504,20.508,14.648,-51.758,0
1512569207.444,30.273,41.504,20.020,18.555,-60.547,0
1512569207.448,12.207,23.926,12.695,15.625,-40.039,0
1512569207.452,8.789,20.508,13.672,18.066,-45.410,0
1512569207.456,14.648,27.344,18.066,20.020,-36.621,0
1512569207.459,28.809,29.785,32.715,24.414,1.953,0
1512569207.463,40.527,36.621,52.246,33.203,-5.371,0
1512569207.467,32.715,31.250,62.012,26.367,-9.277,0
1512569207.471,23.438,22.949,37.598,14.648,15.137,0
1512569207.475,41.016,32.715,25.879,29.785,14.160,0
1512569207.479,51.758,39.062,32.715,38.086,-1.953,0
1512569207.483,54.688,31.250,26.855,34.668,1.953,0
1512569207.487,52.734,31.738,41.016,41.016,0.488,0
1512569207.491,33.203,33.691,42.969,34.668,-0.977,0
1512569207.495,37.598,36.621,24.902,33.691,-23.438,0
1512569207.499,44.434,33.691,33.691,36.621,-46.387,0
1512569207.502,37.598,32.227,41.992,27.344,-15.137,0
1512569207.506,43.457,34.668,40.039,23.438,-7.812,0
1512569207.510,40.039,31.738,36.133,24.414,-1.465,0
1512569207.514,40.039,30.762,36.621,30.273,-2.441,0
1512569207.518,47.852,30.273,39.551,41.992,-22.949,0
1512569207.522,44.434,34.180,40.039,31.738,-31.738,0
1512569207.526,38.574,32.227,41.504,24.414,-40.039,0
1512569207.530,20.508,26.855,42.480,25.879,-33.691,0
1512569207.534,21.484,31.738,36.133,24.414,-35.156,0
1512569207.538,33.691,31.250,23.926,15.625,-35.645,0
1512569207.541,24.414,26.367,32.227,16.113,-39.551,0
1512569207.545,9.766,23.926,41.992,17.090,-31.738,0
1512569207.549,17.090,35.156,37.109,11.230,-31.250,0
1512569207.553,36.621,41.504,37.598,17.578,-56.641,0
1512569207.557,34.668,33.203,41.992,21.484,-36.621,0
1512569207.561,15.625,30.273,44.434,11.230,-12.207,0
1512569207.565,4.883,26.367,32.227,-4.883,-10.254,0
1512569207.569,14.160,26.367,17.090,1.465,-32.715,0
1512569207.573,30.273,30.762,22.461,11.719,-26.367,0
1512569207.577,25.879,32.227,36.133,8.301,17.090,0
1512569207.581,35.156,43.945,47.363,23.438,15.137,0
1512569207.584,28.809,37.598,46.875,11.719,11.230,0
1512569207.588,20.996,27.832,37.598,2.930,14.160,0
1512569207.592,46.387,34.180,32.227,27.832,65.918,0
1512569207.596,48.828,37.598,48.340,40.039,74.219,0
1512569207.600,43.945,36.133,54.688,23.926,49.316,0
1512569207.604,53.711,34.668,41.992,21.484,53.711,0
1512569207.608,57.129,33.203,32.227,37.598,63.965,0
1512569207.612,43.945,24.902,29.785,32.715,88.379,0
1512569207.616,29.785,18.555,30.762,28.809,101.562,0
1512569207.620,35.156,18.066,39.551,35.645,85.449,0
1512569207.624,55.176,29.297,48.828,50.293,57.617,0
1512569207.627,55.664,32.715,47.852,56.152,60.059,0
1512569207.631,50.781,27.344,49.316,45.898,37.109,0
1512569207.635,46.875,30.273,46.387,39.062,17.578,0
1512569207.639,43.457,31.250,37.598,45.898,48.340,0
1512569207.643,33.203,25.879,26.855,49.805,26.855,0
1512569207.647,9.277,14.160,42.480,33.203,-18.066,0
1512569207.651,10.254,16.602,51.758,20.996,-10.742,0
1512569207.655,19.531,19.531,28.320,30.273,-9.277,0
1512569207.659,18.555,20.996,30.762,35.645,-15.625,0
1512569207.663,27.832,35.645,38.574,34.668,-32.227,0
1512569207.666,28.320,37.598,39.062,33.691,-28.809,0
1512569207.670,19.531,22.949,40.527,28.809,-6.836,0
1512569207.674,20.996,32.227,44.434,31.250,-42.969,0
1512569207.678,22.949,40.527,38.574,27.344,-83.984,0
1512569207.682,10.254,20.020,16.113,16.602,-68.848,0
1512569207.686,15.137,12.695,12.695,16.602,-58.105,0
1512569207.690,19.531,16.602,28.320,4.395,-52.734,0
1512569207.694,19.531,18.555,34.668,5.859,-41.504,0
1512569207.698,16.602,26.367,38.086,12.695,-32.715,0
1512569207.702,9.766,36.133,42.480,8.301,-13.672,0
1512569207.706,27.344,34.180,38.574,12.207,-18.066,0
1512569207.709,40.039,32.227,37.598,22.461,-25.391,0
1512569207.713,43.945,41.016,43.945,27.344,11.719,0
1512569207.717,32.715,37.598,41.016,25.391,20.508,0
1512569207.721,22.461,30.762,32.227,11.719,6.348,0
1512569207.725,14.160,27.832,31.738,6.348,-9.277,0
1512569207.729,10.742,23.926,28.809,17.090,5.859,0
1512569207.733,18.555,29.785,32.227,20.020,31.738,0
1512569207.737,24.414,32.227,45.410,20.996,4.395,0
1512569207.741,46.387,31.250,38.086,26.367,1.953,0
1512569207.745,52.734,33.203,41.504,18.555,40.039,0
1512569207.749,57.129,35.645,45.410,22.949,37.109,0
1512569207.752,49.316,33.203,35.645,23.926,-5.371,0
1512569207.756,45.898,31.738,39.062,28.809,29.785,0
1512569207.760,72.266,47.852,67.383,50.781,46.875,0
1512569207.764,75.195,54.199,67.383,53.711,14.160,0
1512569207.768,51.758,39.551,37.109,54.199,5.859,0
1512569207.772,42.969,28.809,30.762,52.246,-7.324,0
1512569207.776,49.805,26.367,30.273,22.949,-16.602,0
1512569207.780,52.246,23.926,25.879,20.996,-27.344,0
1512569207.784,41.504,18.555,30.273,34.668,-44.434,0
1512569207.788,39.062,19.531,37.109,32.715,-44.922,0
1512569207.791,43.457,23.438,40.039,38.086,-55.664,0
1512569207.795,44.434,28.320,35.156,40.527,-67.383,0
1512569207.799,34.668,28.809,41.504,49.316,-60.547,0
1512569207.803,39.062,38.086,52.246,63.965,-78.613,0
1512569207.807,50.781,43.457,43.945,58.105,-107.422,0
1512569207.811,39.551,30.273,37.598,39.551,-91.309,0
1512569207.815,22.949,18.066,41.504,23.926,-98.633,0
1512569207.819,32.715,21.484,36.621,23.438,-83.496,0
1512569207.823,42.480,28.320,44.922,33.691,-88.379,0
1512569207.827,34.180,26.855,50.293,29.785,-103.027,0
1512569207.831,43.945,32.715,40.039,38.086,-83.008,0
1512569207.834,21.973,20.020,35.156,20.508,-87.891,0
1512569207.838,-4.395,13.184,37.598,8.301,-89.844,0
1512569207.842,9.277,16.113,35.645,16.602,-103.516,0
1512569207.846,33.203,35.156,38.086,21.973,-87.402,0
1512569207.850,37.109,45.898,49.316,33.691,-64.941,0
1512569207.854,25.879,29.297,31.738,29.297,-69.824,0
1512569207.858,15.625,20.508,38.574,14.648,-52.734,0
1512569207.862,12.207,21.973,35.645,2.441,-41.992,0
1512569207.866,14.648,32.227,12.207,3.418,-72.266,0
1512569207.870,20.020,33.203,20.020,10.742,-110.840,0
1512569207.874,27.344,37.598,30.273,14.648,-126.953,0
1512569207.877,30.762,40.527,37.109,11.230,-77.637,0
1512569207.881,32.715,34.180,35.156,0.488,-49.316,0
1512569207.885,45.898,43.457,36.621,16.113,-65.918,0
1512569207.889,48.340,46.387,41.016,18.066,-74.707,0
1512569207.893,34.180,35.156,41.504,14.160,-46.387,0
1512569207.897,29.297,33.203,34.180,28.809,-47.363,0
1512569207.901,25.391,34.180,19.531,15.625,-88.379,0
1512569207.905,25.879,33.691,28.320,11.230,-71.289,0
1512569207.909,22.949,28.809,46.387,23.438,-51.270,0
1512569207.913,20.020,28.320,50.293,20.996,-65.430,0
1512569207.916,32.715,30.273,51.270,13.184,-105.957,0
1512569207.920,41.504,34.668,56.152,12.207,-124.023,0
1512569207.924,42.969,35.156,59.570,21.484,-82.520,0
1512569207.928,36.133,35.645,55.664,22.949,-79.590,0
1512569207.932,26.367,37.109,51.758,20.508,-92.773,0
1512569207.936,33.691,36.621,58.105,22.461,-90.332,0
1512569207.940,42.480,41.992,58.105,20.996,-89.355,0
1512569207.944,30.762,27.344,49.805,18.555,-69.824,0
1512569207.948,26.855,20.508,49.805,20.996,-41.992,0
1512569207.952,25.879,28.320,56.152,23.926,-63.477,0
1512569207.956,26.855,20.508,47.363,18.555,-76.660,0
1512569207.959,29.297,23.438,42.969,17.578,-62.988,0
1512569207.963,26.367,36.133,53.223,35.645,-93.750,0
1512569207.967,20.020,26.367,52.734,21.973,-77.637,0
1512569207.971,24.414,25.879,41.992,22.949,-39.551,0
1512569207.975,37.598,35.156,47.363,41.016,-60.547,0
1512569207.979,34.180,29.785,49.316,27.344,-92.773,0
1512569207.983,18.066,19.043,42.969,16.113,-65.918,0
1512569207.987,11.230,24.414,39.551,7.812,-47.363,0
1512569207.991,20.996,32.227,44.434,5.859,-56.152,0
1512569207.995,30.273,32.715,41.992,13.184,-53.711,0
1512569207.999,25.391,26.367,37.109,13.672,-63.965,0
1512569208.002,25.879,25.879,44.434,23.438,-58.594,0
1512569208.006,23.438,29.785,30.762,28.320,-74.219,0
1512569208.010,21.973,31.250,25.879,24.414,-99.121,0
1512569208.014,29.785,29.785,36.621,30.273,-50.293,0
1512569208.018,30.273,25.879,54.199,10.254,-47.852,0
1512569208.022,38.574,36.621,64.453,12.695,-84.961,0
1512569208.026,39.551,36.621,38.574,35.156,-77.148,0
1512569208.030,22.461,22.461,37.598,32.227,-59.082,0
1512569208.034,21.973,26.367,46.875,27.832,-57.617,0
1512569208.038,23.926,33.203,33.691,23.438,-59.570,0
1512569208.041,22.949,26.367,32.227,24.902,-63.965,0
1512569208.045,25.879,23.438,24.414,20.996,-68.359,0
1512569208.049,39.062,35.156,38.086,32.227,-96.680,0
1512569208.053,55.176,34.180,56.641,40.039,-112.305,0
1512569208.057,49.316,28.809,56.641,35.645,-65.430,0
1512569208.061,40.039,38.086,58.105,27.832,-36.621,0
1512569208.065,27.344,34.180,43.945,20.508,-90.820,0
1512569208.069,13.672,29.297,29.785,10.742,-83.496,0
1512569208.073,1.953,22.949,37.109,2.441,-43.457,0
1512569208.077,23.438,25.391,33.691,5.371,-83.496,0
1512569208.081,36.621,31.738,30.762,12.695,-85.449,0
1512569208.084,29.785,24.902,41.504,19.531,-62.988,0
1512569208.088,24.414,21.484,28.809,16.113,-73.242,0
1512569208.092,21.484,27.832,22.949,19.531,-70.312,0
1512569208.096,32.227,38.574,39.062,22.461,-68.848,0
1512569208.100,41.504,41.504,50.293,18.066,-105.469,0
1512569208.104,49.316,49.805,53.223,30.762,-120.605,0
1512569208.108,41.504,46.387,35.645,26.367,-96.680,0
1512569208.112,17.578,28.809,30.762,4.883,-107.422,0
1512569208.116,21.484,30.762,30.273,3.418,-103.027,0
1512569208.120,27.344,35.156,20.996,9.277,-62.500,0
1512569208.124,8.301,38.574,34.180,7.324,-89.355,0
1512569208.127,11.230,41.016,33.691,6.348,-102.051,0
1512569208.131,27.832,36.621,34.180,14.160,-82.031,0
1512569208.135,33.203,41.992,44.434,26.855,-73.242,0
1512569208.139,18.555,32.227,29.785,19.531,-40.527,0
1512569208.143,12.207,21.484,24.902,7.812,-51.270,0
1512569208.147,21.484,25.879,37.109,9.277,-55.176,0
1512569208.151,18.066,25.879,33.691,14.160,-38.574,0
1512569208.155,16.113,20.020,33.691,20.020,-83.984,0
1512569208.159,6.348,16.602,42.969,10.742,-96.191,0
1512569208.163,11.719,20.020,30.762,18.555,-47.363,0
1512569208.166,21.973,18.066,36.133,23.926,-17.578,0
1512569208.170,12.695,15.137,39.062,10.742,-39.551,0
1512569208.174,16.602,14.160,19.531,7.324,-35.645,0
1512569208.178,24.414,9.766,30.762,18.555,-0.488,0
1512569208.182,26.367,17.578,57.617,31.250,-16.602,0
1512569208.186,27.832,24.414,59.082,22.461,-15.625,0
1512569208.190,33.203,25.391,52.734,18.555,12.695,0
1512569208.194,43.457,25.391,49.805,28.809,-9.766,0
1512569208.198,36.621,22.461,59.082,20.996,-21.973,0
1512569208.202,43.945,31.250,54.688,23.438,-23.926,0
1512569208.206,61.523,45.898,42.480,43.457,-19.531,0
1512569208.209,57.129,49.805,53.223,34.180,0.000,0
1512569208.213,37.109,36.621,36.133,18.555,-7.324,0
1512569208.217,19.043,21.973,13.672,9.277,-5.371,0
1512569208.221,18.555,22.949,12.695,8.789,-16.602,0
1512569208.225,22.949,27.832,35.645,18.066,-34.180,0
1512569208.229,32.715,33.203,49.316,25.391,-43.945,0
1512569208.233,36.621,41.992,44.922,33.203,-35.156,0
1512569208.237,32.227,41.992,38.086,36.621,-12.695,0
1512569208.241,34.180,38.086,34.180,45.898,-33.691,0
1512569208.245,28.320,36.133,36.133,40.039,-76.172,0
1512569208.249,31.738,34.180,33.203,24.902,-80.078,0
1512569208.252,31.250,33.691,33.691,27.344,-45.898,0
1512569208.256,21.973,31.250,39.551,21.973,-23.926,0
1512569208.260,32.715,25.879,36.133,19.531,-37.598,0
1512569208.264,41.992,25.391,38.086,28.320,-36.133,0
1512569208.268,44.434,37.109,38.086,34.180,-3.906,0
1512569208.272,43.945,34.668,28.809,38.574,-15.625,0
1512569208.276,34.668,23.926,39.551,36.621,-28.809,0
1512569208.280,28.809,28.320,44.434,31.738,-6.348,0
1512569208.284,30.762,32.715,30.762,41.016,-7.324,0
1512569208.288,24.414,28.809,42.480,36.621,-23.926,0
1512569208.291,19.043,26.855,64.453,17.578,-54.199,0
1512569208.295,28.320,30.762,39.062,21.973,-62.012,0
1512569208.299,26.855,35.645,31.250,22.461,-16.602,0
1512569208.303,27.832,41.992,40.527,21.484,-25.391,0
1512569208.307,22.461,36.133,-2.930,16.113,-54.688,0
1512569208.311,26.855,34.668,18.066,11.719,-19.531,0
1512569208.315,40.527,42.480,52.246,22.461,-0.488,0
1512569208.319,32.227,41.016,29.297,10.254,-20.508,0
1512569208.323,40.039,42.480,34.668,10.254,-36.621,0
1512569208.327,33.203,39.551,42.480,9.766,-31.250,0
1512569208.331,19.531,32.227,23.438,-6.836,-16.113,0
1512569208.334,24.414,35.156,20.508,0.977,-36.621,0
1512569208.338,36.621,40.039,28.320,16.113,-63.477,0
1512569208.342,37.109,40.039,29.297,30.273,-10.254,0
1512569208.346,35.645,38.574,22.949,26.367,10.254,0
1512569208.350,31.250,34.180,30.273,19.043,-4.395,0
1512569208.354,20.508,26.855,36.133,15.625,-22.461,0
1512569208.358,39.062,30.273,40.527,14.648,-31.738,0
1512569208.362,52.246,41.016,42.969,19.531,-22.461,0
1512569208.366,38.086,39.062,51.758,23.926,-13.672,0
1512569208.370,33.203,34.180,50.781,20.508,21.484,0
1512569208.374,39.062,28.809,14.648,25.879,18.066,0
1512569208.377,27.344,27.832,13.672,23.438,-17.578,0
1512569208.381,28.320,37.109,19.531,33.203,-41.016,0
1512569208.385,33.691,34.180,9.766,26.367,-46.387,0
1512569208.389,29.297,29.297,28.320,11.230,-21.484,0
1512569208.393,22.461,25.879,43.457,2.930,-38.574,0
1512569208.397,33.203,37.109,26.855,12.207,-62.988,0
1512569208.401,40.039,42.969,20.508,26.367,-21.973,0
1512569208.405,19.043,35.645,24.414,13.184,7.812,0
1512569208.409,10.742,27.832,31.250,9.766,-17.090,0
1512569208.413,21.973,32.227,29.785,12.695,-46.875,0
1512569208.416,29.785,38.574,18.555,18.555,-38.574,0
