timestamps,TP9,AF7,AF8,TP10,Right AUX,Marker0
1512656148.887,9.277,18.555,23.438,24.414,70.312,0
1512656148.891,12.207,21.973,19.531,22.949,-87.402,0
1512656148.894,16.602,22.461,26.855,23.926,-32.715,0
1512656148.898,17.578,24.414,22.949,26.367,145.996,0
1512656148.902,23.438,31.738,20.020,31.738,134.766,0
1512656148.906,29.297,38.574,26.367,38.086,-27.832,0
1512656148.910,33.203,38.574,26.367,39.062,-56.641,0
1512656148.914,40.527,39.551,23.438,41.504,70.312,0
1512656148.918,39.062,40.039,20.996,45.410,130.371,0
1512656148.922,35.645,39.062,19.531,40.527,30.762,0
1512656148.926,40.039,41.992,19.531,40.527,-74.219,0
1512656148.930,47.852,45.898,18.555,44.434,17.578,0
1512656148.934,54.199,49.316,20.020,40.039,153.320,0
1512656148.937,55.664,52.246,22.461,39.551,48.828,0
1512656148.941,62.012,54.199,20.508,40.039,-122.559,0
1512656148.945,74.707,51.758,18.066,36.133,-74.707,0
1512656148.949,86.914,52.246,17.090,38.086,111.328,0
1512656148.953,96.680,55.176,21.973,39.551,100.098,0
1512656148.957,104.980,53.711,23.926,38.574,-55.176,0
1512656148.961,112.793,48.340,20.508,37.109,-81.543,0
1512656148.965,125.488,41.992,20.996,36.621,62.012,0
1512656148.969,141.113,41.504,16.113,39.062,100.586,0
1512656148.973,154.785,42.969,17.578,42.480,-60.059,0
1512656148.977,161.621,37.598,24.414,44.434,-90.820,0
1512656148.980,167.480,35.156,26.855,44.922,64.941,0
1512656148.984,171.387,35.645,29.785,44.434,131.836,0
1512656148.988,178.223,32.227,28.320,48.340,2.441,0
1512656148.992,182.129,29.297,23.926,49.805,-100.098,0
1512656148.996,182.617,30.273,23.926,48.828,27.832,0
1512656149.000,185.547,35.645,28.809,50.781,152.344,0
1512656149.004,183.105,34.180,30.762,52.734,43.457,0
1512656149.008,176.758,29.297,34.180,54.688,-98.633,0
1512656149.012,171.387,32.227,34.180,53.711,-6.836,0
1512656149.016,166.016,36.133,33.203,49.316,181.641,0
1512656149.019,158.203,34.668,37.109,49.316,117.676,0
1512656149.023,149.414,33.691,36.133,51.270,-61.523,0
1512656149.027,139.648,34.668,36.133,48.828,-12.695,0
1512656149.031,128.418,31.250,37.598,49.316,138.672,0
1512656149.035,117.676,30.762,36.621,49.316,164.062,0
1512656149.039,112.305,33.691,35.156,47.852,28.320,0
1512656149.043,103.516,33.203,31.738,39.062,-24.902,0
1512656149.047,87.891,35.156,32.227,33.691,110.840,0
1512656149.051,83.496,37.598,32.715,34.668,135.742,0
1512656149.055,84.961,39.062,28.809,32.227,11.230,0
1512656149.059,77.637,35.645,28.809,31.738,-60.059,0
1512656149.062,78.613,39.062,29.785,33.691,21.484,0
1512656149.066,78.125,41.992,31.250,30.762,152.344,0
1512656149.070,71.777,39.062,28.809,28.320,127.441,0
1512656149.074,66.406,39.551,28.809,28.320,-11.230,0
1512656149.078,63.965,40.039,28.320,30.273,-8.789,0
1512656149.082,68.848,40.527,28.320,35.156,149.414,0
1512656149.086,70.312,40.039,31.738,39.551,129.395,0
1512656149.090,59.570,39.551,33.691,40.527,-21.484,0
1512656149.094,51.270,36.133,31.250,41.016,-11.230,0
1512656149.098,46.387,32.227,35.156,38.086,119.629,0
1512656149.102,38.574,32.715,41.992,38.574,154.297,0
1512656149.105,33.691,30.273,40.527,43.457,14.160,0
1512656149.109,26.855,27.832,38.574,45.898,-63.477,0
1512656149.113,21.973,26.367,37.598,46.387,59.082,0
1512656149.117,21.484,23.438,33.203,45.410,156.738,0
1512656149.121,19.531,20.508,31.738,42.969,40.527,0
1512656149.125,16.113,21.973,36.621,38.574,-119.141,0
1512656149.129,13.184,30.273,38.574,38.574,-41.016,0
1512656149.133,15.625,35.156,36.621,41.016,95.703,0
1512656149.137,20.508,35.156,34.180,44.922,25.391,0
1512656149.141,23.926,34.668,34.668,43.945,-138.184,0
1512656149.144,24.902,32.227,30.762,38.574,-115.723,0
1512656149.148,18.555,21.973,20.996,37.598,55.176,0
1512656149.152,10.254,17.578,20.996,36.621,49.805,0
1512656149.156,5.371,20.996,29.297,34.180,-142.578,0
1512656149.160,2.930,20.020,24.902,28.320,-149.902,0
1512656149.164,3.418,16.113,22.461,28.320,36.133,0
1512656149.168,-1.953,15.137,24.902,25.879,49.316,0
1512656149.172,-2.441,19.043,27.344,19.043,-74.219,0
1512656149.176,-0.488,22.949,26.855,18.066,-138.672,0
1512656149.180,-7.812,25.391,24.414,12.207,-56.152,0
1512656149.184,-13.184,23.926,21.484,12.695,70.801,0
1512656149.187,-10.742,24.414,27.344,13.672,-12.207,0
1512656149.191,-7.324,32.227,32.227,10.742,-163.574,0
1512656149.195,-13.184,35.156,30.273,8.301,-71.289,0
1512656149.199,-22.461,29.297,31.738,7.812,92.773,0
1512656149.203,-21.484,25.879,28.320,6.348,27.832,0
1512656149.207,-18.066,28.809,30.762,5.371,-86.426,0
1512656149.211,-18.555,28.809,34.668,6.348,-29.297,0
1512656149.215,-21.973,31.738,28.320,0.977,101.562,0
1512656149.219,-22.461,41.016,36.133,2.930,89.355,0
1512656149.223,-24.902,41.992,44.434,4.883,-35.156,0
1512656149.227,-24.902,38.574,38.086,0.977,-56.641,0
1512656149.230,-26.855,35.645,35.645,-3.906,88.379,0
1512656149.234,-29.297,33.691,37.109,-4.883,151.367,0
1512656149.238,-27.344,33.203,36.133,-0.977,16.602,0
1512656149.242,-25.879,33.203,36.133,-2.441,-106.445,0
1512656149.246,-24.414,29.785,36.621,-6.348,-10.254,0
1512656149.250,-25.391,29.297,36.133,-3.418,136.719,0
1512656149.254,-21.484,36.621,34.180,3.418,59.082,0
1512656149.258,-18.555,34.668,37.598,5.859,-109.375,0
1512656149.262,-18.555,27.344,42.480,5.859,-68.359,0
1512656149.266,-16.602,26.855,41.016,6.836,101.562,0
1512656149.269,-15.137,28.809,42.969,12.695,72.754,0
1512656149.273,-10.254,29.785,46.875,19.531,-119.141,0
1512656149.277,-2.441,28.320,49.805,21.484,-120.605,0
1512656149.281,-3.418,27.832,48.340,22.949,33.203,0
1512656149.285,-2.930,25.879,48.828,23.926,62.500,0
1512656149.289,0.977,28.809,50.293,26.367,-118.164,0
1512656149.293,0.977,30.273,50.781,30.762,-217.773,0
1512656149.297,-1.465,23.438,47.852,28.809,-46.387,0
1512656149.301,-0.977,21.973,48.828,26.855,41.016,0
1512656149.305,1.953,25.391,51.270,30.762,-88.867,0
1512656149.309,5.859,23.438,51.758,32.715,-204.102,0
1512656149.312,5.371,20.020,49.316,28.809,-101.074,0
1512656149.316,4.395,20.508,49.805,31.250,66.895,0
1512656149.320,3.418,20.508,49.316,33.691,-11.230,0
1512656149.324,2.441,16.113,44.434,26.855,-160.645,0
1512656149.328,5.371,16.602,41.504,23.926,-92.285,0
1512656149.332,9.766,19.531,40.527,25.391,73.242,0
1512656149.336,7.324,19.531,42.480,28.320,18.066,0
1512656149.340,8.301,21.484,41.992,30.273,-120.117,0
1512656149.344,11.719,21.973,40.039,24.902,-58.594,0
1512656149.348,11.230,21.484,43.945,24.414,101.074,0
1512656149.352,9.277,25.391,45.898,24.902,163.086,0
1512656149.355,3.906,26.367,41.016,22.949,21.973,0
1512656149.359,6.348,26.855,40.527,24.902,-66.895,0
1512656149.363,11.230,28.809,42.480,28.320,71.289,0
1512656149.367,15.137,35.645,40.039,30.273,163.574,0
1512656149.371,13.672,40.039,37.598,26.367,71.289,0
1512656149.375,10.742,35.156,37.109,23.438,-48.340,0
1512656149.379,7.812,34.180,31.738,20.020,-1.465,0
1512656149.383,6.836,36.133,30.273,20.996,133.301,0
1512656149.387,8.789,35.645,36.133,19.531,94.238,0
1512656149.391,13.184,37.109,33.691,27.832,-53.711,0
1512656149.394,17.090,35.156,34.668,32.227,-27.344,0
1512656149.398,19.043,28.320,44.922,29.297,111.328,0
1512656149.402,21.484,27.344,44.434,33.203,117.676,0
1512656149.406,22.949,29.785,40.039,36.133,-14.160,0
1512656149.410,21.484,25.391,39.551,34.180,-49.805,0
1512656149.414,21.973,20.996,41.016,38.574,92.285,0
1512656149.418,29.785,22.461,44.434,46.875,120.117,0
1512656149.422,39.062,23.438,49.805,48.828,-19.043,0
1512656149.426,41.504,24.902,50.293,48.340,-115.723,0
1512656149.430,33.203,23.438,48.828,45.898,-14.160,0
1512656149.434,33.691,24.902,50.781,45.410,151.855,0
1512656149.437,41.016,25.879,50.781,50.293,62.500,0
1512656149.441,33.203,18.066,54.688,49.805,-107.422,0
1512656149.445,26.855,13.184,56.152,49.805,-35.645,0
1512656149.449,29.785,17.090,53.711,46.875,146.484,0
1512656149.453,28.320,16.113,52.734,44.922,81.055,0
1512656149.457,24.414,15.137,51.270,45.898,-107.422,0
1512656149.461,20.020,16.602,51.758,42.969,-61.523,0
1512656149.465,21.484,12.207,50.293,41.504,117.676,0
1512656149.469,21.973,10.254,48.828,41.992,99.609,0
1512656149.473,19.531,8.301,50.781,43.945,-77.637,0
1512656149.477,19.531,5.859,48.340,39.551,-124.023,0
1512656149.480,18.066,8.301,47.852,37.598,30.273,0
1512656149.484,11.719,6.348,51.270,40.039,59.082,0
1512656149.488,10.254,3.418,49.316,36.133,-80.566,0
1512656149.492,11.719,0.488,48.340,32.227,-139.160,0
1512656149.496,12.207,-1.465,48.340,31.250,-22.461,0
1512656149.500,9.277,6.348,47.852,31.250,98.145,0
1512656149.504,5.371,9.277,48.828,28.809,22.461,0
1512656149.508,6.836,7.812,47.852,24.902,-88.867,0
1512656149.512,12.207,10.742,46.387,23.438,-37.598,0
1512656149.516,14.160,14.160,37.109,25.391,86.914,0
1512656149.519,13.184,16.602,37.598,28.320,50.781,0
1512656149.523,12.695,18.555,42.969,25.879,-95.215,0
1512656149.527,15.625,18.066,43.945,21.484,-75.195,0
1512656149.531,15.625,17.090,46.387,21.973,72.266,0
1512656149.535,12.695,17.578,44.922,22.461,119.141,0
1512656149.539,7.812,18.555,42.480,22.949,3.906,0
1512656149.543,4.883,20.508,40.039,20.996,-35.645,1
1512656149.547,6.348,23.438,38.086,20.996,87.891,0
1512656149.551,6.836,25.391,40.039,25.391,169.922,0
1512656149.555,7.324,26.367,40.039,28.809,59.570,0
1512656149.559,5.859,24.902,40.527,28.320,-66.895,0
1512656149.562,2.441,22.461,41.016,25.391,27.832,0
1512656149.566,0.000,20.020,43.457,23.926,150.391,0
1512656149.570,1.953,17.578,45.898,25.391,70.801,0
1512656149.574,5.371,14.160,47.363,29.297,-93.262,0
1512656149.578,4.883,12.207,47.852,30.762,-40.039,0
1512656149.582,8.301,12.207,46.875,33.691,136.719,0
1512656149.586,12.207,13.184,50.781,36.133,98.633,0
1512656149.590,13.184,12.207,51.758,33.203,-63.477,0
1512656149.594,12.695,12.207,50.293,31.250,-74.219,0
1512656149.598,11.230,11.230,51.270,28.320,71.289,0
1512656149.602,4.883,7.324,47.852,26.367,109.863,0
1512656149.605,2.930,8.301,45.410,23.926,-39.062,0
1512656149.609,8.789,12.207,50.293,22.949,-120.605,0
1512656149.613,9.277,12.695,50.781,25.879,5.859,0
1512656149.617,11.719,12.695,48.828,30.762,131.836,0
1512656149.621,16.113,15.137,49.805,33.691,-1.465,0
1512656149.625,15.625,13.184,44.434,31.738,-158.691,0
1512656149.629,17.578,11.719,41.504,31.738,-35.156,0
1512656149.633,20.020,11.719,51.270,32.227,118.652,0
1512656149.637,22.461,11.230,54.199,32.715,44.434,0
1512656149.641,27.344,12.695,54.199,37.109,-83.008,0
1512656149.644,28.809,11.719,52.734,41.992,-28.809,0
1512656149.648,28.320,9.277,51.270,41.016,123.047,0
1512656149.652,25.879,8.789,51.270,42.480,108.887,0
1512656149.656,26.367,8.301,47.363,42.969,-67.383,0
1512656149.660,30.273,7.812,44.434,39.551,-80.078,0
1512656149.664,29.297,8.301,45.898,42.480,70.801,0
1512656149.668,28.320,8.789,47.363,44.922,103.027,0
1512656149.672,30.273,10.254,47.363,48.340,-1.465,0
1512656149.676,30.273,9.766,47.363,48.828,-43.457,0
1512656149.680,26.855,10.254,49.316,45.410,77.637,0
1512656149.684,26.367,10.742,50.781,43.457,153.320,0
1512656149.687,26.855,11.230,53.711,41.016,68.359,0
1512656149.691,26.367,11.230,52.246,40.527,-71.289,0
1512656149.695,25.879,10.254,49.316,42.969,-23.438,0
1512656149.699,26.367,8.301,51.758,42.969,130.371,0
1512656149.703,29.297,8.789,54.688,43.457,63.965,0
1512656149.707,28.809,10.742,53.223,41.504,-109.375,0
1512656149.711,23.438,11.719,50.781,37.109,-108.398,0
1512656149.715,21.973,16.113,51.758,32.227,74.707,0
1512656149.719,21.484,12.695,50.781,30.762,119.629,0
1512656149.723,19.043,6.836,47.852,30.762,-42.969,0
1512656149.727,18.555,9.277,49.805,26.855,-107.422,0
1512656149.730,20.508,10.742,52.734,26.855,43.945,0
1512656149.734,18.555,10.742,52.246,26.855,110.840,0
1512656149.738,16.113,5.859,51.758,24.414,-41.992,0
1512656149.742,16.113,0.488,51.758,23.438,-119.629,0
1512656149.746,9.766,-4.395,50.293,19.043,5.371,0
1512656149.750,5.371,-5.859,47.363,16.602,108.398,0
1512656149.754,1.953,-3.418,47.363,10.742,10.742,0
1512656149.758,-2.930,-2.441,47.852,4.395,-137.695,0
1512656149.762,-6.836,-1.465,52.734,5.371,-47.852,0
1512656149.766,-7.324,-1.953,55.664,6.836,118.652,0
1512656149.769,-3.906,-0.977,53.223,7.324,63.477,0
1512656149.773,-1.465,0.000,54.199,9.277,-89.355,0
1512656149.777,0.977,0.488,57.617,7.324,-47.852,0
1512656149.781,5.859,2.930,61.035,7.812,121.094,0
1512656149.785,6.348,2.930,63.477,11.719,104.492,0
1512656149.789,2.441,0.977,63.477,13.672,-30.762,0
1512656149.793,5.371,1.953,63.965,18.066,-47.363,0
1512656149.797,9.766,5.371,65.918,20.508,49.316,0
1512656149.801,12.207,7.324,69.824,22.949,92.285,0
1512656149.805,12.695,7.324,72.266,26.367,-13.672,0
1512656149.809,13.672,10.254,71.289,25.879,-93.262,0
1512656149.812,11.719,11.719,68.848,23.926,18.555,0
1512656149.816,10.742,11.719,67.871,25.391,164.551,0
1512656149.820,15.137,14.160,69.336,25.879,67.383,0
1512656149.824,17.090,17.578,69.824,24.414,-80.078,0
1512656149.828,17.578,20.996,68.848,23.438,-28.809,0
1512656149.832,13.672,20.996,65.430,25.391,97.656,0
1512656149.836,16.602,20.996,65.430,28.320,74.219,0
1512656149.840,17.578,19.043,65.918,24.902,-72.754,0
1512656149.844,10.742,14.160,65.430,20.996,-50.293,0
1512656149.848,7.812,12.207,65.918,20.020,104.980,0
1512656149.852,6.348,12.695,64.453,18.555,121.094,0
1512656149.855,3.418,11.230,59.570,17.090,-33.691,0
1512656149.859,4.395,12.207,56.641,14.648,-97.168,0
1512656149.863,6.836,10.742,58.594,16.602,41.504,0
1512656149.867,6.836,8.789,57.129,17.578,123.047,0
1512656149.871,7.812,10.254,53.711,15.137,22.461,0
1512656149.875,9.766,13.672,55.664,18.555,-109.375,0
1512656149.879,15.137,13.672,55.664,21.484,-55.176,0
1512656149.883,14.648,13.184,50.781,17.578,113.770,0
1512656149.887,7.324,15.625,49.805,18.555,61.523,0
1512656149.891,3.906,15.137,46.875,16.602,-151.367,0
1512656149.894,3.906,15.625,35.156,10.742,-108.398,0
1512656149.898,5.371,16.113,36.133,11.719,83.496,0
1512656149.902,4.883,15.625,41.992,11.230,45.898,0
1512656149.906,4.395,16.113,41.016,11.719,-134.277,0
1512656149.910,6.348,15.625,37.598,14.160,-119.629,0
1512656149.914,9.766,16.602,33.691,17.090,15.625,0
1512656149.918,12.207,17.090,33.691,20.508,38.574,0
1512656149.922,19.043,18.066,33.203,21.484,-69.824,0
1512656149.926,20.996,20.996,32.715,21.484,-128.418,0
1512656149.930,19.531,21.484,33.203,24.902,7.812,0
1512656149.934,20.996,19.043,31.738,25.879,94.727,0
1512656149.937,25.391,19.043,30.762,25.879,-19.531,0
1512656149.941,27.832,22.461,31.738,25.879,-155.273,0
1512656149.945,29.785,23.926,29.785,28.809,-62.500,0
1512656149.949,31.250,25.391,28.809,32.227,101.074,0
1512656149.953,28.809,26.855,31.738,32.715,5.859,0
1512656149.957,27.832,23.926,30.762,30.762,-140.137,0
1512656149.961,31.738,23.926,31.250,34.180,-42.480,0
1512656149.965,33.691,27.832,33.203,38.574,106.934,0
1512656149.969,35.645,29.785,34.668,40.527,70.801,0
1512656149.973,37.598,30.273,36.133,42.969,-62.500,0
1512656149.977,36.621,29.785,38.574,41.016,-59.570,0
1512656149.980,39.062,33.203,41.504,41.016,64.941,0
1512656149.984,44.434,35.645,41.016,44.922,113.770,0
1512656149.988,45.898,36.133,41.504,49.316,5.859,0
1512656149.992,49.316,35.156,38.574,47.363,-84.473,0
1512656149.996,54.688,41.016,35.156,49.805,22.949,0
1512656150.000,56.152,45.410,36.621,57.617,132.324,0
1512656150.004,60.547,41.016,36.621,61.035,33.203,0
1512656150.008,66.406,40.527,34.668,62.500,-128.418,0
1512656150.012,68.359,41.992,37.109,62.012,-58.594,0
1512656150.016,70.801,44.434,36.621,64.453,123.047,0
1512656150.019,68.848,44.922,33.203,65.430,71.777,0
1512656150.023,62.988,46.387,32.715,63.965,-113.281,0
1512656150.027,60.059,47.852,33.203,62.988,-65.430,0
1512656150.031,57.617,52.246,32.227,62.500,101.562,0
1512656150.035,54.199,55.176,31.250,60.547,89.355,0
1512656150.039,53.223,54.199,33.203,59.570,-78.613,0
1512656150.043,54.688,55.176,36.621,59.570,-146.484,0
1512656150.047,57.129,58.594,38.574,63.477,9.766,0
1512656150.051,62.012,61.523,38.086,65.918,107.910,0
1512656150.055,63.477,62.500,42.480,65.430,-20.020,0
1512656150.059,61.523,68.848,46.387,63.477,-136.719,0
1512656150.062,57.617,63.965,43.457,61.523,-32.227,0
1512656150.066,58.105,58.594,43.457,64.453,81.055,0
1512656150.070,60.059,61.523,43.945,62.988,-22.461,0
1512656150.074,59.570,63.965,47.852,62.500,-183.594,0
1512656150.078,64.941,68.359,54.688,67.383,-85.449,0
1512656150.082,66.895,68.359,53.711,68.359,73.730,0
1512656150.086,62.012,73.242,54.199,69.336,19.043,0
1512656150.090,59.570,74.707,56.641,64.453,-115.234,0
1512656150.094,56.641,70.801,57.617,58.594,-83.496,0
1512656150.098,50.781,69.824,56.641,57.617,61.035,0
1512656150.102,48.828,71.289,54.688,55.664,71.289,0
1512656150.105,50.781,72.266,54.688,55.664,-66.895,0
1512656150.109,50.293,70.801,54.199,53.711,-99.121,0
1512656150.113,49.805,68.359,52.734,51.758,6.348,0
1512656150.117,47.852,67.871,52.734,49.316,92.773,0
1512656150.121,41.016,66.406,53.223,49.805,0.977,0
1512656150.125,41.016,64.941,49.805,50.293,-121.094,0
1512656150.129,47.363,58.594,46.387,53.711,-33.203,0
1512656150.133,51.270,59.082,45.898,54.199,82.520,0
1512656150.137,54.688,65.430,48.340,55.176,35.645,0
1512656150.141,58.105,63.965,48.828,60.547,-104.492,0
1512656150.144,62.012,65.918,46.875,62.988,-78.613,0
1512656150.148,65.430,71.777,47.852,63.477,77.148,0
1512656150.152,58.105,71.777,48.340,62.012,91.797,0
1512656150.156,53.711,70.312,43.457,57.129,-49.805,0
1512656150.160,55.664,69.824,41.016,53.223,-86.914,0
1512656150.164,55.176,70.312,40.527,52.246,86.914,0
1512656150.168,52.246,69.824,40.527,51.758,147.461,0
1512656150.172,48.340,66.406,39.551,49.316,-17.578,0
1512656150.176,48.340,66.895,39.551,48.340,-124.512,0
1512656150.180,50.781,69.824,40.527,50.293,-21.973,0
1512656150.184,48.340,67.871,39.551,49.805,113.281,0
1512656150.187,47.852,64.941,36.621,48.340,31.738,0
1512656150.191,50.781,67.383,35.645,48.340,-113.281,0
1512656150.195,50.781,69.336,39.062,45.410,-27.344,0
1512656150.199,50.781,67.383,38.574,47.363,141.113,0
1512656150.203,51.758,69.824,38.086,51.270,81.543,0
1512656150.207,52.734,67.871,41.016,50.781,-83.984,0
1512656150.211,48.828,65.430,40.039,48.340,-52.246,0
1512656150.215,41.992,68.848,38.086,42.969,124.023,0
1512656150.219,41.504,64.453,41.504,45.410,107.422,0
1512656150.223,43.457,59.082,42.969,48.828,-89.355,0
1512656150.227,41.992,64.453,41.016,45.898,-104.980,0
1512656150.230,43.457,68.848,41.504,46.387,57.617,0
1512656150.234,44.922,66.895,42.969,43.945,127.441,0
1512656150.238,45.410,65.918,41.992,41.992,11.230,0
1512656150.242,46.387,64.941,41.992,45.898,-64.453,0
1512656150.246,47.363,65.918,42.969,48.340,41.016,0
1512656150.250,51.270,66.406,41.016,50.293,132.324,0
1512656150.254,54.688,65.918,38.086,49.805,54.688,0
1512656150.258,53.223,66.406,39.551,46.387,-71.289,0
1512656150.262,51.270,62.988,41.504,44.922,-1.465,0
1512656150.266,49.805,62.988,41.016,44.922,117.188,0
1512656150.269,51.270,65.918,40.527,43.945,80.566,0
1512656150.273,53.223,64.941,39.551,45.410,-21.484,0
1512656150.277,53.711,65.918,39.062,48.340,-18.555,0
1512656150.281,57.129,67.871,40.039,50.293,77.148,0
1512656150.285,59.082,67.871,42.969,51.270,91.797,0
1512656150.289,55.176,64.941,43.945,54.688,-18.066,0
1512656150.293,50.293,60.059,42.480,53.711,-57.129,0
1512656150.297,48.340,59.570,43.945,47.852,84.473,0
1512656150.301,45.898,56.641,42.969,43.945,177.246,0
1512656150.305,40.039,48.340,42.480,39.551,50.781,0
1512656150.309,36.621,42.969,42.480,41.504,-86.914,0
1512656150.312,39.062,45.410,41.504,47.852,24.902,0
1512656150.316,43.457,45.898,40.527,47.852,176.270,0
1512656150.320,41.504,41.504,40.527,44.434,92.773,0
1512656150.324,36.621,42.480,41.016,39.551,-73.242,0
1512656150.328,39.062,44.922,39.062,34.668,-32.715,0
1512656150.332,36.621,43.457,36.621,35.645,130.859,0
1512656150.336,34.180,44.922,35.156,40.039,113.281,0
1512656150.340,35.645,46.875,33.203,38.086,-61.035,0
1512656150.344,36.133,48.828,34.180,36.621,-66.406,0
1512656150.348,35.645,52.246,33.691,37.598,128.418,0
1512656150.352,34.180,50.781,32.715,40.527,128.418,0
1512656150.355,34.668,47.852,30.762,39.551,-68.848,0
1512656150.359,34.180,52.734,30.762,35.156,-142.090,0
1512656150.363,30.273,53.711,31.250,33.203,-15.625,0
1512656150.367,27.344,53.223,28.320,35.156,76.660,0
1512656150.371,29.297,56.641,23.438,34.668,-40.039,0
1512656150.375,26.367,56.152,20.996,31.738,-157.715,0
1512656150.379,25.391,56.152,20.508,29.785,-32.715,0
1512656150.383,31.738,59.082,23.438,33.691,110.352,0
1512656150.387,33.691,61.035,25.391,38.574,-0.488,0
1512656150.391,31.738,62.988,26.367,36.133,-142.578,0
1512656150.394,35.156,64.941,30.273,37.109,-57.617,0
1512656150.398,33.203,62.012,25.879,41.992,116.699,0
1512656150.402,29.785,59.082,18.555,43.945,68.359,0
1512656150.406,29.297,56.641,16.602,42.480,-91.309,0
1512656150.410,29.785,55.664,18.066,39.062,-70.801,0
1512656150.414,29.785,59.570,17.090,38.574,52.734,0
1512656150.418,33.203,59.082,15.137,41.504,89.355,0
1512656150.422,36.133,56.641,19.043,40.527,-21.973,0
1512656150.426,35.156,56.152,20.996,42.969,-77.637,0
1512656150.430,36.133,56.152,22.461,43.945,27.344,0
1512656150.434,41.016,54.199,24.902,43.457,110.352,0
1512656150.437,42.969,48.340,26.367,44.434,25.879,0
1512656150.441,37.598,41.504,25.879,42.969,-92.285,0
1512656150.445,41.992,40.039,27.344,42.480,-20.020,0
1512656150.449,41.016,38.574,31.738,41.504,104.004,0
1512656150.453,34.668,35.156,35.645,39.551,29.785,0
1512656150.457,31.250,29.297,37.109,29.297,-129.883,0
1512656150.461,22.461,22.949,37.598,29.297,-142.578,0
1512656150.465,18.066,21.484,41.016,29.297,11.230,0
1512656150.469,11.230,21.484,44.922,23.926,48.340,0
1512656150.473,4.883,17.090,46.387,19.531,-153.809,0
1512656150.477,0.000,11.230,46.875,11.230,-202.148,0
1512656150.480,-6.836,6.348,49.316,5.859,-41.016,0
1512656150.484,-10.254,4.395,52.246,5.859,45.898,0
1512656150.488,-11.719,-0.488,52.734,1.465,-105.469,0
1512656150.492,-17.578,-7.324,52.246,-5.859,-204.102,0
1512656150.496,-25.391,-7.324,55.176,-6.836,-54.199,0
1512656150.500,-28.320,-9.766,57.129,-8.789,39.062,0
1512656150.504,-30.762,-13.672,60.547,-10.742,-89.844,0
1512656150.508,-29.297,-14.648,63.477,-14.648,-242.188,0
1512656150.512,-28.320,-15.625,64.453,-18.066,-129.883,0
1512656150.516,-29.297,-13.672,68.359,-15.137,53.711,0
1512656150.519,-28.320,-11.719,68.359,-17.090,5.859,0
1512656150.523,-30.762,-12.207,65.430,-18.555,-111.328,0
1512656150.527,-27.832,-14.648,63.477,-14.648,-53.223,0
1512656150.531,-16.602,-15.625,61.035,-9.766,87.891,0
1512656150.535,-14.160,-11.230,62.012,-3.906,87.402,0
1512656150.539,-16.113,-10.742,60.547,-1.953,-65.918,0
1512656150.543,-10.742,-12.207,56.641,-0.977,-90.332,0
1512656150.547,-1.465,-9.277,54.688,3.418,41.504,0
1512656150.551,2.930,-4.395,54.199,4.883,89.355,0
1512656150.555,5.859,2.441,52.246,10.254,-34.668,0
1512656150.559,7.812,5.859,49.805,11.719,-99.121,0
1512656150.562,12.207,8.789,45.410,15.137,6.348,0
1512656150.566,20.020,14.160,44.922,24.902,115.723,0
1512656150.570,27.344,19.531,47.852,30.762,19.531,0
1512656150.574,31.738,23.438,48.828,38.086,-124.023,0
1512656150.578,33.691,25.879,45.410,40.527,-64.453,0
1512656150.582,35.645,29.785,40.527,41.016,100.098,0
1512656150.586,35.645,34.180,38.086,41.016,77.148,0
1512656150.590,35.645,35.645,37.109,43.457,-106.934,0
1512656150.594,38.086,36.621,38.086,46.875,-112.793,0
1512656150.598,42.969,41.504,36.621,46.387,34.180,0
1512656150.602,46.387,44.922,35.645,50.781,63.477,0
1512656150.605,44.434,44.434,35.645,50.293,-62.988,0
1512656150.609,44.434,46.387,34.180,46.875,-134.277,0
1512656150.613,49.316,48.340,32.715,48.340,-14.648,0
1512656150.617,46.387,49.805,29.785,46.387,81.055,0
1512656150.621,48.828,50.293,29.785,49.805,-21.484,0
1512656150.625,47.363,48.340,29.785,51.270,-145.996,0
1512656150.629,45.898,48.828,26.367,48.340,-59.082,0
1512656150.633,52.246,53.223,27.344,51.270,79.102,0
1512656150.637,57.617,56.641,29.297,55.176,-7.812,0
1512656150.641,57.617,51.758,23.438,52.734,-145.508,0
1512656150.644,57.617,53.223,23.438,51.270,-85.449,0
1512656150.648,61.523,57.129,26.367,56.152,58.594,0
1512656150.652,60.059,53.711,22.949,57.129,28.320,0
1512656150.656,58.105,49.805,23.438,52.734,-123.047,0
1512656150.660,59.082,54.199,26.367,55.664,-125.977,0
1512656150.664,58.594,57.129,24.414,56.152,49.805,0
1512656150.668,59.570,53.223,25.391,54.688,82.031,0
1512656150.672,64.941,52.246,29.297,57.617,-73.730,0
1512656150.676,64.941,51.270,32.227,66.406,-125.488,0
1512656150.680,59.570,48.828,34.180,66.895,-2.441,0
1512656150.684,60.547,45.410,32.227,62.500,96.191,0
1512656150.687,62.012,46.387,28.320,65.918,-37.109,0
1512656150.691,62.500,46.387,26.855,66.406,-162.109,0
1512656150.695,67.871,47.363,28.809,71.289,-29.297,0
1512656150.699,66.406,49.316,31.738,73.242,96.680,0
1512656150.703,57.617,48.828,35.156,62.500,3.418,0
1512656150.707,56.641,50.293,35.156,54.688,-108.398,0
1512656150.711,56.152,50.781,38.086,53.223,-46.387,0
1512656150.715,52.734,48.340,38.574,52.734,89.844,0
1512656150.719,50.781,42.480,34.668,51.270,91.797,0
1512656150.723,54.199,41.016,33.203,49.316,-30.762,0
1512656150.727,57.617,38.574,34.668,45.410,-36.621,0
1512656150.730,60.059,38.574,34.668,44.922,100.586,0
1512656150.734,60.059,39.062,30.762,45.898,127.930,0
1512656150.738,56.152,38.086,29.297,41.504,-19.531,0
1512656150.742,52.734,38.086,29.785,38.086,-88.867,0
1512656150.746,51.270,37.109,29.785,33.691,-2.441,0
1512656150.750,48.828,37.109,30.273,28.320,124.512,0
1512656150.754,44.922,32.227,30.273,24.414,42.969,0
1512656150.758,42.480,28.809,27.344,23.438,-139.160,0
1512656150.762,43.945,29.785,27.832,23.438,-68.848,0
1512656150.766,44.922,28.809,26.367,18.555,81.055,0
1512656150.769,44.922,28.320,27.344,20.508,26.855,0
1512656150.773,47.363,28.809,29.297,24.902,-150.391,0
1512656150.777,47.363,31.250,30.273,23.438,-135.742,0
1512656150.781,50.293,34.180,34.668,24.414,18.555,0
1512656150.785,47.852,35.645,34.668,22.949,34.180,0
1512656150.789,48.340,38.574,33.691,22.461,-120.605,0
1512656150.793,52.246,39.062,30.762,22.461,-193.848,0
1512656150.797,52.246,38.574,29.297,21.484,-23.926,0
1512656150.801,57.129,41.504,32.227,23.926,66.406,0
1512656150.805,59.570,44.434,31.738,26.855,-82.520,2
1512656150.809,58.594,41.992,32.715,26.855,-186.523,0
1512656150.812,59.082,40.527,35.645,27.344,-79.590,0
1512656150.816,58.105,39.551,34.180,28.320,22.949,0
1512656150.820,57.617,38.574,33.691,27.832,-65.918,0
1512656150.824,58.594,39.062,33.691,23.926,-189.941,0
1512656150.828,62.988,38.574,34.180,26.367,-123.047,0
1512656150.832,66.406,40.039,35.156,30.762,27.344,0
1512656150.836,62.500,39.062,34.180,28.320,1.465,0
1512656150.840,62.012,34.180,35.645,28.809,-142.578,0
1512656150.844,60.547,31.250,36.621,26.855,-92.773,0
1512656150.848,60.547,29.785,35.156,27.344,87.891,0
1512656150.852,63.965,30.273,32.715,24.902,68.359,0
1512656150.855,61.523,30.273,33.691,23.926,-55.176,0
1512656150.859,63.965,29.785,36.133,24.902,-61.035,0
1512656150.863,71.777,29.785,35.156,23.438,51.758,0
1512656150.867,73.242,31.738,37.598,25.879,125.977,0
1512656150.871,78.613,36.133,38.086,31.250,37.598,0
1512656150.875,78.613,35.156,35.156,31.250,-79.102,0
1512656150.879,75.195,30.762,33.203,27.832,7.324,0
1512656150.883,79.590,30.273,31.738,30.273,138.672,0
1512656150.887,78.125,32.227,30.273,30.273,82.031,0
1512656150.891,78.613,29.297,29.785,30.762,-24.414,0
1512656150.894,82.520,28.809,28.809,31.250,18.066,0
1512656150.898,83.008,31.738,29.785,30.273,182.617,0
1512656150.902,81.055,31.738,29.785,32.227,166.016,0
1512656150.906,77.637,32.715,26.367,33.691,-0.977,0
1512656150.910,77.148,33.691,28.320,31.250,-19.531,0
1512656150.914,73.730,33.691,31.250,28.809,114.746,0
1512656150.918,68.359,31.738,27.344,26.855,154.297,0
1512656150.922,67.383,29.297,24.414,26.367,15.137,0
1512656150.926,64.453,29.785,23.438,25.879,-93.750,0
1512656150.930,58.105,29.297,25.391,23.438,22.949,0
1512656150.934,55.664,30.273,27.832,21.484,163.574,0
1512656150.937,57.129,28.809,31.250,21.973,33.691,0
1512656150.941,56.152,27.344,32.715,24.902,-124.023,0
1512656150.945,53.223,28.809,31.738,22.949,-13.184,0
1512656150.949,51.758,28.809,36.133,21.973,113.281,0
1512656150.953,52.246,29.785,35.645,21.484,13.672,0
1512656150.957,54.199,29.785,33.691,19.043,-125.488,0
1512656150.961,56.152,30.273,33.203,20.508,-48.828,0
1512656150.965,54.688,30.273,36.133,23.438,132.812,0
1512656150.969,52.246,28.320,40.527,25.879,99.121,0
1512656150.973,49.316,25.879,40.527,23.438,-50.293,0
1512656150.977,51.270,25.879,38.574,18.555,-31.250,0
1512656150.980,55.664,28.320,37.598,20.996,150.391,0
1512656150.984,54.688,28.320,38.086,23.926,174.316,0
1512656150.988,54.688,27.344,40.039,21.484,22.461,0
1512656150.992,58.594,30.273,40.527,21.484,-18.066,0
1512656150.996,62.500,32.715,41.016,24.902,73.730,0
1512656151.000,59.570,31.738,41.504,22.949,158.203,0
1512656151.004,54.688,33.691,39.551,21.973,81.055,0
1512656151.008,53.223,35.645,36.621,23.926,-46.875,0
1512656151.012,57.129,37.109,36.133,23.926,15.625,0
1512656151.016,59.570,37.598,36.133,23.438,140.625,0
1512656151.019,58.594,40.527,35.156,26.855,90.820,0
1512656151.023,59.082,41.504,36.133,28.809,-21.484,0
1512656151.027,65.430,37.109,35.645,23.926,-12.695,0
1512656151.031,64.453,37.109,31.738,22.461,126.953,0
1512656151.035,63.477,39.062,31.738,26.855,149.902,0
1512656151.039,67.871,41.016,29.785,29.297,2.441,0
1512656151.043,67.383,43.457,28.809,25.879,-25.391,0
1512656151.047,67.871,41.016,28.320,28.320,104.980,0
1512656151.051,65.918,40.527,25.391,29.785,164.551,0
1512656151.055,62.012,41.504,27.344,26.855,56.641,0
1512656151.059,60.059,41.504,29.297,26.367,-28.320,0
1512656151.062,59.570,43.945,32.227,26.855,79.590,0
1512656151.066,57.129,45.898,33.203,30.273,196.289,0
1512656151.070,61.035,48.828,31.738,34.668,82.520,0
1512656151.074,59.082,48.828,32.227,33.203,-84.961,0
1512656151.078,54.688,46.387,30.762,31.738,-31.250,0
1512656151.082,57.129,45.898,28.320,33.691,157.227,0
1512656151.086,53.223,44.922,27.832,35.156,134.766,0
1512656151.090,46.875,46.875,25.391,32.227,-66.406,0
1512656151.094,46.875,51.270,25.879,30.273,-53.223,0
1512656151.098,46.875,54.199,28.809,34.180,131.348,0
1512656151.102,45.898,54.688,30.762,32.715,143.555,0
1512656151.105,42.480,55.664,33.203,33.691,-14.160,0
1512656151.109,40.039,53.711,33.691,38.574,-74.219,0
1512656151.113,38.086,50.781,34.180,36.621,58.105,0
1512656151.117,32.227,50.781,33.203,37.109,144.531,0
1512656151.121,25.391,47.363,30.273,38.574,-18.555,0
1512656151.125,22.949,46.875,27.832,36.133,-125.977,0
1512656151.129,22.949,46.387,25.879,33.203,19.043,0
1512656151.133,20.020,45.410,26.367,30.762,140.137,0
1512656151.137,17.578,42.969,24.414,29.785,42.480,0
1512656151.141,18.555,42.480,25.879,25.879,-92.285,0
1512656151.144,15.625,42.969,26.855,25.391,20.020,0
1512656151.148,10.742,41.992,25.391,26.855,173.828,0
1512656151.152,7.812,43.457,26.367,23.926,128.906,0
1512656151.156,9.277,43.945,27.344,23.438,-5.859,0
1512656151.160,6.348,43.945,29.297,21.973,2.930,0
1512656151.164,0.977,44.922,31.250,22.949,140.137,0
1512656151.168,0.000,43.457,33.203,21.484,155.273,0
1512656151.172,1.953,41.016,34.180,15.625,26.855,0
1512656151.176,0.977,42.969,36.621,17.090,-21.973,0
1512656151.180,-0.488,42.969,41.016,19.043,111.816,0
1512656151.184,3.906,40.527,42.480,20.020,187.012,0
1512656151.187,2.930,38.574,40.039,18.555,79.590,0
1512656151.191,-2.930,32.227,41.016,15.625,-46.387,0
1512656151.195,-7.324,29.785,41.504,14.160,42.480,0
1512656151.199,-10.254,27.344,41.016,11.719,220.215,0
1512656151.203,-18.066,22.949,41.992,6.836,166.992,0
1512656151.207,-27.344,14.648,41.016,-5.371,17.578,0
1512656151.211,-30.273,10.254,41.992,-12.207,35.156,0
1512656151.215,-35.645,9.277,43.945,-15.137,187.988,0
1512656151.219,-39.062,6.348,41.504,-16.602,204.590,0
1512656151.223,-36.133,6.348,41.992,-16.602,43.945,0
1512656151.227,-37.598,5.859,43.945,-23.438,-11.230,0
1512656151.230,-40.039,1.953,45.898,-25.879,125.488,0
1512656151.234,-41.992,-0.488,45.898,-20.996,180.664,0
1512656151.238,-45.410,0.488,42.480,-21.484,26.855,0
1512656151.242,-45.898,-1.465,43.945,-25.879,-57.617,0
1512656151.246,-45.898,-3.906,43.945,-31.250,33.691,0
1512656151.250,-50.781,-5.371,43.457,-33.691,86.914,0
1512656151.254,-51.270,-5.371,43.457,-29.785,-4.395,0
1512656151.258,-47.852,-0.488,41.016,-29.785,-131.348,0
1512656151.262,-47.363,0.977,36.133,-34.180,-23.438,0
1512656151.266,-47.852,-0.977,34.668,-32.227,126.465,0
1512656151.269,-42.969,2.930,39.062,-23.926,40.039,0
1512656151.273,-35.156,11.230,40.527,-18.555,-103.027,0
1512656151.277,-24.902,15.625,38.086,-13.672,-43.457,0
1512656151.281,-20.508,16.602,38.086,-6.836,124.512,0
1512656151.285,-17.090,17.090,32.715,0.000,112.793,0
1512656151.289,-5.371,20.996,31.738,4.395,-41.016,0
1512656151.293,0.000,26.367,34.180,9.277,-57.617,0
1512656151.297,5.859,34.668,35.645,19.531,89.844,0
1512656151.301,13.184,38.086,36.621,23.926,106.445,0
1512656151.305,11.719,34.668,31.250,21.484,-42.480,3
1512656151.309,9.277,34.180,27.832,18.555,-90.332,0
1512656151.312,16.113,36.133,29.297,22.461,40.527,0
1512656151.316,20.508,38.086,31.250,27.344,135.742,0
1512656151.320,24.902,41.504,34.180,30.273,44.434,0
1512656151.324,23.926,41.016,34.180,31.738,-72.754,0
1512656151.328,23.926,38.086,31.250,34.180,3.418,0
1512656151.332,24.902,36.621,31.250,38.574,146.973,0
1512656151.336,27.832,37.598,31.738,43.945,122.070,0
1512656151.340,34.668,38.086,33.691,49.316,-23.438,0
1512656151.344,36.621,39.062,34.668,50.781,-2.930,0
1512656151.348,37.598,40.527,34.668,52.734,144.043,0
1512656151.352,41.992,41.016,39.551,56.152,179.199,0
1512656151.355,45.898,41.504,39.062,58.594,69.824,0
1512656151.359,46.387,37.598,37.109,56.152,10.742,0
1512656151.363,46.875,33.691,41.992,56.641,141.113,0
1512656151.367,48.828,33.203,45.410,60.547,240.723,0
1512656151.371,46.875,31.250,45.898,60.059,118.164,0
1512656151.375,43.945,28.320,44.922,58.594,-14.648,0
1512656151.379,45.410,25.879,49.316,61.035,87.891,0
1512656151.383,43.945,24.414,54.199,63.477,226.562,0
1512656151.387,44.434,20.996,51.758,64.453,152.344,0
1512656151.391,49.316,16.602,52.246,66.895,1.465,0
1512656151.394,46.387,12.695,54.199,66.895,32.227,0
1512656151.398,45.410,14.160,55.176,66.895,191.406,0
1512656151.402,48.828,17.090,55.176,70.801,180.176,0
1512656151.406,54.688,18.555,56.641,75.684,-41.992,0
1512656151.410,60.547,18.555,60.547,78.613,-30.762,0
1512656151.414,61.035,12.695,61.523,78.613,185.547,0
1512656151.418,57.129,13.672,60.547,80.566,190.430,0
1512656151.422,55.664,20.508,62.500,87.402,12.207,0
1512656151.426,57.617,21.973,61.035,82.520,-24.902,0
1512656151.430,55.664,20.020,59.570,76.660,111.328,0
1512656151.434,54.688,19.043,60.059,75.684,169.434,0
1512656151.437,50.781,17.578,59.082,69.336,51.758,0
1512656151.441,47.852,18.555,55.664,67.383,-100.586,0
1512656151.445,44.922,15.137,50.781,66.406,20.508,0
1512656151.449,41.992,12.695,51.270,63.965,166.504,0
1512656151.453,39.551,16.602,53.223,63.477,36.133,0
1512656151.457,36.621,15.137,52.246,58.594,-75.195,0
1512656151.461,36.621,13.184,51.270,56.641,-12.695,0
1512656151.465,34.668,15.137,52.246,54.688,115.723,0
1512656151.469,35.156,18.555,51.270,56.641,117.676,0
1512656151.473,34.180,18.066,46.387,55.664,-20.508,0
1512656151.477,35.156,19.043,43.457,52.734,-36.133,0
1512656151.480,41.016,21.484,46.387,53.223,102.539,0
1512656151.484,42.480,20.020,46.387,49.316,137.695,0
1512656151.488,43.945,17.090,46.875,51.758,16.113,0
1512656151.492,46.875,19.043,50.781,57.617,-46.875,0
1512656151.496,50.781,22.461,51.758,57.129,60.547,0
1512656151.500,53.711,25.879,51.270,59.570,173.340,0
1512656151.504,57.129,26.855,54.688,60.059,89.844,0
1512656151.508,56.641,28.320,56.152,58.594,-48.340,0
1512656151.512,56.152,32.715,54.688,60.547,56.641,0
1512656151.516,56.152,33.203,52.734,62.012,210.938,0
1512656151.519,50.293,32.715,52.246,61.035,173.828,0
1512656151.523,45.410,32.227,50.781,55.664,55.176,0
1512656151.527,47.363,29.785,48.340,51.270,85.938,0
1512656151.531,44.922,27.344,47.363,46.875,205.566,0
1512656151.535,44.434,28.809,46.875,43.945,203.125,0
1512656151.539,43.457,31.250,48.340,44.434,63.965,0
1512656151.543,40.527,33.203,49.805,44.434,2.930,0
1512656151.547,42.969,37.109,41.992,46.875,145.996,0
1512656151.551,42.969,39.062,43.457,46.875,212.402,0
1512656151.555,41.504,38.574,53.711,45.898,45.898,0
1512656151.559,39.551,39.551,53.223,40.527,-46.875,0
1512656151.562,37.598,40.039,49.805,38.574,72.754,0
1512656151.566,35.645,39.551,50.293,40.039,165.527,0
1512656151.570,34.668,40.039,49.316,37.598,67.383,0
1512656151.574,38.086,40.039,45.898,40.039,-78.125,0
1512656151.578,36.621,39.062,43.945,38.574,-22.461,0
1512656151.582,36.133,40.527,43.945,38.086,118.164,0
1512656151.586,40.039,40.039,46.875,41.992,44.922,0
1512656151.590,40.039,43.457,49.316,42.480,-138.672,0
1512656151.594,41.504,49.316,46.875,42.480,-130.859,0
1512656151.598,44.434,47.852,44.434,41.992,20.508,0
1512656151.602,42.480,47.852,46.387,41.016,35.645,0
1512656151.605,39.551,47.852,39.551,39.062,-101.074,0
1512656151.609,38.574,46.875,40.527,38.086,-130.859,0
1512656151.613,39.062,47.852,46.875,37.598,-40.527,0
1512656151.617,37.598,50.293,43.945,35.156,44.922,0
1512656151.621,34.668,52.246,40.527,31.738,-42.480,0
1512656151.625,36.133,53.223,40.039,29.297,-154.785,0
1512656151.629,36.133,51.270,41.992,32.227,-48.340,0
1512656151.633,33.203,48.340,39.062,32.715,68.359,0
1512656151.637,28.320,46.875,35.645,26.367,23.438,0
1512656151.641,30.762,46.875,36.133,24.902,-119.629,0
1512656151.644,33.203,47.363,35.156,22.461,-65.918,0
1512656151.648,33.203,45.898,33.691,20.508,122.559,0
1512656151.652,35.645,40.039,34.180,22.949,120.605,0
1512656151.656,34.668,36.621,34.668,21.484,-35.156,0
1512656151.660,36.621,37.109,36.621,25.391,-42.480,0
1512656151.664,38.574,34.180,37.109,28.320,122.070,0
1512656151.668,34.180,33.691,37.598,26.855,162.109,0
1512656151.672,33.691,35.645,36.133,25.879,40.039,0
1512656151.676,33.203,32.715,34.668,22.461,-43.457,0
1512656151.680,33.203,26.855,35.156,19.043,80.078,0
1512656151.684,36.133,24.902,37.109,16.113,218.262,0
1512656151.687,36.621,22.949,35.645,18.555,117.676,0
1512656151.691,35.156,19.043,34.668,17.578,-2.930,0
1512656151.695,33.203,16.602,41.016,14.648,83.984,0
1512656151.699,33.203,15.625,40.527,14.648,224.121,0
1512656151.703,33.203,14.160,39.551,14.160,151.367,0
1512656151.707,33.691,14.648,40.527,15.625,-8.789,0
1512656151.711,35.156,16.113,39.062,16.602,36.621,0
1512656151.715,35.156,13.672,35.645,15.625,187.988,0
1512656151.719,31.250,14.160,36.621,16.602,153.320,0
1512656151.723,28.809,13.672,35.645,13.672,-43.457,0
1512656151.727,27.344,14.648,31.738,9.766,-41.504,0
1512656151.730,25.879,18.555,29.785,6.348,122.559,0
1512656151.734,21.973,24.414,30.762,5.859,127.441,0
1512656151.738,18.555,27.344,29.297,4.395,-7.324,0
1512656151.742,13.184,28.320,27.344,1.953,-74.707,0
1512656151.746,5.371,32.227,28.320,0.000,32.715,0
1512656151.750,6.348,34.668,27.344,-0.488,138.184,0
1512656151.754,8.789,37.598,23.926,0.977,33.203,0
1512656151.758,4.883,41.992,23.438,-2.930,-111.328,0
1512656151.762,3.906,45.410,17.090,-3.418,-49.805,0
1512656151.766,5.371,47.852,17.090,-0.977,85.938,0
1512656151.769,5.371,49.316,26.367,0.488,47.363,0
1512656151.773,5.371,52.734,26.367,0.488,-119.629,0
1512656151.777,5.371,57.617,25.879,0.488,-120.605,0
1512656151.781,4.395,61.035,23.438,1.465,1.953,0
1512656151.785,-0.488,59.082,20.996,-2.441,-6.836,0
1512656151.789,-6.348,62.012,18.066,-6.836,-122.559,0
1512656151.793,-7.812,62.500,16.113,-6.348,-145.508,0
1512656151.797,-8.301,62.012,15.137,-6.836,-15.625,0
1512656151.801,-8.789,64.453,14.160,-5.371,56.641,0
1512656151.805,-8.301,66.406,17.090,1.465,-59.570,4
1512656151.809,-9.766,66.895,20.996,4.395,-142.090,0
1512656151.812,-3.906,66.895,25.391,5.859,-28.320,0
1512656151.816,1.465,68.848,28.320,6.836,73.730,0
1512656151.820,0.977,69.824,27.344,10.742,-26.367,0
1512656151.824,3.418,68.359,24.414,12.207,-169.434,0
1512656151.828,12.207,68.848,25.391,15.625,-73.242,0
1512656151.832,16.602,70.312,26.855,17.578,116.211,0
1512656151.836,18.066,68.848,26.855,16.113,72.754,0
1512656151.840,19.531,63.965,27.832,17.090,-88.867,0
1512656151.844,21.484,55.664,31.250,19.531,-55.664,0
1512656151.848,26.367,49.316,28.809,22.949,148.438,0
1512656151.852,31.738,44.922,29.785,20.508,163.086,0
1512656151.855,36.133,39.551,40.527,20.996,-18.066,0
1512656151.859,40.527,36.621,44.434,26.855,-74.219,0
1512656151.863,43.457,34.180,45.410,32.227,71.777,0
1512656151.867,47.363,30.762,47.363,37.109,156.250,0
1512656151.871,54.199,30.273,54.199,42.969,16.113,0
1512656151.875,56.641,22.949,57.617,41.504,-90.332,0
1512656151.879,58.105,17.578,54.688,36.133,41.992,0
1512656151.883,59.570,16.602,53.711,34.668,154.297,0
1512656151.887,57.617,12.207,51.758,33.691,55.176,0
1512656151.891,61.523,11.230,52.246,34.180,-80.566,0
1512656151.894,60.547,8.301,53.711,32.227,-23.438,0
1512656151.898,59.570,7.812,56.152,36.133,104.492,0
1512656151.902,63.477,8.789,52.246,37.109,81.055,0
1512656151.906,61.523,10.254,46.875,32.227,-62.012,0
1512656151.910,58.105,10.742,55.176,31.738,-51.270,0
1512656151.914,56.641,9.277,59.570,34.668,107.910,0
1512656151.918,55.176,11.719,59.082,37.598,107.422,0
1512656151.922,49.805,11.230,55.176,32.227,-28.320,0
1512656151.926,45.410,7.324,49.805,26.367,-74.707,0
1512656151.930,37.598,0.977,48.828,23.438,37.109,0
1512656151.934,28.809,-3.418,45.898,20.996,109.375,0
1512656151.937,24.414,-2.441,44.434,18.555,-10.254,0
1512656151.941,17.090,-2.441,38.574,9.277,-108.398,0
1512656151.945,8.301,-2.930,37.109,0.977,-26.855,0
1512656151.949,-0.488,-0.977,45.898,-2.441,111.328,0
1512656151.953,-4.883,0.977,44.922,-2.930,43.457,0
1512656151.957,-7.812,-0.488,41.504,-4.395,-139.648,0
1512656151.961,-10.254,-0.977,41.504,-7.324,-119.141,0
1512656151.965,-13.672,-2.441,41.992,-7.812,72.754,0
1512656151.969,-19.043,-2.930,41.504,-7.812,80.078,0
1512656151.973,-20.996,3.906,39.062,-6.348,-91.309,0
1512656151.977,-21.973,7.812,36.621,-5.371,-99.121,0
1512656151.980,-18.066,10.742,33.691,-4.395,89.844,0
1512656151.984,-16.113,14.648,32.227,0.000,128.906,0
1512656151.988,-14.648,17.090,33.203,6.348,-41.992,0
1512656151.992,-12.207,17.578,36.133,8.789,-102.051,0
1512656151.996,-15.137,19.531,34.668,6.836,36.133,0
1512656152.000,-11.719,24.414,31.250,6.348,137.207,0
1512656152.004,-1.953,28.809,32.715,9.277,23.926,0
1512656152.008,1.953,30.273,33.203,12.695,-135.742,0
1512656152.012,2.930,35.645,32.715,18.066,-22.461,0
1512656152.016,5.859,38.086,34.180,24.414,153.809,0
1512656152.019,6.836,37.109,31.250,28.320,77.637,0
1512656152.023,1.953,35.645,33.691,30.273,-74.707,0
1512656152.027,1.465,32.227,39.551,28.809,-27.344,0
1512656152.031,2.930,31.250,36.621,23.926,154.297,0
1512656152.035,3.418,31.738,36.621,19.043,151.367,0
1512656152.039,5.859,30.762,36.621,18.555,-37.109,0
1512656152.043,2.441,28.320,38.086,15.137,-86.914,0
1512656152.047,3.906,24.414,40.527,14.648,65.430,0
1512656152.051,6.348,22.461,42.480,23.926,131.836,0
1512656152.055,6.348,22.461,44.434,28.320,-14.160,0
1512656152.059,9.277,20.020,42.480,27.832,-62.012,0
1512656152.062,10.254,16.602,42.480,27.832,45.410,0
1512656152.066,11.230,16.113,43.945,29.297,136.719,0
1512656152.070,12.207,15.137,44.434,31.738,50.781,0
1512656152.074,13.184,14.160,46.875,29.297,-96.680,0
1512656152.078,15.137,15.137,48.340,29.297,-22.461,0
1512656152.082,17.090,13.672,47.852,31.738,142.578,0
1512656152.086,13.672,9.277,45.410,28.320,62.988,0
1512656152.090,8.789,5.859,49.316,23.926,-96.191,0
1512656152.094,6.836,1.953,45.898,23.926,-65.430,0
1512656152.098,6.836,2.930,47.852,24.902,54.199,0
1512656152.102,3.906,1.465,54.199,24.414,66.895,0
1512656152.105,-2.441,-4.883,48.340,21.484,-80.078,0
1512656152.109,-3.418,-6.836,46.387,20.020,-119.141,0
1512656152.113,-3.418,-6.836,43.457,20.020,20.996,0
1512656152.117,-5.371,-8.301,42.969,20.996,88.379,0
1512656152.121,-6.348,-8.789,44.922,22.949,-24.414,0
1512656152.125,-2.441,-8.789,44.922,22.949,-128.906,0
1512656152.129,1.953,-8.789,36.621,20.508,-46.875,0
1512656152.133,2.930,-2.930,38.086,23.438,62.012,0
1512656152.137,3.906,0.488,47.363,25.879,7.324,0
1512656152.141,6.348,1.465,40.527,25.879,-132.324,0
1512656152.144,9.277,3.906,30.273,24.414,-104.980,0
1512656152.148,8.301,5.859,29.297,24.414,126.953,0
1512656152.152,4.395,8.301,26.855,22.949,84.473,0
1512656152.156,6.836,14.160,26.367,21.973,-137.207,0
1512656152.160,12.207,23.438,28.320,24.414,-99.609,0
1512656152.164,14.648,30.762,25.391,25.391,68.359,0
1512656152.168,14.160,33.691,18.555,22.949,69.336,0
1512656152.172,18.066,36.621,19.043,21.973,-83.984,0
1512656152.176,23.926,38.574,20.508,22.461,-129.883,0
1512656152.180,19.043,37.109,14.160,21.484,28.809,0
1512656152.184,17.578,39.062,14.648,22.949,86.914,0
1512656152.187,19.043,43.457,13.184,21.484,-45.898,0
1512656152.191,20.020,48.828,9.766,17.578,-127.930,0
1512656152.195,23.438,53.223,11.230,19.043,-33.203,0
1512656152.199,26.367,56.641,11.719,20.508,60.059,0
1512656152.203,25.879,58.105,10.254,17.578,-20.996,0
1512656152.207,21.973,59.082,6.836,13.672,-122.559,0
1512656152.211,22.949,60.547,4.883,16.602,-49.805,0
1512656152.215,26.367,65.918,3.906,19.043,89.355,0
1512656152.219,28.320,69.824,6.348,19.043,59.082,0
1512656152.223,28.320,67.871,7.324,21.484,-85.449,0
1512656152.227,23.926,63.477,9.766,20.508,-76.660,0
1512656152.230,28.809,65.918,13.672,22.461,89.844,0
1512656152.234,29.785,66.895,20.996,26.855,139.160,0
1512656152.238,25.391,63.965,26.367,26.367,-18.555,0
1512656152.242,26.855,62.988,27.344,29.297,-97.656,0
1512656152.246,27.832,65.430,29.785,32.227,22.461,0
1512656152.250,27.344,62.988,31.738,32.227,120.605,0
1512656152.254,27.832,57.129,30.273,35.156,49.316,0
1512656152.258,28.320,57.129,33.203,34.668,-70.801,0
1512656152.262,26.367,55.176,39.062,34.180,-7.812,0
1512656152.266,23.438,50.293,36.621,36.133,167.480,0
1512656152.269,23.438,44.434,36.621,34.668,137.695,0
1512656152.273,25.391,42.480,40.527,38.086,-24.414,0
1512656152.277,22.949,40.527,42.480,38.086,-24.414,0
1512656152.281,21.973,35.156,41.992,37.109,137.207,0
1512656152.285,20.508,32.227,48.340,39.551,146.973,0
1512656152.289,12.207,30.273,52.246,37.109,-54.688,0
1512656152.293,13.184,29.785,52.734,36.133,-102.539,0
1512656152.297,15.625,30.273,53.223,37.109,79.102,0
1512656152.301,11.719,25.391,52.246,40.527,145.020,0
1512656152.305,8.301,21.973,51.758,39.551,6.348,5
1512656152.309,11.230,20.508,51.270,38.574,-57.617,0
1512656152.312,15.625,17.090,51.758,39.062,64.453,0
1512656152.316,16.113,14.160,54.199,40.527,143.066,0
1512656152.320,20.020,13.672,56.152,45.410,21.973,0
1512656152.324,22.461,14.160,57.617,49.316,-91.309,0
1512656152.328,19.531,10.742,61.035,51.270,-23.926,0
1512656152.332,19.043,6.836,61.523,54.688,120.605,0
1512656152.336,19.043,5.371,61.523,56.152,23.438,0
1512656152.340,22.949,5.371,62.500,55.176,-151.855,0
1512656152.344,26.367,4.883,62.988,58.105,-70.801,0
1512656152.348,23.926,1.953,61.035,57.617,86.914,0
1512656152.352,24.902,-0.977,61.523,55.664,73.730,0
1512656152.355,27.832,2.930,63.477,57.129,-66.406,0
1512656152.359,27.832,4.395,62.988,56.641,-97.168,0
1512656152.363,29.297,2.930,64.941,57.129,22.949,0
1512656152.367,26.855,5.371,62.988,55.176,72.754,0
1512656152.371,23.438,4.395,61.523,51.270,-65.430,0
1512656152.375,22.949,4.883,64.453,52.734,-149.414,0
1512656152.379,21.973,8.301,63.965,51.758,-47.852,0
1512656152.383,21.973,8.789,62.500,48.828,56.152,0
1512656152.387,24.902,10.742,65.430,50.781,3.418,0
1512656152.391,28.809,12.207,63.477,51.270,-116.211,0
1512656152.394,31.250,13.184,58.594,53.223,-31.250,0
1512656152.398,33.203,12.207,58.594,55.664,116.699,0
1512656152.402,34.668,10.742,56.152,59.570,73.730,0
1512656152.406,38.574,11.719,54.199,63.477,-59.082,0
1512656152.410,38.086,12.695,50.293,57.617,-40.527,0
1512656152.414,29.297,12.695,45.410,48.340,104.980,0
1512656152.418,24.902,11.230,42.480,42.969,122.559,0
1512656152.422,23.926,15.625,40.039,41.992,-33.203,0
1512656152.426,25.391,17.090,38.574,42.480,-72.266,0
1512656152.430,27.832,15.137,40.039,41.992,60.059,0
1512656152.434,30.762,17.578,39.551,41.016,139.648,0
1512656152.437,32.227,18.555,38.086,41.016,26.367,0
1512656152.441,30.762,19.531,39.062,41.504,-143.066,0
1512656152.445,30.762,20.996,38.574,40.039,-62.012,0
1512656152.449,30.762,22.461,39.551,39.551,113.281,0
1512656152.453,32.715,24.902,35.156,41.016,23.438,0
1512656152.457,30.762,17.578,35.156,38.574,-147.461,0
1512656152.461,27.344,7.324,40.527,34.180,-83.984,0
1512656152.465,30.762,9.277,39.062,36.621,125.488,0
1512656152.469,33.691,12.207,35.645,34.180,61.523,0
1512656152.473,28.320,13.184,32.715,30.273,-144.043,0
1512656152.477,27.832,14.160,32.227,30.273,-87.891,0
1512656152.480,30.762,13.672,35.156,28.809,63.965,0
1512656152.484,32.227,13.672,33.691,33.691,81.055,0
1512656152.488,33.203,17.578,33.691,38.086,-50.293,0
1512656152.492,28.320,17.578,37.109,33.203,-113.281,0
1512656152.496,27.832,18.066,38.086,29.785,25.391,0
1512656152.500,28.320,20.996,37.109,25.879,90.820,0
1512656152.504,24.902,21.973,36.133,20.996,-5.371,0
1512656152.508,20.020,21.973,37.598,20.020,-99.121,0
1512656152.512,20.508,21.484,39.062,22.461,-36.621,0
1512656152.516,22.461,20.996,38.086,23.438,99.609,0
1512656152.519,21.484,22.461,38.086,24.902,32.715,0
1512656152.523,22.461,24.902,39.062,27.344,-120.117,0
1512656152.527,27.344,28.320,37.109,32.227,-74.707,0
1512656152.531,31.250,31.738,35.156,33.203,71.777,0
1512656152.535,31.738,31.738,35.645,36.133,57.617,0
1512656152.539,33.203,32.227,34.668,40.039,-81.543,0
1512656152.543,37.109,33.203,33.203,44.434,-105.469,0
1512656152.547,45.898,37.109,36.133,47.852,36.133,0
1512656152.551,44.922,39.551,36.133,47.852,98.145,0
1512656152.555,41.016,41.504,35.645,48.340,-45.898,0
1512656152.559,40.527,40.527,36.621,47.363,-120.117,0
1512656152.562,35.156,36.133,35.156,42.480,18.555,0
1512656152.566,31.250,37.109,36.621,44.434,138.672,0
1512656152.570,29.297,37.598,36.621,45.410,43.945,0
1512656152.574,28.809,35.645,36.133,42.480,-97.656,0
1512656152.578,27.832,33.691,36.621,40.039,-53.223,0
1512656152.582,24.902,37.109,36.133,37.598,126.465,0
1512656152.586,24.902,41.504,39.062,38.574,118.652,0
1512656152.590,27.344,43.457,40.527,41.504,-67.871,0
1512656152.594,32.715,46.875,38.574,43.945,-67.871,0
1512656152.598,39.551,46.387,39.062,48.340,103.516,0
1512656152.602,41.504,44.434,38.086,50.781,131.836,0
1512656152.605,43.457,43.457,39.551,51.270,-11.719,0
1512656152.609,48.828,43.945,44.434,53.711,-72.754,0
1512656152.613,45.410,44.434,42.969,51.270,83.496,0
1512656152.617,42.969,41.992,41.016,49.805,182.617,0
1512656152.621,41.992,38.574,40.039,53.223,26.855,0
1512656152.625,40.527,36.133,41.504,51.270,-106.445,0
1512656152.629,42.969,36.621,44.434,49.316,56.641,0
1512656152.633,48.340,38.086,45.410,52.734,196.777,0
1512656152.637,49.805,38.574,45.898,53.711,68.848,0
1512656152.641,47.852,35.156,46.387,48.828,-62.988,0
1512656152.644,48.828,32.715,48.828,46.875,9.766,0
1512656152.648,51.758,34.180,50.781,47.363,162.598,0
1512656152.652,51.758,34.668,53.711,47.852,118.164,0
1512656152.656,47.852,33.203,52.734,44.922,-36.133,0
1512656152.660,45.898,29.297,45.410,41.504,-39.062,0
1512656152.664,49.805,30.273,44.922,43.457,81.543,0
1512656152.668,45.410,31.738,39.062,44.922,62.500,0
1512656152.672,40.039,31.250,32.715,41.016,-82.520,0
1512656152.676,42.969,31.738,42.480,39.551,-104.980,0
1512656152.680,43.945,30.762,42.969,42.969,49.316,0
1512656152.684,41.016,33.691,41.504,41.992,155.762,0
1512656152.687,41.992,39.551,43.457,42.480,32.715,0
1512656152.691,40.527,41.992,40.527,43.945,-118.652,0
1512656152.695,34.668,42.480,41.992,41.016,-34.180,0
1512656152.699,32.227,40.527,45.410,36.621,94.727,0
1512656152.703,27.344,39.551,42.969,34.180,12.207,0
1512656152.707,26.855,42.480,44.922,38.086,-142.578,0
1512656152.711,30.273,42.969,47.363,41.992,-116.211,0
1512656152.715,30.273,41.016,47.363,39.551,48.828,0
1512656152.719,27.832,40.039,46.875,39.551,61.523,0
1512656152.723,26.855,43.457,45.898,40.527,-106.445,0
1512656152.727,27.832,46.387,45.898,41.992,-90.820,0
1512656152.730,26.367,43.457,35.645,41.016,89.355,0
1512656152.734,22.949,41.504,33.203,36.621,97.168,0
1512656152.738,20.020,43.945,47.852,36.621,-66.895,0
1512656152.742,21.973,49.805,46.387,36.133,-116.699,0
1512656152.746,22.461,51.270,39.062,32.227,11.719,0
1512656152.750,22.949,54.199,37.598,31.250,80.566,0
1512656152.754,26.855,58.594,35.645,31.250,-38.574,0
1512656152.758,28.809,59.082,34.668,29.297,-174.805,0
1512656152.762,32.715,62.012,32.715,30.273,-96.680,0
1512656152.766,35.645,65.430,31.738,33.203,62.012,0
1512656152.769,36.621,70.312,26.855,35.156,1.953,0
1512656152.773,39.062,71.777,20.996,35.645,-135.742,0
1512656152.777,41.992,74.219,28.320,35.156,-60.547,0
1512656152.781,40.527,73.242,29.785,35.645,86.426,0
1512656152.785,34.180,69.336,27.832,37.109,34.668,0
1512656152.789,27.832,69.336,29.785,32.715,-113.770,0
1512656152.793,27.344,68.359,25.879,28.809,-80.566,0
1512656152.797,28.320,67.871,25.391,31.250,75.684,0
1512656152.801,21.973,69.824,27.832,29.785,74.707,0
1512656152.805,18.555,68.848,25.391,24.414,-77.637,0
1512656152.809,21.973,68.848,26.367,23.926,-128.906,0
1512656152.812,21.484,68.359,24.414,21.484,18.555,0
1512656152.816,20.020,65.918,20.996,21.973,151.855,0
1512656152.820,18.066,63.477,27.344,26.367,48.340,0
1512656152.824,16.602,62.012,28.320,25.879,-104.004,0
1512656152.828,21.484,65.918,27.344,23.926,-26.367,0
1512656152.832,23.926,66.406,27.832,22.949,152.832,0
1512656152.836,21.973,64.941,28.320,20.020,102.539,0
1512656152.840,20.996,64.941,23.926,19.043,-77.148,0
1512656152.844,20.996,63.477,19.531,21.973,-34.668,0
1512656152.848,18.066,63.965,21.484,23.438,110.352,0
1512656152.852,15.625,67.383,22.949,22.949,95.215,0
1512656152.855,13.672,66.406,23.438,23.438,-65.430,0
1512656152.859,13.672,62.988,20.996,20.508,-89.844,0
1512656152.863,15.137,64.941,21.484,20.996,51.758,0
1512656152.867,14.648,64.941,25.879,25.391,116.699,0
1512656152.871,18.066,63.965,24.902,29.785,0.000,0
1512656152.875,22.949,60.059,23.438,32.227,-110.840,0
1512656152.879,24.902,58.105,25.879,30.273,16.602,0
1512656152.883,29.297,57.129,30.273,32.715,166.992,0
1512656152.887,30.762,52.734,31.738,35.156,59.082,0
1512656152.891,33.691,47.852,36.621,37.109,-123.535,0
1512656152.894,37.598,46.875,42.480,39.062,-59.570,0
1512656152.898,38.574,45.410,40.527,40.039,115.723,0
1512656152.902,38.086,40.527,39.062,41.504,66.895,0
1512656152.906,37.598,38.086,37.109,41.016,-90.820,0
1512656152.910,37.598,37.598,36.621,40.039,-58.105,0
1512656152.914,37.598,33.203,38.086,40.527,113.281,0
1512656152.918,40.039,26.367,42.969,45.898,106.934,0
1512656152.922,43.945,24.414,41.016,48.828,-71.289,0
1512656152.926,43.945,23.438,40.527,43.945,-96.680,0
1512656152.930,41.016,20.996,46.387,45.410,58.594,0
1512656152.934,40.527,18.066,48.340,48.340,91.309,0
1512656152.937,39.551,14.160,48.828,46.387,-49.805,0
1512656152.941,41.016,9.766,44.434,42.480,-134.766,0
1512656152.945,37.598,8.789,41.504,41.504,9.766,0
1512656152.949,32.227,7.812,40.039,44.434,127.930,0
1512656152.953,31.738,9.277,40.039,46.387,14.648,0
1512656152.957,28.320,9.277,40.039,44.434,-104.004,0
1512656152.961,31.738,9.277,37.598,41.504,-2.930,0
1512656152.965,34.180,9.277,41.504,39.551,151.367,0
1512656152.969,28.809,8.301,44.434,39.062,90.820,0
1512656152.973,28.809,7.324,42.969,38.086,-37.109,0
1512656152.977,29.297,6.348,43.457,40.039,-17.578,0
1512656152.980,30.762,8.789,43.457,44.434,100.586,0
1512656152.984,33.203,12.207,42.480,47.363,126.953,0
1512656152.988,30.273,12.695,43.457,48.340,-21.973,0
1512656152.992,27.832,11.719,42.480,46.875,-112.793,0
1512656152.996,28.809,10.742,40.039,43.945,-1.465,0
1512656153.000,31.250,12.695,31.250,41.504,86.426,0
1512656153.004,30.762,13.672,31.738,40.039,-29.785,0
1512656153.008,30.273,12.695,38.086,39.551,-164.551,0
1512656153.012,29.785,10.254,33.691,37.598,-87.891,0
1512656153.016,21.484,8.789,28.809,33.691,67.383,0
1512656153.019,15.137,10.742,27.344,31.250,12.695,0
1512656153.023,18.555,11.230,24.902,28.809,-174.805,0
1512656153.027,22.461,12.695,23.926,28.320,-151.855,0
1512656153.031,21.484,13.672,24.414,28.320,51.270,0
1512656153.035,21.484,14.648,23.926,29.297,58.105,0
1512656153.039,20.508,14.160,24.414,31.250,-140.137,0
1512656153.043,19.043,14.648,23.926,28.320,-195.801,0
1512656153.047,16.602,17.090,22.949,22.949,-19.043,0
1512656153.051,14.160,16.602,24.414,20.996,60.059,0
1512656153.055,12.695,15.137,26.367,18.066,-106.934,0
1512656153.059,8.301,12.207,26.855,14.160,-161.133,0
1512656153.062,7.812,11.719,28.320,10.254,-12.695,0
1512656153.066,6.836,9.766,29.297,9.277,92.773,0
1512656153.070,-0.977,5.859,24.902,4.395,-9.766,0
1512656153.074,-8.301,3.906,27.344,-4.395,-126.465,0
1512656153.078,-7.324,0.977,30.762,-5.859,-65.430,0
1512656153.082,-7.324,-2.441,30.762,-5.859,77.148,0
1512656153.086,-12.695,-4.395,31.250,-6.348,32.715,0
1512656153.090,-16.602,-7.812,32.227,-5.859,-133.301,0
1512656153.094,-17.578,-8.789,34.668,-7.324,-71.289,0
1512656153.098,-20.508,-12.695,37.598,-7.812,88.867,0
1512656153.102,-24.414,-17.090,38.574,-12.695,59.082,0
1512656153.105,-28.809,-17.090,36.621,-19.531,-93.262,0
1512656153.109,-31.250,-16.602,34.180,-20.020,-87.891,0
1512656153.113,-29.785,-17.090,38.086,-20.996,62.012,0
1512656153.117,-28.320,-13.672,42.480,-15.625,93.262,0
1512656153.121,-25.879,-13.672,42.969,-6.348,-16.113,0
1512656153.125,-27.344,-14.648,39.551,-4.395,-93.262,0
1512656153.129,-26.855,-14.160,40.527,-3.418,3.906,0
1512656153.133,-25.391,-13.672,44.434,-1.465,107.422,0
1512656153.137,-23.926,-10.742,47.363,-0.488,41.504,0
1512656153.141,-20.996,-8.789,49.805,-0.977,-81.055,0
1512656153.144,-20.996,-8.301,53.711,0.488,-41.504,0
1512656153.148,-21.484,-9.277,49.805,1.465,120.117,0
1512656153.152,-24.414,-10.254,49.805,-3.418,87.891,0
1512656153.156,-29.297,-9.766,54.199,-6.348,-64.453,0
1512656153.160,-29.785,-12.207,51.758,-6.348,-32.227,0
1512656153.164,-27.832,-11.230,50.781,-9.277,100.586,0
1512656153.168,-27.344,-4.395,51.270,-9.766,115.234,0
1512656153.172,-28.809,0.000,49.805,-5.371,-28.809,0
1512656153.176,-25.879,4.395,48.828,-3.906,-108.887,0
1512656153.180,-20.020,10.254,50.781,-1.953,32.715,0
1512656153.184,-14.648,10.742,54.199,2.441,131.836,0
1512656153.187,-11.230,10.254,54.688,6.348,-7.812,0
1512656153.191,-4.395,15.625,53.711,10.742,-114.746,0
1512656153.195,1.953,19.531,55.664,12.207,-4.395,0
1512656153.199,6.348,21.973,59.082,18.555,124.512,0
1512656153.203,13.184,28.809,62.500,29.297,26.367,0
1512656153.207,16.602,31.738,61.035,32.715,-156.250,0
1512656153.211,20.508,31.738,56.641,33.691,-77.148,0
1512656153.215,24.414,35.645,55.176,34.180,78.125,0
1512656153.219,29.297,38.086,55.664,36.621,19.531,0
1512656153.223,30.762,40.039,54.688,37.598,-148.438,0
1512656153.227,32.715,42.969,53.711,39.551,-142.090,0
1512656153.230,36.621,44.922,51.758,41.992,30.273,0
1512656153.234,38.574,43.945,46.387,42.969,57.129,0
1512656153.238,42.969,41.504,44.434,46.875,-102.051,0
1512656153.242,44.922,41.992,42.969,46.875,-147.949,0
1512656153.246,49.316,40.527,42.480,47.363,3.906,0
1512656153.250,51.758,41.992,42.969,51.758,104.980,0
1512656153.254,52.246,44.434,43.457,52.246,-16.602,0
1512656153.258,55.664,42.969,43.457,53.223,-128.418,0
1512656153.262,59.082,43.457,46.387,56.152,-35.156,0
1512656153.266,61.035,47.852,44.922,56.152,73.242,0
1512656153.269,61.523,53.223,43.457,56.152,10.742,0
1512656153.273,61.035,53.223,51.758,54.688,-95.215,0
1512656153.277,57.617,50.293,50.293,51.758,-57.617,0
1512656153.281,57.617,49.316,46.875,52.246,78.125,0
1512656153.285,61.035,50.293,47.852,57.617,62.500,0
1512656153.289,60.059,50.781,45.410,57.617,-88.379,0
1512656153.293,56.152,48.340,44.434,56.152,-86.426,0
1512656153.297,56.152,50.293,43.945,55.664,66.895,0
1512656153.301,54.688,51.758,40.527,49.316,114.258,0
1512656153.305,49.316,48.828,37.109,43.945,-12.695,0
1512656153.309,47.363,50.293,34.668,43.457,-111.328,0
1512656153.312,46.387,51.270,32.715,40.039,-8.301,0
1512656153.316,38.086,48.828,29.297,32.715,97.168,0
1512656153.320,35.645,46.387,26.367,30.762,15.137,0
1512656153.324,37.109,46.387,26.855,29.297,-116.211,0
1512656153.328,36.621,47.852,26.855,25.879,-44.434,0
1512656153.332,36.133,48.340,26.855,28.809,146.484,0
1512656153.336,36.621,52.246,29.297,32.227,84.961,0
1512656153.340,39.062,58.105,26.855,29.297,-125.977,0
1512656153.344,38.086,57.129,18.066,20.508,-71.289,0
1512656153.348,36.621,59.082,12.207,20.020,125.000,0
1512656153.352,35.645,62.988,14.160,23.438,132.812,0
1512656153.355,37.109,63.965,14.648,18.555,-18.066,0
1512656153.359,38.574,65.918,12.207,16.113,-83.496,0
1512656153.363,37.598,68.848,12.207,22.461,22.461,0
1512656153.367,39.062,71.777,14.160,23.926,89.355,0
1512656153.371,39.551,71.777,15.625,21.973,-40.039,0
1512656153.375,35.645,66.895,13.672,19.043,-125.488,0
1512656153.379,33.203,63.477,16.113,20.996,0.488,0
1512656153.383,34.668,62.012,16.602,23.926,116.211,0
1512656153.387,34.180,63.965,16.113,21.484,-18.066,0
1512656153.391,29.785,65.918,16.602,20.508,-166.504,0
1512656153.394,29.297,65.918,14.648,20.996,-71.289,0
1512656153.398,27.344,63.965,14.648,21.973,73.730,0
1512656153.402,23.438,63.477,7.324,16.602,36.133,0
1512656153.406,25.391,61.035,7.812,16.113,-128.906,0
1512656153.410,32.227,57.129,17.578,20.508,-99.121,0
1512656153.414,38.086,58.594,20.020,26.855,43.945,0
1512656153.418,36.133,57.617,20.508,31.250,33.691,0
1512656153.422,32.715,53.711,19.531,28.809,-85.938,0
1512656153.426,34.668,49.316,18.066,27.344,-127.930,0
1512656153.430,37.109,47.852,16.113,28.320,12.695,0
1512656153.434,31.250,49.805,19.531,30.273,83.496,0
1512656153.437,26.855,46.875,19.043,29.297,-50.781,0
1512656153.441,23.438,41.992,20.020,29.297,-145.508,0
1512656153.445,24.414,39.062,22.461,34.180,-27.832,0
1512656153.449,25.879,34.180,24.902,38.086,87.891,0
1512656153.453,25.391,30.762,28.809,34.668,-12.695,0
1512656153.457,28.320,27.344,20.996,28.320,-122.070,0
1512656153.461,27.344,23.926,19.043,29.297,-84.961,0
1512656153.465,22.949,18.555,31.250,33.203,69.336,0
1512656153.469,22.461,12.695,32.715,33.691,89.355,0
1512656153.473,23.438,9.277,31.250,32.227,-64.941,0
1512656153.477,20.020,8.789,33.203,34.180,-55.664,0
1512656153.480,18.555,6.836,36.621,35.156,106.445,0
1512656153.484,19.043,5.371,38.574,33.691,128.906,0
1512656153.488,22.461,6.348,36.133,31.250,-28.809,0
1512656153.492,22.949,4.883,36.621,30.273,-79.590,0
1512656153.496,20.508,0.977,36.621,29.785,66.406,0
1512656153.500,21.484,-0.488,40.039,32.715,145.508,0
1512656153.504,22.949,1.953,41.992,41.992,8.789,0
1512656153.508,24.414,3.906,37.109,38.574,-112.793,0
1512656153.512,26.367,1.465,42.969,35.156,-8.789,0
1512656153.516,31.738,1.953,44.434,41.992,154.297,0
1512656153.519,32.227,1.953,44.434,44.922,71.777,0
1512656153.523,29.297,0.488,45.898,40.039,-96.191,0
1512656153.527,25.879,1.953,44.922,34.668,-46.875,0
1512656153.531,24.414,5.371,44.434,33.691,93.750,0
1512656153.535,23.926,9.766,42.480,33.203,42.480,0
1512656153.539,20.508,11.230,38.574,28.809,-126.953,0
1512656153.543,16.602,11.230,35.156,23.438,-133.789,0
1512656153.547,17.090,10.742,35.645,25.391,-17.090,0
1512656153.551,21.484,12.207,35.156,27.832,0.000,0
1512656153.555,20.996,14.160,33.691,26.855,-140.625,0
1512656153.559,17.578,10.254,31.738,25.879,-188.965,0
1512656153.562,18.555,8.789,33.691,24.414,-70.801,0
1512656153.566,23.926,11.719,36.133,23.926,32.227,0
1512656153.570,25.879,13.184,36.133,24.902,-69.336,0
1512656153.574,27.832,11.230,38.574,24.414,-185.547,0
1512656153.578,31.738,8.301,40.039,26.855,-95.703,0
1512656153.582,31.250,6.348,40.527,34.180,23.438,0
1512656153.586,27.832,6.836,40.039,33.691,-42.969,0
1512656153.590,25.391,5.371,39.551,29.297,-175.293,0
1512656153.594,27.344,2.930,39.551,26.855,-140.625,0
1512656153.598,26.367,4.883,41.016,27.344,6.348,0
1512656153.602,21.484,7.324,36.621,28.809,26.855,0
1512656153.605,21.973,7.812,36.133,25.391,-137.207,0
1512656153.609,21.973,9.766,42.969,20.996,-161.133,0
1512656153.613,18.066,10.742,40.039,18.555,30.762,0
1512656153.617,18.066,12.695,40.039,22.461,99.609,0
1512656153.621,15.625,15.625,41.992,22.949,-40.039,0
1512656153.625,17.578,17.578,40.039,23.926,-138.184,0
1512656153.629,22.461,20.020,37.598,25.391,-3.418,0
1512656153.633,20.020,20.020,38.086,23.926,113.281,0
1512656153.637,20.508,22.461,37.109,28.809,-3.906,0
1512656153.641,24.414,27.832,36.621,28.809,-141.113,0
1512656153.644,27.344,29.297,36.133,30.762,-58.105,0
1512656153.648,33.203,30.273,38.574,38.086,120.605,0
1512656153.652,39.062,36.621,41.992,43.945,98.633,0
1512656153.656,43.945,41.504,41.504,51.758,-77.148,0
1512656153.660,41.992,39.551,39.551,52.246,-37.109,0
1512656153.664,41.992,39.062,41.016,46.875,144.043,0
1512656153.668,40.527,40.039,45.410,45.410,132.324,0
1512656153.672,34.180,37.598,46.875,46.387,-37.598,0
1512656153.676,29.785,36.133,39.551,41.016,-62.012,0
1512656153.680,33.203,36.621,44.434,34.180,84.473,0
1512656153.684,33.691,37.598,48.828,34.668,122.559,0
1512656153.687,28.809,40.527,45.410,39.551,-7.812,0
1512656153.691,19.531,36.133,41.504,32.715,-107.910,0
1512656153.695,20.020,34.180,38.574,25.391,1.953,0
1512656153.699,20.996,31.250,38.574,24.902,127.930,0
1512656153.703,13.184,28.320,36.621,26.367,39.551,0
1512656153.707,12.695,30.762,34.180,21.973,-76.660,0
1512656153.711,14.160,28.320,30.762,15.625,-2.441,0
1512656153.715,9.766,25.879,27.344,17.090,133.301,0
1512656153.719,5.371,25.879,27.832,16.602,97.168,0
1512656153.723,3.906,22.949,27.832,12.695,-38.574,0
1512656153.727,2.930,18.555,24.414,7.324,-39.062,0
1512656153.730,-2.441,14.648,21.973,6.836,91.309,0
1512656153.734,-6.836,12.207,22.949,4.883,115.723,0
1512656153.738,-5.371,11.230,20.020,0.977,-21.484,0
1512656153.742,-3.906,4.395,17.578,-2.930,-102.051,0
1512656153.746,-6.836,-0.488,24.414,-4.883,14.648,0
1512656153.750,-9.277,7.324,24.414,-4.883,123.047,0
1512656153.754,-6.836,12.695,20.996,-9.766,40.527,0
1512656153.758,-7.812,14.648,17.578,-14.160,-77.148,0
1512656153.762,-7.812,15.625,13.184,-18.066,0.977,0
1512656153.766,-9.766,17.090,10.742,-23.926,172.363,0
1512656153.769,-8.789,21.484,11.719,-21.484,107.422,0
1512656153.773,-4.883,23.926,16.602,-14.648,-76.660,0
1512656153.777,1.465,22.461,13.184,-13.184,-63.965,0
1512656153.781,7.812,25.391,9.766,-9.277,71.289,0
1512656153.785,15.625,28.320,11.230,-1.953,91.309,0
1512656153.789,22.461,29.297,13.184,2.441,-48.340,0
1512656153.793,24.414,30.762,12.207,1.953,-81.543,0
1512656153.797,29.785,33.691,11.719,5.859,73.242,0
1512656153.801,32.715,36.621,12.695,21.973,128.418,0
1512656153.805,35.645,37.598,14.160,32.227,-5.859,0
1512656153.809,37.598,41.504,17.578,28.809,-69.824,0
1512656153.812,41.504,45.410,19.531,27.344,71.289,0
1512656153.816,41.992,46.387,17.578,26.855,156.250,0
1512656153.820,39.062,46.387,22.461,29.297,41.016,0
1512656153.824,39.551,44.434,27.832,31.738,-68.848,0
1512656153.828,38.574,47.852,29.785,31.738,6.348,0
1512656153.832,36.621,54.199,33.203,35.156,135.742,0
1512656153.836,37.109,55.176,37.598,39.062,60.547,0
1512656153.840,41.504,52.734,39.062,39.551,-105.469,0
1512656153.844,43.457,51.758,41.016,40.527,-44.434,0
1512656153.848,47.852,52.734,45.410,45.410,104.492,0
1512656153.852,52.246,52.246,51.758,51.270,106.445,0
1512656153.855,52.734,52.246,50.781,60.547,-19.043,0
1512656153.859,54.688,50.781,55.176,68.359,-51.270,0
1512656153.863,59.082,48.828,62.988,69.336,80.566,0
1512656153.867,63.477,51.270,63.477,67.871,114.258,0
1512656153.871,65.430,54.688,69.336,68.359,-20.996,0
1512656153.875,64.453,54.688,68.359,67.383,-91.797,0
1512656153.879,63.477,52.246,64.941,62.988,19.531,0
1512656153.883,65.430,51.758,65.430,64.941,118.652,0
1512656153.887,66.895,53.223,66.406,69.824,46.875,0
1512656153.891,68.359,53.223,64.941,69.824,-92.285,0
1512656153.894,66.895,53.223,60.059,65.918,-25.879,0
1512656153.898,64.453,55.176,59.082,65.430,166.016,0
1512656153.902,61.523,56.152,59.082,65.918,141.113,0
1512656153.906,60.059,58.105,56.152,63.965,-42.969,0
1512656153.910,61.523,58.105,51.758,59.570,-39.551,0
1512656153.914,58.594,56.152,50.781,51.758,162.598,0
1512656153.918,51.270,56.641,51.270,47.363,173.828,0
1512656153.922,41.016,56.152,47.852,41.016,-13.672,0
1512656153.926,32.227,54.199,43.457,35.645,-49.805,0
1512656153.930,29.785,51.758,42.480,35.645,93.750,0
1512656153.934,28.320,51.758,43.457,35.645,169.434,0
1512656153.937,24.414,50.293,41.504,32.227,55.176,0
1512656153.941,28.320,46.387,36.621,30.273,-59.570,0
1512656153.945,33.203,42.969,30.762,34.180,38.086,0
1512656153.949,31.250,41.992,40.039,39.062,185.547,0
1512656153.953,30.273,42.969,48.828,42.480,75.684,0
1512656153.957,32.715,40.039,46.387,43.945,-107.422,0
1512656153.961,34.180,35.645,46.875,43.457,-29.297,0
1512656153.965,36.621,34.180,44.922,44.922,131.836,0
1512656153.969,38.086,33.203,43.457,47.852,92.773,0
1512656153.973,36.621,30.762,44.434,49.805,-68.359,0
1512656153.977,39.551,31.250,43.945,53.711,-63.965,0
1512656153.980,43.457,33.691,42.480,55.664,91.309,0
1512656153.984,45.898,36.621,41.016,55.176,82.520,0
1512656153.988,47.363,32.715,40.039,53.223,-53.711,0
1512656153.992,41.992,28.809,39.062,48.340,-68.848,0
1512656153.996,35.645,27.344,39.551,45.898,36.621,0
1512656154.000,33.691,27.832,39.551,42.969,119.141,0
1512656154.004,36.133,24.902,40.039,39.551,18.555,0
1512656154.008,33.691,15.137,39.551,35.645,-100.098,0
1512656154.012,31.738,7.812,37.598,36.621,-28.320,0
1512656154.016,32.227,7.812,36.133,41.016,120.605,0
1512656154.019,30.273,8.301,34.180,37.598,61.035,0
1512656154.023,30.273,10.254,33.203,32.227,-106.934,0
1512656154.027,32.715,12.207,34.180,32.715,-41.504,0
1512656154.031,33.691,12.695,31.738,31.738,66.895,0
1512656154.035,28.809,15.625,29.785,29.297,48.340,0
1512656154.039,29.297,16.113,32.715,30.273,-49.805,0
1512656154.043,32.227,16.602,32.227,33.691,-86.914,0
1512656154.047,26.855,17.578,34.668,31.250,59.570,0
1512656154.051,23.438,19.043,35.156,27.344,116.699,0
1512656154.055,24.414,19.531,33.691,24.902,-39.062,0
1512656154.059,22.461,21.484,34.180,23.438,-106.934,0
1512656154.062,20.508,20.508,35.645,21.973,10.254,0
1512656154.066,17.090,17.578,27.344,20.020,120.117,0
1512656154.070,9.277,18.555,26.855,16.602,40.527,0
1512656154.074,7.324,18.066,39.551,13.672,-83.008,0
1512656154.078,4.883,15.137,39.551,7.812,-9.277,0
1512656154.082,-0.977,11.719,40.527,2.930,116.211,0
1512656154.086,-2.930,9.277,44.434,3.418,72.266,0
1512656154.090,-2.930,5.371,42.969,0.000,-84.961,0
1512656154.094,-3.906,3.418,43.945,-0.488,-31.250,0
1512656154.098,-1.953,3.418,42.480,3.418,169.922,0
1512656154.102,0.000,0.977,40.527,8.789,141.113,0
1512656154.105,-2.441,0.000,41.992,12.695,-47.363,0
1512656154.109,1.465,1.953,43.945,15.137,-60.059,0
1512656154.113,7.324,2.930,46.875,18.066,101.562,0
1512656154.117,9.277,3.906,45.898,20.508,157.227,0
1512656154.121,12.695,4.883,46.387,24.414,5.859,0
1512656154.125,15.137,4.883,48.828,24.414,-56.152,0
1512656154.129,19.043,6.348,46.875,25.879,80.078,0
1512656154.133,20.996,8.301,40.527,24.414,141.602,0
1512656154.137,22.949,13.672,41.992,23.438,43.457,0
1512656154.141,29.297,16.602,44.922,27.832,-62.012,0
1512656154.144,29.297,15.137,44.922,31.738,0.000,0
1512656154.148,30.273,20.996,46.387,34.180,108.398,0
1512656154.152,34.180,27.344,46.875,36.621,38.086,0
1512656154.156,35.645,28.320,46.387,39.062,-120.605,0
1512656154.160,39.551,30.273,47.363,41.504,-51.270,0
1512656154.164,41.016,33.203,50.293,42.969,89.844,0
1512656154.168,36.133,31.738,49.805,43.457,77.148,0
1512656154.172,32.227,30.762,47.852,39.062,-47.852,0
1512656154.176,28.320,29.297,48.340,34.668,-65.918,0
1512656154.180,24.902,26.855,50.293,36.133,81.055,0
1512656154.184,25.879,24.902,48.828,35.156,123.047,0
1512656154.187,22.461,22.461,43.457,31.250,3.418,0
1512656154.191,18.066,20.508,40.527,28.809,-87.891,0
1512656154.195,21.484,20.508,40.527,27.344,52.734,0
1512656154.199,21.973,21.973,40.039,24.902,201.172,0
1512656154.203,15.625,19.043,35.645,22.949,85.938,0
1512656154.207,12.695,16.602,33.203,25.391,-63.477,0
1512656154.211,17.090,17.090,30.273,23.438,-20.020,0
1512656154.215,20.020,17.578,28.320,22.949,112.793,0
1512656154.219,15.625,16.602,27.344,22.949,116.699,0
1512656154.223,19.531,18.066,26.855,20.508,-22.461,0
1512656154.227,27.344,22.461,27.832,21.973,-43.945,0
1512656154.230,26.855,24.414,25.879,22.461,125.488,0
1512656154.234,27.832,25.879,21.973,24.902,182.617,0
1512656154.238,31.738,30.762,14.648,30.762,21.973,0
1512656154.242,42.969,35.645,16.113,31.250,-36.621,0
1512656154.246,54.199,37.109,15.137,28.809,90.332,0
1512656154.250,63.477,38.086,7.324,29.785,193.359,0
1512656154.254,71.289,37.109,6.348,32.227,92.773,0
1512656154.258,72.266,36.621,4.883,33.691,-60.547,0
1512656154.262,74.707,39.551,5.371,31.738,57.617,0
1512656154.266,77.637,39.551,5.859,30.273,200.684,0
1512656154.269,79.590,36.621,6.836,31.250,103.516,0
1512656154.273,81.055,33.691,8.301,28.320,-31.738,0
1512656154.277,83.008,34.180,7.324,24.414,46.387,0
1512656154.281,88.379,36.133,7.324,27.344,180.664,0
1512656154.285,94.238,36.621,7.812,28.320,154.785,0
1512656154.289,100.098,36.133,8.789,25.879,-6.836,0
1512656154.293,107.422,33.691,11.719,26.367,-2.930,0
1512656154.297,112.305,33.691,16.113,30.762,152.344,0
1512656154.301,113.281,34.668,16.113,31.738,118.164,0
1512656154.305,114.258,32.227,13.672,32.227,-24.414,0
1512656154.309,110.352,27.832,15.137,33.203,-47.363,0
1512656154.312,106.934,25.879,15.137,29.297,60.059,0
1512656154.316,100.586,27.344,14.648,21.484,154.297,0
1512656154.320,93.750,28.809,11.719,14.648,46.875,0
1512656154.324,94.238,30.762,12.207,12.207,-85.449,0
1512656154.328,92.285,34.668,14.160,11.230,-15.137,0
1512656154.332,94.238,38.574,15.137,14.160,118.164,0
1512656154.336,100.098,41.504,15.625,18.066,66.895,0
1512656154.340,102.051,41.992,13.184,19.531,-83.008,0
1512656154.344,99.121,38.086,11.230,19.043,-67.871,0
1512656154.348,92.285,39.062,11.230,21.973,81.055,0
1512656154.352,89.355,41.992,18.066,28.809,84.473,0
1512656154.355,83.984,39.062,22.949,31.250,-62.988,0
1512656154.359,76.660,38.086,21.484,33.203,-99.609,0
1512656154.363,70.312,36.133,23.926,31.738,51.270,0
1512656154.367,62.500,32.715,27.832,31.738,115.723,0
1512656154.371,56.641,33.203,26.855,35.156,-11.230,0
1512656154.375,52.246,35.645,26.367,30.762,-88.379,0
1512656154.379,49.316,38.574,24.414,32.227,24.902,0
1512656154.383,48.340,40.039,20.508,38.086,150.391,0
1512656154.387,47.363,41.504,19.043,38.574,54.199,0
1512656154.391,43.945,41.016,20.508,37.598,-87.891,0
1512656154.394,41.504,39.551,21.484,34.668,-5.371,0
1512656154.398,41.504,42.480,23.926,41.992,156.738,0
1512656154.402,40.039,43.945,25.391,44.922,110.840,0
1512656154.406,40.527,42.969,27.344,45.898,-67.871,0
1512656154.410,37.598,40.527,27.344,49.805,-47.852,0
1512656154.414,36.133,40.527,27.832,49.316,165.039,0
1512656154.418,40.039,41.992,32.227,48.828,181.641,0
1512656154.422,38.086,42.480,34.180,46.387,8.789,0
1512656154.426,37.109,41.016,34.180,44.922,-22.949,0
1512656154.430,34.668,39.551,31.738,45.410,116.211,0
1512656154.434,28.809,37.109,28.809,43.945,192.871,0
1512656154.437,23.438,33.203,26.855,38.574,46.387,0
1512656154.441,17.090,31.250,21.973,33.691,-52.246,0
1512656154.445,14.160,25.879,20.020,30.273,86.426,0
1512656154.449,14.160,21.484,20.996,29.297,199.219,0
1512656154.453,5.859,20.020,21.973,28.320,84.961,0
1512656154.457,0.000,17.090,23.926,27.344,-51.270,0
1512656154.461,-1.953,11.230,26.367,25.879,35.156,0
1512656154.465,-5.859,3.906,25.391,21.484,143.555,0
1512656154.469,-6.348,1.953,21.484,18.555,81.543,0
1512656154.473,-7.812,1.953,22.949,17.090,-35.156,0
1512656154.477,-11.230,-1.953,23.926,14.648,-32.227,0
1512656154.480,-8.789,0.977,25.879,17.578,106.934,0
1512656154.484,-4.395,5.371,27.832,22.949,128.906,0
1512656154.488,-4.395,6.836,29.297,24.902,-15.625,0
1512656154.492,-1.465,5.371,31.738,24.414,-52.734,0
1512656154.496,0.000,4.883,30.273,25.879,50.293,0
1512656154.500,1.465,8.301,29.297,28.320,131.836,0
1512656154.504,2.441,8.789,29.785,27.832,35.156,0
1512656154.508,0.977,9.277,28.320,27.832,-99.609,0
1512656154.512,-0.977,12.695,25.879,30.273,3.906,0
1512656154.516,1.465,16.602,28.809,32.227,153.320,0
1512656154.519,7.324,19.043,30.762,35.156,62.988,0
1512656154.523,10.742,19.043,27.832,38.574,-117.676,0
1512656154.527,10.254,19.043,28.320,32.715,-61.035,0
1512656154.531,10.742,17.090,32.227,34.668,127.930,0
1512656154.535,6.348,18.555,34.180,36.621,88.379,0
1512656154.539,0.977,20.508,28.809,25.879,-104.492,0
1512656154.543,3.906,20.508,27.832,18.555,-100.586,0
1512656154.547,4.883,21.484,23.926,16.602,88.379,0
1512656154.551,4.883,21.973,19.531,22.949,146.973,0
1512656154.555,7.812,25.879,27.344,27.832,9.277,0
1512656154.559,8.301,30.273,26.855,26.367,-71.289,0
1512656154.562,9.277,30.762,23.926,25.391,68.848,0
1512656154.566,10.742,32.227,23.438,27.344,177.246,0
1512656154.570,12.207,31.738,20.996,26.855,54.688,0
1512656154.574,14.648,28.809,19.531,26.367,-74.219,0
1512656154.578,11.230,29.297,19.531,29.785,27.344,0
1512656154.582,7.324,29.297,18.555,30.273,185.059,0
1512656154.586,8.301,29.297,16.113,24.902,99.609,0
1512656154.590,10.742,29.785,15.625,21.973,-35.156,0
1512656154.594,12.695,31.250,17.578,23.926,17.578,0
1512656154.598,11.719,27.832,18.555,23.438,157.227,0
1512656154.602,7.812,21.973,18.555,20.508,143.555,0
1512656154.605,7.324,19.531,18.066,17.090,-29.785,0
1512656154.609,6.348,20.508,20.020,17.090,-55.664,0
1512656154.613,5.859,20.508,24.414,17.090,91.797,0
1512656154.617,5.371,18.555,26.367,17.578,112.305,0
1512656154.621,4.883,15.625,25.879,19.043,-39.062,0
1512656154.625,8.301,14.160,27.344,19.531,-120.605,0
1512656154.629,7.324,14.160,27.344,18.555,0.000,0
1512656154.633,1.953,12.695,27.832,19.043,105.957,0
1512656154.637,1.953,11.719,32.227,19.531,22.461,0
1512656154.641,4.883,10.742,35.156,20.508,-107.910,0
1512656154.644,4.883,8.301,35.156,23.926,-50.781,0
1512656154.648,7.812,8.301,37.109,24.414,107.422,0
1512656154.652,13.184,11.230,34.180,27.832,80.078,0
1512656154.656,10.254,8.789,36.621,29.785,-68.359,0
1512656154.660,3.906,4.883,43.457,26.367,-37.109,0
1512656154.664,3.906,7.324,40.039,24.414,123.535,0
1512656154.668,4.395,4.883,40.527,23.438,113.281,0
1512656154.672,1.953,3.906,43.457,24.902,-31.738,0
1512656154.676,1.953,5.859,42.969,23.438,-92.285,0
1512656154.680,4.395,6.836,41.992,20.996,31.738,0
1512656154.684,8.789,9.277,40.527,21.484,127.441,0
1512656154.687,15.137,12.207,41.992,25.879,-21.484,0
1512656154.691,17.578,11.230,39.551,24.902,-151.367,0
1512656154.695,17.090,10.742,35.645,19.043,-38.574,0
1512656154.699,23.438,12.695,35.645,20.508,94.727,0
1512656154.703,29.785,15.137,33.203,26.855,9.766,0
1512656154.707,30.762,16.113,31.250,27.344,-126.953,0
1512656154.711,26.855,13.184,31.738,20.996,-13.184,0
1512656154.715,24.902,14.160,29.785,18.066,150.879,0
1512656154.719,22.949,14.160,27.344,17.578,74.707,0
1512656154.723,20.996,14.648,23.926,12.207,-106.934,0
1512656154.727,21.484,18.066,21.484,7.812,-35.645,0
1512656154.730,24.902,18.066,20.508,9.766,155.762,0
1512656154.734,25.879,16.602,23.438,13.672,126.465,0
1512656154.738,25.391,20.508,23.926,12.695,-52.734,0
1512656154.742,26.855,20.996,20.996,10.254,-76.660,0
1512656154.746,28.320,20.996,27.344,11.230,77.148,0
1512656154.750,30.762,26.367,29.297,12.695,141.113,0
1512656154.754,29.297,27.832,23.438,9.766,12.695,0
1512656154.758,28.809,25.391,21.484,4.883,-93.262,0
1512656154.762,31.738,25.391,21.484,-0.488,-12.695,0
1512656154.766,27.344,25.391,21.484,-5.371,114.258,0
1512656154.769,20.508,24.414,22.461,-6.836,36.133,0
1512656154.773,20.508,22.949,22.461,-6.836,-122.559,0
1512656154.777,23.926,24.414,26.367,-1.953,-74.219,0
1512656154.781,27.344,24.902,31.250,5.371,70.312,0
1512656154.785,25.879,24.414,36.621,6.348,56.641,0
1512656154.789,26.855,23.438,34.668,11.230,-65.918,0
1512656154.793,35.156,22.461,36.621,20.020,-70.312,0
1512656154.797,39.062,21.484,43.457,22.461,68.848,0
1512656154.801,35.645,20.996,41.504,22.949,119.141,0
1512656154.805,39.062,21.973,40.527,23.438,-45.898,0
1512656154.809,43.457,24.902,39.062,21.973,-110.840,0
1512656154.812,37.598,24.414,39.062,18.066,55.664,0
1512656154.816,30.273,23.438,41.504,14.648,138.184,0
1512656154.820,29.785,26.367,45.898,20.020,27.344,0
1512656154.824,29.297,24.902,50.781,22.949,-101.562,0
1512656154.828,24.414,20.020,51.758,19.531,-36.621,0
1512656154.832,23.926,19.531,53.223,19.043,115.234,0
1512656154.836,24.414,24.414,54.199,18.066,73.730,0
1512656154.840,29.297,25.879,53.711,19.531,-64.453,0
1512656154.844,32.227,26.855,55.176,23.438,-39.062,0
1512656154.848,28.320,28.320,54.688,23.438,125.977,0
1512656154.852,30.273,28.809,52.246,20.996,87.402,0
1512656154.855,34.180,29.785,51.758,27.344,-91.309,0
1512656154.859,38.086,31.738,48.828,32.227,-89.355,0
1512656154.863,41.504,31.250,46.387,32.715,39.551,0
1512656154.867,41.992,28.809,47.852,35.156,100.586,0
1512656154.871,40.039,30.273,47.363,35.156,-39.551,0
1512656154.875,41.016,29.785,44.434,28.809,-137.207,0
1512656154.879,45.898,30.273,37.109,27.832,13.184,0
1512656154.883,45.410,30.273,38.086,30.273,110.840,0
1512656154.887,42.969,28.320,45.898,31.250,-2.930,0
1512656154.891,41.016,26.855,41.016,31.738,-121.094,0
1512656154.894,42.969,27.344,36.621,31.250,-9.277,0
1512656154.898,44.434,29.785,34.668,33.203,146.484,0
1512656154.902,40.527,30.762,32.227,34.180,71.289,0
1512656154.906,37.598,29.297,29.785,33.691,-94.727,0
1512656154.910,37.109,28.320,29.297,32.715,-61.523,0
1512656154.914,37.598,31.738,31.250,36.133,91.797,0
1512656154.918,35.156,36.621,30.762,40.039,82.520,0
1512656154.922,30.273,37.598,28.809,41.504,-77.148,0
1512656154.926,27.344,38.574,28.809,43.457,-86.426,0
1512656154.930,27.832,40.039,24.902,45.898,70.312,0
1512656154.934,23.926,38.086,25.879,41.016,97.656,0
1512656154.937,21.484,35.156,27.344,35.156,-28.809,0
1512656154.941,22.461,34.180,23.926,33.691,-125.977,0
1512656154.945,19.043,34.668,22.949,30.762,-10.254,0
1512656154.949,20.020,38.086,24.902,31.250,126.465,0
1512656154.953,21.484,40.527,23.438,32.715,17.090,0
1512656154.957,20.508,37.598,18.555,32.715,-119.141,0
1512656154.961,23.438,39.551,21.484,33.691,-81.543,0
1512656154.965,22.461,41.992,19.043,30.273,51.270,0
1512656154.969,19.043,40.527,15.625,31.250,64.941,0
1512656154.973,17.578,37.109,16.113,31.250,-98.145,0
1512656154.977,17.090,38.086,16.113,27.832,-83.496,0
1512656154.980,17.090,38.086,20.508,34.180,111.328,0
1512656154.984,18.066,38.574,25.391,40.527,146.484,0
1512656154.988,16.602,38.574,23.926,40.039,-29.297,0
1512656154.992,15.625,36.133,21.973,37.109,-62.988,0
1512656154.996,14.648,33.691,25.391,33.691,110.840,0
1512656155.000,11.230,33.203,27.832,37.598,166.504,0
1512656155.004,9.766,32.715,28.809,34.180,11.230,0
1512656155.008,11.230,32.227,21.484,26.855,-88.379,0
1512656155.012,12.207,31.250,20.996,30.273,46.387,0
1512656155.016,14.160,31.250,30.273,33.203,172.852,0
1512656155.019,17.090,31.738,28.809,33.691,78.613,0
1512656155.023,19.043,27.344,24.902,32.227,-74.219,0
1512656155.027,22.461,19.043,22.461,32.715,-32.715,0
1512656155.031,23.926,15.625,25.879,37.598,133.789,0
1512656155.035,23.438,17.578,27.344,41.504,86.914,0
1512656155.039,25.879,18.555,23.926,39.062,-96.191,0
1512656155.043,24.414,17.090,26.367,37.598,-91.309,0
1512656155.047,21.973,16.113,29.785,40.527,41.992,0
1512656155.051,24.414,19.043,28.320,42.480,71.777,0
1512656155.055,25.879,20.508,25.879,39.551,-102.051,0
1512656155.059,26.855,21.973,24.414,39.062,-147.949,0
1512656155.062,24.414,20.996,26.367,40.039,12.695,0
1512656155.066,20.508,19.043,27.344,37.598,96.680,0
1512656155.070,18.555,23.926,26.855,32.715,-9.277,0
1512656155.074,21.484,28.320,25.879,33.691,-138.184,0
1512656155.078,24.902,29.297,26.855,37.109,-62.988,0
1512656155.082,26.855,31.250,25.879,38.574,70.312,0
1512656155.086,31.738,35.645,27.344,39.551,6.836,0
1512656155.090,37.598,39.551,30.762,45.410,-140.625,0
1512656155.094,39.551,37.109,29.297,51.270,-106.934,0
1512656155.098,40.039,35.645,31.250,48.340,34.180,0
1512656155.102,41.016,40.039,33.691,44.922,16.113,0
1512656155.105,40.527,42.969,29.297,43.945,-123.047,0
1512656155.109,42.969,45.410,23.926,44.434,-133.301,0
1512656155.113,42.480,47.852,30.273,43.945,-15.137,0
1512656155.117,38.574,47.852,36.621,43.945,76.172,0
1512656155.121,37.109,47.363,34.668,44.922,-22.949,0
1512656155.125,33.691,43.945,29.785,40.039,-123.047,0
1512656155.129,29.785,40.039,29.785,37.109,-19.531,0
1512656155.133,28.320,40.039,28.320,37.598,106.445,0
1512656155.137,28.809,42.480,30.273,35.645,41.992,0
1512656155.141,24.414,42.969,31.738,37.109,-113.281,0
1512656155.144,21.484,42.480,29.297,38.574,-70.801,0
1512656155.148,22.461,44.922,29.785,34.668,104.492,0
1512656155.152,21.484,46.387,28.320,36.621,72.266,0
1512656155.156,20.996,43.945,25.391,35.645,-134.766,0
1512656155.160,20.020,43.457,25.391,27.832,-92.285,0
1512656155.164,23.438,45.410,28.320,29.297,138.184,0
1512656155.168,23.438,43.945,27.344,34.668,116.699,0
1512656155.172,22.461,47.363,24.414,39.551,-62.988,0
1512656155.176,22.949,47.852,20.508,37.598,-63.477,0
1512656155.180,22.461,45.410,20.996,34.668,129.883,0
1512656155.184,25.391,48.340,22.461,35.645,190.918,0
1512656155.187,22.949,48.828,18.066,29.785,24.902,0
1512656155.191,20.508,46.387,13.672,26.855,-62.988,0
1512656155.195,22.461,45.410,13.184,28.809,61.523,0
1512656155.199,20.508,46.875,13.184,27.344,152.344,0
1512656155.203,17.090,45.898,13.672,26.367,34.180,0
1512656155.207,17.578,43.945,12.207,24.414,-80.078,0
1512656155.211,24.902,42.969,9.277,23.926,18.066,0
1512656155.215,27.344,40.527,11.230,26.367,149.414,0
1512656155.219,23.926,40.039,7.812,27.832,105.957,0
1512656155.223,23.926,40.039,11.230,29.297,-1.465,0
1512656155.227,27.832,37.109,22.949,30.762,21.484,0
1512656155.230,29.297,37.598,21.973,30.273,160.645,0
1512656155.234,23.926,36.621,19.531,28.320,158.691,0
1512656155.238,21.484,34.180,19.043,25.391,-2.441,0
1512656155.242,22.949,32.715,20.508,23.926,-21.973,0
1512656155.246,18.066,29.297,18.555,20.508,70.312,0
1512656155.250,17.090,28.809,21.973,18.066,124.023,0
1512656155.254,15.625,27.832,24.902,17.578,37.109,0
1512656155.258,10.742,23.926,25.391,18.066,-111.328,0
1512656155.262,9.766,21.973,29.297,17.090,-28.809,0
1512656155.266,10.742,20.508,31.738,15.137,110.840,0
1512656155.269,13.184,21.973,34.668,19.043,58.594,0
1512656155.273,17.090,22.461,36.133,21.484,-97.656,0
1512656155.277,16.602,20.996,36.133,18.555,-91.309,0
1512656155.281,14.160,20.508,36.133,20.020,92.285,0
1512656155.285,12.695,18.555,36.133,19.043,68.359,0
1512656155.289,15.137,22.461,39.062,15.137,-110.840,0
1512656155.293,15.137,24.902,31.738,12.207,-150.391,0
1512656155.297,11.230,27.344,32.227,17.578,3.418,0
1512656155.301,11.230,30.273,43.457,21.973,80.078,0
1512656155.305,12.695,29.785,41.016,19.531,-58.105,0
1512656155.309,9.766,29.297,38.086,10.742,-142.090,0
1512656155.312,6.836,31.250,37.598,6.836,24.414,0
1512656155.316,7.324,29.785,40.039,12.207,129.883,0
1512656155.320,5.371,25.879,41.504,11.230,-6.348,0
1512656155.324,7.324,27.832,43.945,9.277,-117.676,0
1512656155.328,8.789,29.785,44.922,9.277,-7.812,0
1512656155.332,4.395,24.902,43.457,6.836,166.016,0
1512656155.336,2.441,23.926,43.457,7.324,85.938,0
1512656155.340,0.488,22.949,44.434,4.395,-77.637,0
1512656155.344,-0.977,20.996,47.363,3.906,20.020,0
1512656155.348,0.977,20.020,46.875,6.348,162.109,0
1512656155.352,0.977,17.578,45.898,8.301,132.324,0
1512656155.355,3.418,14.648,46.387,10.742,16.602,0
1512656155.359,6.836,11.719,44.434,11.719,4.395,0
1512656155.363,9.277,11.230,46.387,15.137,129.395,0
1512656155.367,8.789,12.207,47.363,17.578,165.527,0
1512656155.371,11.230,13.672,43.457,16.602,23.438,0
1512656155.375,15.137,12.695,41.992,17.578,-36.133,0
1512656155.379,13.184,11.719,40.527,22.461,73.242,0
1512656155.383,10.254,11.230,37.109,21.484,136.719,0
1512656155.387,10.742,13.672,36.133,21.973,33.691,0
1512656155.391,12.695,14.160,36.621,28.320,-77.148,0
1512656155.394,14.160,15.137,35.645,29.785,-39.551,0
1512656155.398,17.578,19.531,34.180,28.320,93.750,0
1512656155.402,16.602,20.020,35.645,26.855,56.641,0
1512656155.406,15.625,22.949,35.645,26.855,-136.719,0
1512656155.410,16.113,23.926,32.715,27.832,-97.656,0
1512656155.414,22.461,27.344,30.273,26.367,57.129,0
1512656155.418,25.879,33.691,24.902,27.344,41.504,0
1512656155.422,27.344,37.598,22.949,28.809,-124.023,0
1512656155.426,27.832,38.574,23.926,22.461,-180.176,0
1512656155.430,25.879,40.039,20.020,22.949,-30.273,0
1512656155.434,26.855,41.992,19.043,26.855,54.199,0
1512656155.437,23.926,42.480,19.043,22.949,-75.684,0
1512656155.441,23.438,43.945,18.555,20.996,-195.312,0
1512656155.445,23.926,45.898,17.090,20.508,-79.102,0
1512656155.449,21.973,47.363,13.672,21.973,69.824,0
1512656155.453,20.020,50.781,11.719,22.461,-16.113,0
1512656155.457,17.578,51.758,9.277,14.648,-165.039,0
1512656155.461,20.508,52.734,10.254,12.695,-80.078,0
1512656155.465,23.926,57.617,11.719,17.578,87.402,0
1512656155.469,27.344,59.082,10.254,23.926,31.738,0
1512656155.473,34.668,59.570,11.230,31.250,-147.461,0
1512656155.477,41.992,62.012,11.719,33.691,-103.516,0
1512656155.480,41.504,64.453,4.395,33.203,109.863,0
1512656155.484,43.945,66.406,0.977,39.551,102.051,0
1512656155.488,48.340,69.336,3.418,41.992,-103.027,0
1512656155.492,47.852,70.312,6.348,40.039,-107.910,0
1512656155.496,49.805,69.336,8.789,40.527,71.289,0
1512656155.500,52.246,70.801,8.789,42.969,161.133,0
1512656155.504,52.734,71.289,8.789,44.434,35.645,0
1512656155.508,53.223,71.289,6.836,43.945,-72.754,0
1512656155.512,55.176,70.312,9.277,44.922,36.133,0
1512656155.516,54.688,66.895,12.695,42.480,158.691,0
1512656155.519,49.805,64.941,12.695,40.527,61.523,0
1512656155.523,46.387,64.453,11.719,41.016,-47.852,0
1512656155.527,40.527,61.523,11.719,38.574,40.527,0
1512656155.531,38.086,60.547,11.719,35.645,170.898,0
1512656155.535,39.551,63.965,12.695,35.645,147.461,0
1512656155.539,37.109,64.941,14.648,31.250,-8.301,0
1512656155.543,35.645,60.059,16.602,29.785,-35.156,0
1512656155.547,35.645,56.641,17.090,32.227,93.262,0
1512656155.551,34.180,58.594,18.555,29.785,127.441,0
1512656155.555,32.715,54.199,20.508,32.715,-4.883,0
1512656155.559,34.668,50.293,19.043,37.598,-77.148,0
1512656155.562,30.762,47.852,20.020,38.086,54.199,0
1512656155.566,28.320,45.410,20.996,34.668,141.113,0
1512656155.570,30.273,49.805,26.367,33.203,30.762,0
1512656155.574,26.855,50.293,29.297,36.133,-101.074,0
1512656155.578,24.414,47.363,22.949,34.668,-31.738,0
1512656155.582,23.438,43.945,20.020,28.809,124.512,0
1512656155.586,21.973,41.992,23.926,27.344,75.684,0
1512656155.590,24.902,40.527,19.531,30.762,-104.492,0
1512656155.594,26.367,37.109,18.555,28.320,-89.844,0
1512656155.598,22.949,37.598,26.367,24.414,92.285,0
1512656155.602,21.973,35.645,24.902,24.902,81.543,0
1512656155.605,23.926,34.180,21.973,24.902,-74.707,0
1512656155.609,22.461,34.668,22.461,22.949,-79.102,0
1512656155.613,21.973,36.133,22.461,22.461,62.988,0
1512656155.617,23.438,37.109,24.414,25.879,110.352,0
1512656155.621,22.949,36.621,23.926,26.367,-37.109,0
1512656155.625,20.508,36.133,22.461,25.879,-122.559,0
1512656155.629,21.973,38.574,23.438,22.949,44.922,0
1512656155.633,24.902,40.039,24.902,25.879,142.578,0
1512656155.637,25.391,41.504,28.320,34.180,29.785,0
1512656155.641,24.414,45.410,28.809,32.715,-110.840,0
1512656155.644,23.438,47.852,26.367,28.809,-44.434,0
1512656155.648,21.484,45.410,26.367,25.391,124.023,0
1512656155.652,17.578,43.457,25.879,22.949,83.008,0
1512656155.656,15.625,43.945,22.949,22.949,-93.262,0
1512656155.660,19.531,45.898,20.996,22.461,-80.566,0
1512656155.664,15.625,45.410,18.555,19.043,68.359,0
1512656155.668,13.184,42.480,19.043,18.066,50.293,0
1512656155.672,18.555,42.969,19.531,15.625,-80.078,0
1512656155.676,21.484,42.480,17.090,14.648,-81.543,0
1512656155.680,24.414,42.480,17.090,17.090,60.547,0
1512656155.684,25.879,45.898,17.090,19.043,101.562,0
1512656155.687,21.484,47.363,20.020,20.020,-11.719,0
1512656155.691,19.043,44.434,20.508,19.531,-109.863,0
1512656155.695,17.578,44.922,18.066,18.555,22.461,0
1512656155.699,18.555,41.992,15.625,18.555,144.531,0
1512656155.703,19.043,37.598,14.160,20.020,50.293,0
1512656155.707,18.555,39.062,17.578,19.531,-71.289,0
1512656155.711,18.066,38.086,19.531,16.602,-49.316,0
1512656155.715,19.043,38.086,20.996,17.578,96.680,0
1512656155.719,16.602,38.086,21.484,18.066,103.516,0
1512656155.723,9.277,36.621,20.020,17.578,-52.734,0
1512656155.727,10.254,36.133,21.973,19.043,-40.039,0
1512656155.730,14.160,36.621,22.461,17.090,128.906,0
1512656155.734,14.160,36.133,20.996,15.137,125.977,0
1512656155.738,11.719,33.203,20.020,15.137,-22.461,0
1512656155.742,11.230,30.762,19.531,12.207,-57.129,0
1512656155.746,11.719,29.785,24.902,12.695,77.637,0
1512656155.750,10.742,30.273,25.391,12.207,124.512,0
1512656155.754,7.812,31.250,23.438,9.766,-19.531,0
1512656155.758,5.859,28.809,25.391,8.789,-152.344,0
1512656155.762,3.906,26.367,24.414,7.324,-41.504,0
1512656155.766,3.906,25.879,27.344,8.301,127.441,0
1512656155.769,2.930,23.926,28.320,9.277,27.832,0
1512656155.773,3.906,22.949,24.902,9.277,-123.047,0
1512656155.777,10.742,25.391,29.297,7.324,-15.625,0
1512656155.781,8.301,24.902,35.156,5.859,146.973,0
1512656155.785,1.465,21.973,35.645,7.324,95.215,0
1512656155.789,0.000,21.484,34.668,7.812,-81.055,0
1512656155.793,4.395,23.438,33.203,7.324,-83.984,0
1512656155.797,5.859,23.926,35.156,10.254,66.406,0
1512656155.801,4.395,21.973,36.133,11.719,85.449,0
1512656155.805,7.812,23.438,36.621,11.719,-62.500,0
1512656155.809,13.672,23.438,36.621,13.184,-114.258,0
1512656155.812,18.555,20.996,36.133,15.625,3.418,0
1512656155.816,17.090,20.996,34.180,17.090,66.406,0
1512656155.820,16.602,24.414,33.203,16.602,-27.832,0
1512656155.824,20.020,24.902,29.297,15.625,-135.742,0
1512656155.828,18.066,22.949,26.367,22.949,-58.594,0
1512656155.832,14.648,21.973,26.855,30.762,94.238,0
1512656155.836,18.555,22.461,25.391,30.762,37.109,0
1512656155.840,21.484,22.461,26.367,24.902,-108.887,0
1512656155.844,21.484,21.973,28.320,21.484,-73.242,0
1512656155.848,20.020,23.438,26.855,23.438,61.523,0
1512656155.852,20.020,23.438,22.949,27.344,71.289,0
1512656155.855,18.555,20.996,20.020,26.367,-64.941,0
1512656155.859,20.996,22.461,17.090,25.879,-109.863,0
1512656155.863,26.367,27.344,16.602,27.344,36.133,0
1512656155.867,25.391,30.273,16.602,27.832,125.977,0
1512656155.871,22.949,32.227,5.371,33.203,1.465,0
1512656155.875,19.043,31.250,7.812,34.180,-93.750,0
1512656155.879,15.625,32.715,19.043,25.879,24.414,0
1512656155.883,13.672,35.645,18.555,19.531,165.527,0
1512656155.887,13.184,31.250,16.113,16.602,50.781,0
1512656155.891,8.789,30.273,14.160,15.137,-108.398,0
1512656155.894,8.789,30.762,14.648,16.602,-39.062,0
1512656155.898,8.789,26.367,13.184,15.137,127.441,0
1512656155.902,6.348,27.344,13.672,14.648,97.168,0
1512656155.906,7.324,26.855,14.160,14.648,-92.773,0
1512656155.910,5.859,24.902,14.160,13.184,-42.969,0
1512656155.914,3.418,24.414,16.602,14.648,139.648,0
1512656155.918,4.395,22.461,20.996,18.066,98.633,0
1512656155.922,6.348,20.996,23.438,19.043,-56.152,0
1512656155.926,7.812,21.973,22.949,13.672,-80.078,0
1512656155.930,7.812,20.020,24.902,13.184,65.918,0
1512656155.934,3.418,17.578,26.367,14.160,138.184,0
1512656155.937,2.930,17.578,29.297,13.672,-20.020,0
1512656155.941,3.418,15.625,33.203,13.672,-139.160,0
1512656155.945,1.953,11.719,33.691,13.184,0.000,0
1512656155.949,0.488,9.766,34.668,12.695,144.043,0
1512656155.953,-1.953,6.836,37.109,13.672,31.250,0
1512656155.957,-3.418,1.953,41.504,11.230,-117.676,0
1512656155.961,-5.371,0.488,43.945,9.766,-31.738,0
1512656155.965,-7.324,-2.441,43.945,10.742,118.652,0
1512656155.969,-5.371,-6.348,46.875,8.789,66.406,0
1512656155.973,-0.488,-5.859,50.293,4.883,-87.402,0
1512656155.977,3.418,-5.371,53.223,5.371,-104.492,0
1512656155.980,6.348,-7.812,57.617,9.277,29.785,0
1512656155.984,11.719,-8.789,59.570,7.812,67.383,0
1512656155.988,16.113,-7.324,62.012,9.766,-70.801,0
1512656155.992,19.043,-5.859,59.082,6.836,-129.883,0
1512656155.996,16.602,-5.371,56.152,5.859,-15.625,0
1512656156.000,10.742,-2.441,57.617,14.160,65.918,0
1512656156.004,10.254,1.465,59.570,16.113,-17.090,0
1512656156.008,7.324,1.953,63.477,14.648,-111.328,0
1512656156.012,3.906,2.441,64.941,12.695,-3.906,0
1512656156.016,1.465,2.441,64.941,14.160,131.348,0
1512656156.019,-1.953,-0.488,63.965,16.602,62.500,0
1512656156.023,0.000,1.953,65.430,16.602,-87.402,0
1512656156.027,-0.488,4.395,65.430,11.230,-28.320,0
1512656156.031,-3.418,1.465,68.359,10.742,152.832,0
1512656156.035,-3.418,-0.488,67.871,8.301,125.000,0
1512656156.039,-2.930,-2.930,61.523,8.301,-53.223,0
1512656156.043,-1.465,-1.465,66.406,12.207,-83.008,0
1512656156.047,-0.488,1.465,70.312,14.648,92.773,0
1512656156.051,1.465,-0.977,69.336,18.555,156.738,0
1512656156.055,5.371,-3.906,66.406,20.508,-26.855,0
1512656156.059,7.324,-2.930,63.477,23.438,-82.031,0
1512656156.062,8.789,2.441,65.918,25.879,74.219,0
1512656156.066,11.719,3.418,63.477,27.832,150.391,0
1512656156.070,16.113,-0.977,58.594,29.785,24.414,0
1512656156.074,20.508,-3.418,58.594,32.227,-114.746,0
1512656156.078,24.902,-1.953,57.617,37.598,-29.785,0
1512656156.082,27.344,0.000,56.152,41.016,118.164,0
1512656156.086,26.367,1.465,55.664,40.527,15.625,0
1512656156.090,28.809,4.395,53.711,40.527,-158.691,0
1512656156.094,30.762,6.836,51.270,41.504,-80.078,0
1512656156.098,29.785,11.230,51.270,46.875,76.172,0
1512656156.102,34.668,14.648,52.734,50.293,52.246,0
1512656156.105,38.574,15.625,47.852,47.363,-79.590,0
1512656156.109,37.598,10.254,42.969,44.434,-62.012,0
1512656156.113,37.598,7.324,41.504,45.410,75.195,0
1512656156.117,38.086,13.672,38.574,45.898,87.891,0
1512656156.121,34.668,15.137,34.668,41.504,-50.293,0
1512656156.125,31.738,14.648,29.785,36.621,-101.562,0
1512656156.129,29.785,17.090,26.367,35.645,23.926,0
1512656156.133,30.762,19.531,26.855,37.109,96.680,0
1512656156.137,34.668,22.461,26.367,38.086,-1.465,0
1512656156.141,37.598,23.438,27.344,39.551,-113.281,0
1512656156.144,39.551,26.855,26.855,40.527,-35.156,0
1512656156.148,44.434,31.250,24.414,46.387,152.344,0
1512656156.152,52.246,33.203,27.344,55.664,115.723,0
1512656156.156,54.199,33.691,30.273,55.664,-83.008,0
1512656156.160,55.176,33.691,32.715,56.641,-62.012,0
1512656156.164,57.617,33.203,33.691,62.012,138.184,0
1512656156.168,56.152,32.227,30.762,69.336,139.160,0
1512656156.172,51.758,33.691,30.273,69.336,-20.996,0
1512656156.176,51.270,38.086,30.273,64.941,-58.594,0
1512656156.180,49.316,41.504,28.809,60.059,45.898,0
1512656156.184,42.969,40.527,26.855,54.199,143.555,0
1512656156.187,35.645,36.621,23.926,50.293,37.109,0
1512656156.191,30.273,35.156,23.926,47.363,-63.477,0
1512656156.195,31.250,34.668,23.926,46.387,58.105,0
1512656156.199,30.762,34.180,23.438,45.898,157.715,0
1512656156.203,29.297,33.203,23.926,46.875,50.293,0
1512656156.207,27.832,31.250,20.996,44.922,-75.195,0
1512656156.211,24.414,28.809,20.020,40.039,3.418,0
1512656156.215,24.414,30.273,22.461,36.133,130.859,0
1512656156.219,25.879,36.621,25.879,36.621,82.031,0
1512656156.223,29.297,39.551,28.320,38.574,-122.070,0
1512656156.227,25.879,35.156,24.902,37.598,-119.629,0
1512656156.230,26.855,35.645,18.555,39.062,78.125,0
1512656156.234,30.273,38.574,27.832,44.434,51.758,0
1512656156.238,28.320,36.621,33.691,41.992,-117.676,0
1512656156.242,28.320,31.738,29.785,35.156,-127.930,0
1512656156.246,26.367,32.227,31.250,32.715,-5.371,0
1512656156.250,22.461,35.645,34.180,34.180,58.105,0
1512656156.254,21.484,32.227,30.762,30.762,-52.734,0
1512656156.258,20.508,30.273,31.738,23.438,-172.363,0
1512656156.262,21.973,29.785,33.203,21.484,-71.777,0
1512656156.266,23.438,31.250,28.809,26.367,44.434,0
1512656156.269,22.461,33.691,27.344,26.855,-49.805,0
1512656156.273,26.855,35.645,29.297,27.344,-192.383,0
1512656156.277,31.250,35.645,28.809,29.785,-134.277,0
1512656156.281,32.227,35.156,26.367,29.785,-0.488,0
1512656156.285,33.691,39.062,27.832,34.180,-40.527,0
1512656156.289,34.668,39.551,27.344,35.156,-161.621,0
1512656156.293,35.645,38.086,26.855,31.250,-175.293,0
1512656156.297,40.039,40.527,26.855,31.250,-40.527,0
1512656156.301,40.527,45.410,27.832,34.668,27.344,0
1512656156.305,38.574,44.922,29.297,39.551,-91.797,0
1512656156.309,39.062,40.527,27.344,37.598,-165.039,0
1512656156.312,37.598,39.062,24.902,34.668,-33.691,0
1512656156.316,34.180,39.551,23.438,32.715,76.172,0
1512656156.320,30.762,37.109,25.879,30.273,-36.133,0
1512656156.324,26.855,35.156,27.344,27.832,-145.020,0
1512656156.328,22.461,36.621,23.438,21.484,-75.684,0
1512656156.332,13.672,33.203,18.555,15.137,67.383,0
1512656156.336,12.207,32.715,26.855,16.113,55.664,0
1512656156.340,16.602,36.133,25.879,15.137,-99.609,0
1512656156.344,16.602,40.039,24.902,17.090,-74.219,0
1512656156.348,17.578,40.039,37.598,22.949,115.234,0
1512656156.352,22.461,36.133,36.621,26.855,104.492,0
1512656156.355,30.762,39.062,38.086,32.715,-42.480,0
1512656156.359,28.809,36.133,41.504,34.180,-83.008,0
1512656156.363,23.926,30.273,39.062,31.738,67.383,0
1512656156.367,25.391,29.297,37.109,32.715,165.527,0
1512656156.371,24.902,28.809,39.062,32.715,11.230,0
1512656156.375,21.973,26.367,41.016,29.297,-91.309,0
1512656156.379,20.020,22.949,41.504,28.320,65.430,0
1512656156.383,18.555,19.043,42.480,29.785,215.332,0
1512656156.387,20.020,18.555,43.457,29.297,98.633,0
1512656156.391,22.949,20.508,46.875,30.762,-73.730,0
1512656156.394,26.367,18.555,46.387,31.738,22.461,0
1512656156.398,28.320,15.137,43.457,33.691,160.645,0
1512656156.402,29.297,16.113,45.410,36.133,86.426,0
1512656156.406,25.879,14.648,44.922,36.621,-62.500,0
1512656156.410,28.320,11.719,42.969,39.062,-39.062,0
1512656156.414,32.227,9.766,42.480,41.016,91.309,0
1512656156.418,30.762,9.277,43.945,42.969,55.664,0
1512656156.422,31.250,9.277,45.410,46.387,-83.984,0
1512656156.426,35.156,9.766,41.992,45.898,-94.238,0
1512656156.430,36.621,12.207,39.551,44.922,20.508,0
1512656156.434,35.645,11.230,38.574,46.875,68.848,0
1512656156.437,37.598,10.254,37.109,46.875,-46.875,0
1512656156.441,34.668,13.672,34.180,40.527,-136.230,0
1512656156.445,34.668,16.602,31.738,36.621,-27.344,0
1512656156.449,36.133,15.137,29.785,36.133,84.473,0
1512656156.453,30.273,14.648,28.320,35.645,-38.086,0
1512656156.457,26.855,16.113,26.855,35.645,-165.039,0
1512656156.461,33.691,18.066,25.391,34.668,-117.188,0
1512656156.465,35.156,19.531,23.438,33.203,12.695,0
1512656156.469,31.738,22.949,24.902,35.156,-1.465,0
1512656156.473,36.621,29.785,30.273,37.598,-153.320,0
1512656156.477,35.645,32.715,29.297,34.180,-162.598,0
1512656156.480,34.180,33.691,26.855,33.203,6.836,0
1512656156.484,32.227,33.203,28.809,36.133,65.918,0
1512656156.488,30.273,33.203,29.785,32.715,-110.840,0
1512656156.492,30.762,35.645,27.832,35.156,-149.902,0
1512656156.496,31.250,35.645,24.902,36.133,0.977,0
1512656156.500,32.227,35.156,25.391,36.133,78.125,0
1512656156.504,28.320,35.156,28.809,36.133,-29.785,0
1512656156.508,26.367,38.086,29.297,32.227,-178.223,0
1512656156.512,30.273,37.109,33.203,37.109,-58.105,0
1512656156.516,31.250,37.109,40.039,41.992,133.301,0
1512656156.519,27.344,37.598,39.551,40.527,57.617,0
1512656156.523,23.926,36.133,36.621,36.621,-126.465,0
1512656156.527,23.438,35.645,36.621,33.203,-65.430,0
1512656156.531,22.461,36.621,41.504,28.809,134.766,0
1512656156.535,23.926,37.109,40.039,25.391,92.285,0
1512656156.539,18.555,33.691,40.039,22.949,-81.055,0
1512656156.543,9.277,25.879,48.340,18.555,-52.246,0
1512656156.547,5.859,20.020,51.270,19.043,114.746,0
1512656156.551,2.930,17.578,51.758,17.090,129.883,0
1512656156.555,3.906,15.137,49.805,9.766,-27.344,0
1512656156.559,3.906,14.160,49.316,6.348,-52.246,0
1512656156.562,0.000,10.254,50.293,5.371,70.801,0
1512656156.566,-4.395,10.254,52.734,4.883,145.996,0
1512656156.570,-8.789,13.184,50.781,1.465,50.293,0
1512656156.574,-9.277,12.207,47.852,-2.441,-66.406,0
1512656156.578,-11.230,5.371,44.434,-4.883,21.484,0
1512656156.582,-17.090,0.977,41.992,-9.277,134.766,0
1512656156.586,-23.438,0.488,43.945,-13.672,60.547,0
1512656156.590,-22.949,-2.441,45.898,-11.719,-90.820,0
1512656156.594,-20.996,-4.395,44.434,-10.254,-50.293,0
1512656156.598,-20.996,-2.930,42.969,-15.625,84.473,0
1512656156.602,-18.555,-1.465,44.434,-16.602,44.922,0
1512656156.605,-20.020,-3.906,41.016,-19.531,-76.172,0
1512656156.609,-18.066,-2.930,38.086,-18.555,-64.453,0
1512656156.613,-16.113,-0.977,37.598,-16.113,77.637,0
1512656156.617,-12.695,1.953,32.227,-15.625,129.883,0
1512656156.621,-4.395,6.348,30.762,-6.836,-6.348,0
1512656156.625,4.883,6.836,27.344,2.930,-93.750,0
1512656156.629,5.859,5.371,22.461,3.906,22.461,0
1512656156.633,10.254,7.812,31.250,8.789,132.812,0
1512656156.637,20.020,10.742,32.227,17.578,40.039,0
1512656156.641,25.391,9.277,26.855,19.531,-140.137,0
1512656156.644,32.227,8.301,28.809,23.438,-91.797,0
1512656156.648,38.086,13.672,29.297,32.227,124.023,0
1512656156.652,40.527,16.113,28.809,39.062,94.238,0
1512656156.656,42.969,16.602,29.785,42.480,-79.590,0
1512656156.660,45.898,20.996,30.273,44.922,-37.109,0
1512656156.664,49.316,21.484,28.320,47.852,174.805,0
1512656156.668,49.316,20.508,26.367,48.340,185.547,0
1512656156.672,49.805,20.508,24.902,49.805,-7.324,0
1512656156.676,51.758,21.484,26.367,53.223,-58.105,0
1512656156.680,54.199,26.367,29.297,55.664,96.680,0
1512656156.684,58.105,33.691,32.227,62.988,143.555,0
1512656156.687,54.688,33.203,30.273,61.523,-6.348,0
1512656156.691,48.340,28.809,26.855,57.617,-92.773,0
1512656156.695,49.316,27.344,29.785,64.941,22.949,0
1512656156.699,49.805,29.785,28.320,68.359,159.668,0
1512656156.703,49.316,30.762,30.762,68.848,73.242,0
1512656156.707,52.246,30.273,37.109,71.777,-33.691,0
1512656156.711,52.246,30.273,38.086,75.684,35.645,0
1512656156.715,49.316,29.297,39.062,77.637,131.836,0
1512656156.719,49.805,29.785,39.551,80.566,117.188,0
1512656156.723,52.734,33.691,42.480,82.031,-18.066,0
1512656156.727,53.223,33.203,39.062,83.008,-31.738,0
1512656156.730,51.758,29.297,39.551,86.426,132.324,0
1512656156.734,51.270,27.344,51.270,81.543,144.043,0
1512656156.738,52.734,26.367,54.688,81.055,-14.160,0
1512656156.742,56.152,27.832,57.129,84.961,-72.754,0
1512656156.746,57.617,31.250,59.570,86.914,47.852,0
1512656156.750,57.129,31.250,59.082,85.449,110.840,0
1512656156.754,59.570,28.809,57.617,84.961,22.461,0
1512656156.758,62.500,29.785,57.129,84.961,-79.102,0
1512656156.762,62.500,26.367,54.199,79.590,4.883,0
1512656156.766,61.035,25.391,50.781,76.660,140.625,0
1512656156.769,55.664,31.250,47.363,74.707,75.684,0
1512656156.773,54.688,31.250,44.434,74.707,-79.590,0
1512656156.777,58.594,28.320,45.410,76.660,-37.598,0
1512656156.781,55.664,27.344,42.480,74.219,122.559,0
1512656156.785,48.340,27.344,39.551,68.848,100.098,0
1512656156.789,48.828,28.320,39.551,62.500,-76.660,0
1512656156.793,51.758,29.785,30.762,57.129,-95.215,0
1512656156.797,49.316,25.879,33.203,56.641,67.871,0
1512656156.801,41.992,22.949,38.086,54.199,96.680,0
1512656156.805,38.086,27.832,32.227,48.340,-47.852,0
1512656156.809,36.133,30.762,33.691,39.062,-106.934,0
1512656156.812,36.621,32.715,34.668,34.180,26.367,0
1512656156.816,33.203,34.180,30.273,32.715,128.906,0
1512656156.820,29.785,35.156,28.320,28.809,8.789,0
1512656156.824,28.809,37.109,25.879,25.391,-118.164,0
1512656156.828,28.809,36.133,21.973,23.926,-29.785,0
1512656156.832,31.250,35.645,20.996,26.367,104.980,0
1512656156.836,31.250,39.551,21.484,32.227,30.762,0
1512656156.840,33.691,42.480,20.996,35.645,-133.789,0
1512656156.844,39.062,43.457,20.508,37.109,-71.289,0
1512656156.848,40.527,48.828,19.531,37.109,113.770,0
1512656156.852,42.969,50.293,22.949,36.133,92.773,0
1512656156.855,41.016,48.340,23.438,34.668,-56.152,0
1512656156.859,34.668,49.805,18.555,32.227,-54.199,0
1512656156.863,33.203,48.828,15.625,32.227,50.781,0
1512656156.867,29.297,44.922,20.996,28.320,85.449,0
1512656156.871,30.273,44.434,22.949,26.367,-13.184,0
1512656156.875,30.273,44.434,22.461,28.809,-120.605,0
1512656156.879,25.879,43.945,22.461,26.855,-5.371,0
1512656156.883,23.438,43.457,19.531,24.902,92.285,0
1512656156.887,21.484,42.969,21.484,24.414,-7.812,0
1512656156.891,21.484,42.969,23.926,25.879,-96.680,0
1512656156.894,23.438,39.551,21.973,27.344,-33.691,0
1512656156.898,27.832,37.598,22.461,31.738,122.559,0
1512656156.902,29.297,33.691,22.461,29.785,105.957,0
1512656156.906,34.668,31.738,20.020,28.320,-95.215,0
1512656156.910,34.668,33.203,22.949,33.691,-77.637,0
1512656156.914,31.738,31.738,30.273,31.738,119.629,0
1512656156.918,34.180,29.785,26.855,28.320,104.492,0
1512656156.922,30.762,24.414,23.926,27.344,-40.527,0
1512656156.926,27.832,18.555,34.180,24.902,-82.031,0
1512656156.930,25.391,14.160,33.203,21.973,21.484,0
1512656156.934,24.414,11.719,31.250,23.926,133.789,0
1512656156.937,24.902,12.695,31.738,23.926,33.691,0
1512656156.941,21.484,11.719,29.297,17.090,-75.195,0
1512656156.945,23.438,13.184,28.809,14.160,45.898,0
1512656156.949,28.320,11.719,27.832,15.137,181.641,0
1512656156.953,23.926,6.836,29.785,15.137,79.102,0
1512656156.957,22.461,9.277,30.762,16.602,-73.242,0
1512656156.961,26.855,9.766,32.715,16.113,3.418,0
1512656156.965,31.250,7.812,33.203,18.555,158.203,0
1512656156.969,27.832,7.812,30.273,21.973,86.426,0
1512656156.973,29.297,9.766,33.691,23.438,-72.266,0
1512656156.977,29.785,9.766,37.109,17.578,-49.316,0
1512656156.980,27.832,11.719,38.574,19.531,115.723,0
1512656156.984,23.926,14.648,37.598,24.902,138.184,0
1512656156.988,23.926,20.996,36.621,23.926,-54.199,0
1512656156.992,31.250,28.320,37.109,21.484,-87.891,0
1512656156.996,32.715,27.344,33.203,16.602,92.285,0
1512656157.000,22.461,29.785,34.180,16.113,159.668,0
1512656157.004,21.484,35.156,32.715,17.578,46.875,0
1512656157.008,21.484,33.203,27.832,17.090,-58.105,0
1512656157.012,18.066,30.762,26.367,13.672,21.973,0
1512656157.016,17.090,31.250,24.414,12.207,167.480,0
1512656157.019,13.184,34.668,22.461,11.719,99.121,0
1512656157.023,11.230,40.039,23.926,8.789,-44.434,0
1512656157.027,10.742,40.527,21.973,8.301,7.812,0
1512656157.031,10.254,41.016,19.043,10.254,127.930,0
1512656157.035,10.254,44.434,26.855,9.277,115.234,0
1512656157.039,7.324,44.434,25.879,5.859,-54.199,0
1512656157.043,3.906,43.457,20.508,5.371,-63.965,0
1512656157.047,3.418,44.434,20.996,5.859,94.238,0
1512656157.051,3.418,45.410,22.461,3.906,104.004,0
1512656157.055,0.000,46.387,16.602,3.418,-5.371,0
1512656157.059,0.488,47.363,13.184,6.836,-65.430,0
1512656157.062,2.930,49.316,15.137,7.812,32.715,0
1512656157.066,2.930,52.246,13.184,7.324,124.023,0
1512656157.070,1.465,50.293,12.207,9.277,22.949,0
1512656157.074,0.977,44.922,12.207,10.254,-116.211,0
1512656157.078,1.953,43.457,13.672,11.719,-46.387,0
1512656157.082,4.883,41.016,14.648,13.672,128.418,0
1512656157.086,8.301,37.109,12.695,18.555,75.684,0
1512656157.090,9.766,34.668,14.648,24.414,-109.375,0
1512656157.094,12.207,34.668,16.602,21.973,-85.938,0
1512656157.098,12.695,32.715,15.137,20.996,105.469,0
1512656157.102,13.184,35.645,14.648,26.855,115.723,0
1512656157.105,14.160,38.086,16.113,26.367,-71.289,0
1512656157.109,19.043,33.203,15.137,28.809,-98.633,0
1512656157.113,22.461,29.785,20.020,34.180,76.172,0
1512656157.117,18.066,28.809,24.414,30.273,136.230,0
1512656157.121,18.555,27.344,25.879,31.738,-23.438,0
1512656157.125,22.461,28.809,27.832,39.062,-114.258,0
1512656157.129,24.414,26.855,30.273,39.062,38.086,0
1512656157.133,24.902,21.973,34.668,38.574,179.688,0
1512656157.137,26.855,15.137,36.133,39.551,47.852,0
1512656157.141,30.273,7.812,34.668,39.062,-99.121,0
1512656157.144,35.156,3.418,33.691,43.945,-17.578,0
1512656157.148,35.645,3.418,35.156,50.293,138.184,0
1512656157.152,36.621,2.441,36.133,54.199,83.984,0
1512656157.156,37.598,1.465,37.109,57.129,-89.355,0
1512656157.160,36.621,1.953,42.480,55.176,-29.297,0
1512656157.164,35.156,-4.883,49.316,55.176,129.395,0
1512656157.168,37.598,-3.906,54.688,56.152,99.609,0
1512656157.172,37.598,-1.465,59.082,57.129,-37.109,0
1512656157.176,34.180,-5.859,60.059,56.152,-43.457,0
1512656157.180,29.785,-9.766,64.453,51.758,84.961,0
1512656157.184,27.832,-9.766,68.359,49.316,139.160,0
1512656157.187,27.832,-8.789,68.848,42.480,21.973,0
1512656157.191,24.902,-9.277,72.754,42.480,-81.055,0
1512656157.195,21.484,-7.812,76.172,41.992,41.992,0
1512656157.199,21.973,-8.789,81.055,38.574,166.016,0
1512656157.203,19.531,-11.230,83.984,39.062,58.594,0
1512656157.207,20.996,-11.230,84.961,39.062,-68.359,0
1512656157.211,22.461,-12.207,86.914,40.039,-26.367,0
1512656157.215,15.137,-12.207,84.961,41.992,106.934,0
1512656157.219,14.160,-16.602,82.031,40.527,110.840,0
1512656157.223,13.672,-19.531,81.055,38.574,-33.691,0
1512656157.227,11.719,-14.160,81.543,34.668,-43.457,0
1512656157.230,9.766,-9.766,83.496,28.809,123.047,0
1512656157.234,9.277,-7.324,80.078,25.391,167.480,0
1512656157.238,12.207,-2.930,75.684,24.902,-2.441,0
1512656157.242,12.695,2.930,74.707,24.414,-95.215,0
1512656157.246,17.090,5.371,73.730,27.344,70.312,0
1512656157.250,21.973,7.324,71.289,29.785,149.902,0
1512656157.254,27.344,11.719,70.801,33.203,-14.160,0
1512656157.258,32.715,14.160,68.359,36.621,-145.996,0
1512656157.262,33.691,15.137,62.500,37.109,-38.574,0
1512656157.266,32.715,18.066,60.059,38.086,133.789,0
1512656157.269,34.180,20.508,57.617,41.016,37.109,0
1512656157.273,36.621,21.973,54.199,44.922,-132.812,0
1512656157.277,38.086,21.973,50.781,44.434,-52.734,0
1512656157.281,39.062,21.973,46.875,42.969,129.395,0
1512656157.285,42.969,25.391,43.457,47.852,76.172,0
1512656157.289,46.875,30.273,43.457,52.734,-121.582,0
1512656157.293,48.828,33.203,43.945,51.758,-88.379,0
1512656157.297,47.363,33.691,39.062,52.246,64.941,0
1512656157.301,48.340,35.645,38.086,56.152,56.641,0
1512656157.305,46.875,36.133,39.062,54.688,-54.199,0
1512656157.309,46.875,38.574,36.133,51.270,-67.383,0
1512656157.312,52.246,41.016,39.062,55.176,73.730,0
1512656157.316,52.246,40.039,38.086,56.641,172.852,0
1512656157.320,48.340,41.016,32.227,54.688,52.734,0
1512656157.324,51.270,42.480,33.691,54.199,-68.359,0
1512656157.328,51.758,44.922,35.156,53.223,23.438,0
1512656157.332,49.805,42.969,30.762,52.246,166.992,0
1512656157.336,52.246,44.434,29.785,53.223,114.746,0
1512656157.340,57.617,46.875,29.297,55.176,-41.992,0
1512656157.344,58.105,48.340,26.855,55.176,-35.645,0
1512656157.348,54.199,50.781,25.879,50.293,130.371,0
1512656157.352,51.758,45.410,24.414,52.734,155.273,0
1512656157.355,52.734,38.574,25.391,56.152,-17.578,0
1512656157.359,57.129,36.621,28.320,57.129,-66.406,0
1512656157.363,56.152,37.598,28.320,58.105,65.430,0
1512656157.367,54.199,36.621,26.855,52.246,125.000,0
1512656157.371,56.152,35.645,28.809,50.293,-13.672,0
1512656157.375,56.152,36.133,28.320,49.805,-106.445,0
1512656157.379,54.688,35.156,26.855,47.852,25.391,0
1512656157.383,51.758,34.180,31.250,49.316,158.203,0
1512656157.387,48.340,34.668,32.715,47.363,55.176,0
1512656157.391,48.828,31.250,30.273,45.410,-92.285,0
1512656157.394,47.852,29.785,33.691,44.434,-8.789,0
1512656157.398,46.387,36.133,34.668,44.434,116.699,0
1512656157.402,49.316,37.598,35.156,43.457,61.523,0
1512656157.406,43.457,34.668,37.598,41.992,-97.656,0
1512656157.410,37.598,33.203,35.156,41.016,-62.988,0
1512656157.414,40.527,33.691,33.203,36.621,119.629,0
1512656157.418,38.086,35.645,32.715,39.551,123.047,0
1512656157.422,34.668,37.109,31.738,40.039,-33.691,0
1512656157.426,32.227,37.109,29.297,34.180,-36.621,0
1512656157.430,31.738,37.598,30.762,30.273,122.070,0
1512656157.434,33.691,39.551,32.715,26.367,156.738,0
1512656157.437,30.273,40.527,30.273,28.809,31.738,0
1512656157.441,28.809,41.992,28.320,29.785,-47.852,0
1512656157.445,28.320,43.457,26.367,25.391,51.758,0
1512656157.449,26.367,45.410,24.414,22.461,166.504,0
1512656157.453,27.344,47.852,22.949,22.461,58.594,0
1512656157.457,26.855,49.316,22.949,21.484,-56.152,0
1512656157.461,26.855,50.781,21.484,22.461,22.949,0
1512656157.465,25.391,51.758,20.020,25.879,152.832,0
1512656157.469,20.508,54.688,21.484,26.367,121.094,0
1512656157.473,24.414,52.734,11.719,26.367,-37.598,0
1512656157.477,25.879,55.176,10.254,23.438,-45.410,0
1512656157.480,21.484,62.500,20.020,20.996,93.750,0
1512656157.484,22.461,64.453,18.555,25.391,113.770,0
1512656157.488,22.461,70.801,16.602,28.809,-13.672,0
1512656157.492,23.438,75.195,19.531,31.250,-39.551,0
1512656157.496,25.879,74.219,20.020,28.320,55.664,0
1512656157.500,28.809,76.660,19.043,28.809,112.793,0
1512656157.504,31.250,75.684,18.066,31.738,25.879,0
1512656157.508,33.203,78.125,19.531,31.250,-83.496,0
1512656157.512,32.715,82.520,19.043,33.691,38.574,0
1512656157.516,30.273,81.055,17.090,38.574,199.219,0
1512656157.519,30.273,80.078,16.602,38.574,133.301,0
1512656157.523,29.785,79.590,13.184,36.133,-39.551,0
1512656157.527,33.691,76.660,17.578,36.621,3.906,0
1512656157.531,38.086,75.684,22.461,40.039,145.020,0
1512656157.535,37.109,75.195,21.973,44.434,112.305,0
1512656157.539,36.133,72.266,20.996,44.434,-25.391,0
1512656157.543,42.480,68.848,22.461,49.805,-40.039,0
1512656157.547,49.316,63.477,23.926,52.246,136.230,0
1512656157.551,51.758,59.570,28.809,53.711,183.594,0
1512656157.555,49.316,53.711,32.715,57.129,15.625,0
1512656157.559,52.734,50.293,33.203,58.105,-55.664,0
1512656157.562,55.664,52.246,34.180,57.129,80.566,0
1512656157.566,56.641,50.781,38.086,59.570,178.223,0
1512656157.570,61.035,51.270,39.551,62.500,48.828,0
1512656157.574,62.988,51.270,41.504,62.500,-73.242,0
1512656157.578,57.129,46.387,42.969,61.523,14.648,0
1512656157.582,58.594,42.480,41.992,62.012,135.742,0
1512656157.586,63.477,41.504,44.434,63.965,42.969,0
1512656157.590,60.059,38.574,43.457,61.523,-109.375,0
1512656157.594,57.129,32.715,44.434,58.594,-18.066,0
1512656157.598,52.734,30.762,50.781,61.523,141.602,0
1512656157.602,47.363,28.809,50.781,58.594,102.051,0
1512656157.605,42.480,23.438,47.363,50.781,-59.570,0
1512656157.609,42.480,20.996,48.340,50.293,-57.617,0
1512656157.613,41.016,21.973,47.363,50.781,106.445,0
1512656157.617,34.668,22.461,45.410,49.805,146.973,0
1512656157.621,37.109,19.043,48.340,49.805,29.785,0
1512656157.625,36.133,11.719,50.781,48.828,-65.918,0
1512656157.629,31.250,6.348,48.828,43.457,50.781,0
1512656157.633,31.738,6.836,48.340,38.574,176.270,0
1512656157.637,32.227,8.789,49.805,42.969,61.523,0
1512656157.641,29.297,7.812,47.852,44.434,-39.062,0
1512656157.644,29.785,4.883,46.387,41.992,6.836,0
1512656157.648,32.715,0.977,44.922,43.457,129.395,0
1512656157.652,34.180,2.930,35.645,45.410,109.863,0
1512656157.656,30.762,5.371,36.133,43.945,-31.738,0
1512656157.660,26.855,0.977,42.480,39.062,-14.648,0
1512656157.664,31.738,1.465,43.945,42.480,121.094,0
1512656157.668,36.133,1.465,48.340,42.480,157.227,0
1512656157.672,34.668,0.488,50.293,42.969,7.324,0
1512656157.676,35.645,4.883,50.781,46.387,-100.098,0
1512656157.680,36.621,2.930,52.246,47.363,17.090,0
1512656157.684,37.109,1.465,55.176,51.270,139.648,0
1512656157.687,38.574,1.953,55.664,51.270,28.809,0
1512656157.691,33.691,0.488,52.246,44.922,-81.543,0
1512656157.695,31.250,1.953,47.852,41.504,-5.371,0
1512656157.699,30.273,4.883,43.945,41.504,138.672,0
1512656157.703,24.414,4.883,40.039,37.109,69.336,0
1512656157.707,20.020,5.859,38.574,30.273,-100.098,0
1512656157.711,17.578,6.836,39.551,24.414,-18.555,0
1512656157.715,17.578,6.836,37.109,21.484,135.742,0
1512656157.719,17.578,9.766,37.598,20.508,81.543,0
1512656157.723,17.090,10.254,30.273,20.996,-96.191,0
1512656157.727,14.160,8.789,24.902,16.113,-59.570,0
1512656157.730,10.742,8.301,32.227,12.695,110.840,0
1512656157.734,11.719,12.207,32.715,17.578,74.707,0
1512656157.738,12.695,12.207,31.738,19.043,-73.730,0
1512656157.742,15.625,13.184,30.762,16.602,-91.797,0
1512656157.746,19.531,15.625,31.250,16.602,47.363,0
1512656157.750,22.949,18.555,32.715,22.461,103.027,0
1512656157.754,26.855,21.484,33.203,26.855,-34.668,0
1512656157.758,23.438,18.066,34.180,24.414,-133.301,0
1512656157.762,21.973,17.090,36.133,22.949,-26.855,0
1512656157.766,24.414,18.555,36.133,21.484,105.957,0
1512656157.769,24.902,18.555,35.645,18.555,26.367,0
1512656157.773,25.879,15.625,34.668,17.578,-90.820,0
1512656157.777,22.949,12.207,33.203,16.113,-34.180,0
1512656157.781,18.066,13.672,34.668,15.137,119.629,0
1512656157.785,20.020,16.113,38.574,16.602,114.746,0
1512656157.789,21.484,15.625,41.016,18.555,-57.617,0
1512656157.793,22.461,14.648,40.039,23.926,-73.242,0
1512656157.797,25.879,14.160,37.598,27.344,82.031,0
