timestamps,TP9,AF7,AF8,TP10,Right AUX,Marker0
1488724223.631,34.180,39.551,43.457,48.340,51.270,0
1488724223.635,29.297,36.133,38.086,28.320,77.637,0
1488724223.639,29.785,29.297,29.297,25.879,34.668,0
1488724223.643,48.340,46.875,52.246,58.105,27.832,0
1488724223.647,48.828,61.523,41.016,68.359,69.336,0
1488724223.651,1.465,37.109,-0.977,33.203,55.664,0
1488724223.654,-32.715,16.113,-0.488,-11.719,22.461,0
1488724223.658,-23.438,26.855,23.926,-12.207,27.344,0
1488724223.662,-17.090,19.531,8.789,-2.930,65.430,0
1488724223.666,-29.297,4.883,-26.855,-15.137,50.781,0
1488724223.670,-48.340,6.348,-35.645,-33.691,28.809,0
1488724223.674,-35.156,34.180,-2.441,-28.809,65.430,0
1488724223.678,5.371,73.730,54.199,13.184,74.219,0
1488724223.682,26.855,63.965,72.266,23.926,96.191,0
1488724223.686,11.230,25.879,38.086,-11.719,67.383,0
1488724223.690,-17.090,-0.977,3.418,-38.574,59.570,0
1488724223.693,-19.043,7.812,-16.602,-30.273,100.586,0
1488724223.697,7.812,7.812,-1.953,-15.137,85.938,0
1488724223.701,35.645,21.973,20.508,14.160,38.086,0
1488724223.705,32.227,41.016,9.766,31.738,51.758,0
1488724223.709,38.574,48.340,30.273,25.391,89.355,0
1488724223.713,35.156,55.664,38.086,32.227,45.410,0
1488724223.717,13.672,45.898,21.973,24.902,33.691,0
1488724223.721,32.227,32.227,24.414,42.969,53.711,0
1488724223.725,54.688,19.043,53.223,56.641,66.406,0
1488724223.729,54.199,20.508,47.852,42.480,26.367,0
1488724223.733,38.086,16.602,25.391,35.156,18.555,0
1488724223.736,32.715,15.625,40.039,34.668,64.453,0
1488724223.740,53.711,30.762,45.410,54.199,51.758,0
1488724223.744,86.914,59.570,65.430,90.332,18.066,0
1488724223.748,76.660,35.645,53.711,87.891,31.738,0
1488724223.752,62.500,20.996,32.715,70.801,56.152,0
1488724223.756,66.406,41.504,42.480,63.965,52.734,0
1488724223.760,29.785,10.742,30.273,44.922,25.879,0
1488724223.764,37.598,33.691,27.344,78.125,46.875,0
1488724223.768,40.527,36.621,-22.461,81.543,57.617,0
1488724223.772,28.320,26.367,-30.273,45.410,29.785,0
1488724223.776,75.195,70.312,60.059,67.871,24.902,0
1488724223.779,49.805,51.758,33.691,54.688,28.809,0
1488724223.783,9.277,24.414,-29.297,11.719,29.297,0
1488724223.787,35.156,46.387,8.301,8.789,29.785,0
1488724223.791,35.645,42.969,15.625,6.836,-37.109,0
1488724223.795,41.504,35.645,-21.973,19.043,-58.105,0
1488724223.799,62.500,58.105,-38.574,34.668,-4.395,0
1488724223.803,98.633,96.191,21.973,73.242,8.301,0
1488724223.807,104.004,97.168,26.367,75.684,-19.531,0
1488724223.811,68.359,65.918,-28.320,24.414,-2.930,0
1488724223.815,45.898,50.293,-11.719,11.230,14.648,0
1488724223.818,38.086,48.340,0.977,28.320,18.555,0
1488724223.822,65.918,66.895,-9.277,56.152,46.387,0
1488724223.826,69.824,69.824,-4.883,37.598,54.199,0
1488724223.830,68.848,66.895,8.789,32.715,40.527,0
1488724223.834,81.543,76.172,17.578,57.617,35.645,0
1488724223.838,75.684,68.359,23.926,52.734,8.301,0
1488724223.842,53.711,46.875,-17.578,20.996,12.207,0
1488724223.846,57.129,44.434,-44.434,8.301,27.832,0
1488724223.850,104.980,68.848,18.066,44.434,-7.812,0
1488724223.854,114.258,90.820,57.129,76.172,-9.766,0
1488724223.858,43.945,56.152,6.836,36.133,30.273,0
1488724223.861,23.438,38.574,-10.254,23.926,48.340,0
1488724223.865,46.387,50.781,-4.883,48.340,48.340,0
1488724223.869,24.414,42.480,-17.090,33.203,51.270,0
1488724223.873,25.879,25.879,-8.789,26.855,39.551,0
1488724223.877,68.848,42.480,27.344,64.453,21.973,0
1488724223.881,60.059,54.688,52.246,57.129,54.688,0
1488724223.885,22.461,45.410,-8.301,12.207,61.523,0
1488724223.889,31.738,57.129,-21.484,37.598,31.738,0
1488724223.893,29.785,38.574,0.488,41.992,48.828,0
1488724223.897,28.320,37.109,-0.977,27.832,31.738,0
1488724223.901,45.898,37.598,28.809,33.203,28.320,0
1488724223.904,61.523,14.648,55.176,41.504,42.969,0
1488724223.908,43.457,18.066,30.762,53.223,15.137,0
1488724223.912,42.969,37.109,24.902,59.082,0.977,0
1488724223.916,68.848,35.156,11.719,63.477,14.160,0
1488724223.920,43.457,21.973,-26.367,51.758,17.578,0
1488724223.924,35.156,21.484,2.930,35.645,20.996,0
1488724223.928,49.805,13.672,11.230,34.180,30.762,0
1488724223.932,58.105,20.020,11.719,68.848,22.461,0
1488724223.936,65.430,45.898,38.086,90.820,16.602,0
1488724223.940,70.312,52.734,29.785,88.867,19.531,0
1488724223.943,84.961,56.152,15.625,112.305,17.090,0
1488724223.947,45.410,28.809,-15.625,72.754,30.762,0
1488724223.951,39.551,23.438,15.625,44.434,26.367,0
1488724223.955,91.797,57.129,55.664,77.148,7.324,0
1488724223.959,91.797,70.312,39.551,91.797,13.672,0
1488724223.963,80.078,68.359,40.527,109.863,14.160,0
1488724223.967,57.129,29.785,3.418,90.820,6.348,1
1488724223.971,42.480,10.742,-41.992,41.992,-0.977,0
1488724223.975,38.086,18.066,-21.973,37.109,-3.906,0
1488724223.979,18.066,15.137,13.672,48.828,14.648,0
1488724223.983,26.855,20.020,42.480,53.711,11.230,0
1488724223.986,39.551,34.668,52.734,61.035,2.930,0
1488724223.990,14.648,33.203,23.926,48.828,20.508,0
1488724223.994,34.180,51.758,14.160,72.754,27.832,0
1488724223.998,46.875,52.734,0.000,70.801,33.691,0
1488724224.002,43.457,28.809,12.207,48.340,30.762,0
1488724224.006,53.223,50.293,20.996,64.453,23.438,0
1488724224.010,11.719,42.480,-15.137,37.109,9.277,0
1488724224.014,-13.184,-6.348,-7.812,1.465,-7.324,0
1488724224.018,30.762,4.883,25.391,20.020,1.465,0
1488724224.022,25.879,34.180,13.184,8.301,37.598,0
1488724224.026,32.227,68.359,-2.930,14.160,14.648,0
1488724224.029,64.453,75.684,8.789,46.387,-35.645,0
1488724224.033,50.781,27.832,20.020,30.762,-41.504,0
1488724224.037,41.504,13.672,24.414,20.508,-4.883,0
1488724224.041,31.250,28.320,12.207,24.902,20.508,0
1488724224.045,49.316,52.246,27.344,45.898,-11.230,0
1488724224.049,48.340,41.016,28.809,38.086,-21.973,0
1488724224.053,12.695,3.418,-6.836,9.766,-4.883,0
1488724224.057,51.758,17.578,5.859,41.992,-7.324,0
1488724224.061,93.750,32.227,-4.883,84.473,2.930,0
1488724224.065,73.730,9.277,-5.371,63.477,-1.465,0
1488724224.068,56.641,9.766,26.855,39.551,6.348,0
1488724224.072,78.613,28.320,28.809,49.316,12.207,0
1488724224.076,73.242,33.203,43.945,70.801,-9.277,0
1488724224.080,42.480,21.973,46.875,64.453,-8.301,0
1488724224.084,59.082,24.902,44.434,65.918,11.719,0
1488724224.088,73.242,37.598,62.012,89.355,18.555,0
1488724224.092,100.098,52.246,59.570,112.793,9.277,0
1488724224.096,77.148,26.367,33.203,83.008,-2.930,0
1488724224.100,28.809,13.184,3.906,40.039,11.719,0
1488724224.104,19.043,37.109,-26.855,30.273,11.230,0
1488724224.108,-12.207,9.277,-14.160,-6.348,14.648,0
1488724224.111,-13.672,-2.930,28.809,-25.879,4.883,0
1488724224.115,19.043,16.113,24.902,-12.207,27.832,0
1488724224.119,14.648,22.949,-11.230,-4.883,5.859,0
1488724224.123,16.113,41.504,22.461,26.855,-10.254,0
1488724224.127,33.203,39.062,45.410,48.340,3.906,0
1488724224.131,26.367,12.695,18.066,22.949,-25.391,0
1488724224.135,21.973,1.953,9.766,-1.953,-2.441,0
1488724224.139,41.016,1.953,2.930,-5.859,30.273,0
1488724224.143,50.293,9.766,-7.324,16.602,22.461,0
1488724224.147,45.410,33.691,21.484,44.434,3.906,0
1488724224.151,27.832,45.410,33.203,6.836,-28.809,0
1488724224.154,-8.789,22.949,16.113,-41.504,-31.250,0
1488724224.158,-46.875,9.277,7.812,-53.711,3.906,0
1488724224.162,-25.391,29.297,16.602,-37.109,16.602,0
1488724224.166,20.508,33.203,-20.020,-14.648,13.672,0
1488724224.170,26.367,26.367,-44.922,-13.672,6.836,0
1488724224.174,52.246,57.617,29.785,22.461,6.348,0
1488724224.178,51.270,61.523,15.625,27.344,-1.465,0
1488724224.182,17.578,46.387,-35.645,-1.953,-15.137,0
1488724224.186,24.414,44.434,7.812,-5.859,-1.953,0
1488724224.190,15.137,11.719,6.836,-22.949,10.742,0
1488724224.193,-14.160,-23.438,-42.969,-32.715,-28.320,0
1488724224.197,2.441,22.461,-29.785,1.953,-37.598,0
1488724224.201,27.832,63.477,-0.488,29.297,-7.324,0
1488724224.205,43.945,63.477,12.207,30.762,-12.695,0
1488724224.209,39.551,56.641,16.602,23.438,-23.926,0
1488724224.213,10.254,32.227,27.344,7.812,-46.387,0
1488724224.217,17.578,37.109,37.598,18.066,-22.461,0
1488724224.221,11.230,33.691,19.531,17.090,4.883,0
1488724224.225,20.508,38.574,37.109,34.180,-41.016,0
1488724224.229,29.785,50.781,46.875,40.527,-49.805,0
1488724224.233,-7.324,12.695,-15.625,5.859,-7.812,0
1488724224.236,-8.301,-27.344,-15.625,17.578,4.883,0
1488724224.240,17.090,5.859,51.758,52.734,2.441,0
1488724224.244,3.418,45.410,26.855,36.621,3.906,0
1488724224.248,0.977,27.344,-6.836,13.672,-8.301,0
1488724224.252,10.742,25.391,18.555,10.742,-8.301,0
1488724224.256,53.711,69.336,65.430,63.965,1.465,0
1488724224.260,88.379,81.055,46.387,91.309,-7.812,0
1488724224.264,65.430,39.062,17.090,53.711,-3.906,0
1488724224.268,48.340,14.648,15.625,41.992,-18.555,0
1488724224.272,49.316,31.250,-5.859,31.738,-54.199,0
1488724224.276,61.523,50.781,-10.742,36.133,-48.828,0
1488724224.279,18.555,30.762,3.906,19.531,-11.230,0
1488724224.283,7.324,19.043,20.508,11.230,-6.836,0
1488724224.287,47.363,28.320,6.836,36.133,-10.254,0
1488724224.291,45.898,44.922,0.488,29.297,8.301,0
1488724224.295,35.156,62.988,39.551,23.438,16.113,0
1488724224.299,33.203,60.547,24.902,17.090,1.953,0
1488724224.303,16.602,33.203,-10.742,-0.488,3.418,0
1488724224.307,33.203,41.016,40.527,29.297,0.977,0
1488724224.311,25.391,49.316,57.129,20.020,39.062,0
1488724224.315,0.488,14.160,4.395,-23.926,28.809,0
1488724224.318,2.441,6.348,-14.648,-22.461,-16.602,0
1488724224.322,-37.598,3.418,-13.184,-37.598,19.043,0
1488724224.326,-34.180,3.418,-6.836,-25.879,11.719,0
1488724224.330,-18.555,-10.254,0.977,-22.461,-37.109,0
1488724224.334,8.789,7.812,56.641,-0.488,-31.738,0
1488724224.338,43.457,57.617,80.566,20.996,14.648,0
1488724224.342,6.348,43.457,33.203,-15.625,7.812,0
1488724224.346,-29.297,6.836,-5.859,-15.625,-12.207,0
1488724224.350,20.996,24.414,2.441,15.137,0.488,0
1488724224.354,44.434,46.387,31.738,18.066,8.789,0
1488724224.358,-5.859,33.203,50.781,-9.277,9.766,0
1488724224.361,-10.254,38.086,56.152,-15.625,-35.156,0
1488724224.365,15.137,34.668,26.367,-12.695,-53.711,0
1488724224.369,11.719,18.066,6.348,-16.113,8.789,0
1488724224.373,26.367,25.879,8.301,-11.719,6.836,0
1488724224.377,40.039,31.250,39.551,-6.348,-23.438,0
1488724224.381,26.855,29.785,70.801,-1.953,-17.090,0
1488724224.385,14.648,-13.672,25.391,-16.113,10.254,0
1488724224.389,43.457,12.207,34.180,12.207,-13.672,0
1488724224.393,86.426,89.355,76.660,59.082,-37.598,0
1488724224.397,52.246,57.129,23.438,22.949,0.000,0
1488724224.401,29.297,19.531,13.184,-1.953,14.160,0
1488724224.404,50.293,25.879,61.523,9.766,8.789,0
1488724224.408,33.203,11.719,51.270,10.254,-21.973,0
1488724224.412,23.926,28.809,47.363,39.062,-11.230,0
1488724224.416,47.852,51.270,81.055,65.918,18.555,0
1488724224.420,53.711,20.996,72.266,43.457,-12.207,0
1488724224.424,6.348,-16.602,0.488,0.977,-9.277,0
1488724224.428,-1.953,-4.395,-9.766,-2.930,8.789,0
1488724224.432,21.484,15.137,64.453,19.531,-8.301,0
1488724224.436,-13.672,-15.137,59.082,-4.883,-5.859,0
1488724224.440,18.555,-11.230,43.457,18.066,-3.906,0
1488724224.443,73.730,38.574,29.297,65.918,1.465,0
1488724224.447,37.109,37.598,18.555,31.738,-7.812,0
1488724224.451,4.883,20.996,15.625,5.859,-19.531,0
1488724224.455,8.789,35.156,12.207,18.555,-32.715,0
1488724224.459,24.414,66.895,58.594,29.785,-10.254,0
1488724224.463,17.090,49.316,58.105,17.090,-20.020,0
1488724224.467,14.648,26.367,26.367,2.441,-19.043,0
1488724224.471,38.086,43.457,16.602,18.066,22.949,0
1488724224.475,31.250,37.598,1.953,23.926,12.695,0
1488724224.479,18.066,25.391,-5.859,5.371,-10.742,0
1488724224.483,11.719,25.879,23.926,-9.766,-18.555,0
1488724224.486,24.414,35.645,59.570,15.625,-16.602,0
1488724224.490,25.391,33.691,27.832,7.812,0.977,0
1488724224.494,-2.441,11.719,-33.203,-27.344,-37.109,0
1488724224.498,-0.488,11.230,-16.113,-18.066,-42.969,0
1488724224.502,9.766,29.297,5.859,0.977,12.695,0
1488724224.506,31.250,75.195,19.531,12.695,39.062,0
1488724224.510,46.387,61.523,32.715,18.555,26.855,0
1488724224.514,22.949,-3.906,17.090,15.625,-16.113,0
1488724224.518,19.531,13.672,17.090,28.320,-4.883,0
1488724224.522,48.340,52.734,58.594,62.012,19.043,0
1488724224.526,25.391,24.902,68.359,38.574,10.742,0
1488724224.529,0.977,3.418,34.180,-0.977,8.789,0
1488724224.533,46.387,29.297,45.410,31.250,21.973,0
1488724224.537,71.777,37.109,62.012,65.918,29.785,0
1488724224.541,42.480,21.484,55.176,69.336,16.113,0
1488724224.545,17.578,25.391,26.855,52.734,14.160,0
1488724224.549,19.043,23.926,13.184,35.156,30.762,0
1488724224.553,7.812,3.418,40.527,25.391,25.879,0
1488724224.557,13.184,13.672,84.961,31.738,11.719,0
1488724224.561,43.945,44.434,85.938,53.223,23.438,0
1488724224.565,27.832,38.574,34.180,25.879,41.504,0
1488724224.568,-1.465,10.254,7.812,-8.301,36.621,0
1488724224.572,-20.020,5.371,3.418,-11.230,-9.277,0
1488724224.576,-14.160,35.645,21.484,-4.395,-7.324,0
1488724224.580,-0.488,62.500,33.203,-2.930,18.066,0
1488724224.584,-20.508,26.855,11.230,-13.672,3.906,0
1488724224.588,-13.184,2.441,2.930,-14.648,-2.930,0
1488724224.592,32.227,42.969,13.184,4.883,29.785,0
1488724224.596,16.113,69.336,-7.324,-5.371,23.926,0
1488724224.600,32.227,69.336,-8.301,15.625,-0.977,0
1488724224.604,56.641,58.105,17.090,40.527,-1.465,0
1488724224.608,-0.977,24.902,35.156,-15.137,4.395,0
1488724224.611,-16.113,12.207,42.480,-33.203,12.695,0
1488724224.615,7.324,29.297,32.715,-7.324,-23.926,0
1488724224.619,40.527,54.199,37.598,13.184,-31.250,0
1488724224.623,51.270,65.918,47.363,27.832,6.348,0
1488724224.627,52.734,44.434,54.199,42.480,14.160,0
1488724224.631,48.340,35.645,51.758,41.504,-7.812,0
1488724224.635,9.277,31.250,43.457,5.859,-22.949,0
1488724224.639,24.414,33.691,63.965,21.973,-14.648,0
1488724224.643,87.891,73.242,81.055,92.285,-19.043,0
1488724224.647,65.918,59.082,60.547,67.871,-24.902,0
1488724224.651,37.598,42.480,57.617,40.039,-11.230,0
1488724224.654,23.926,38.086,18.555,44.922,23.926,0
1488724224.658,15.625,37.598,15.137,33.203,13.184,0
1488724224.662,33.691,47.852,51.270,38.574,-2.930,0
1488724224.666,60.059,50.293,66.406,61.035,-10.254,0
1488724224.670,44.922,27.344,34.180,40.039,5.371,0
1488724224.674,17.578,29.785,17.090,13.184,2.441,0
1488724224.678,23.438,54.688,39.062,28.809,5.859,0
1488724224.682,10.742,42.969,12.695,29.297,17.090,0
1488724224.686,-8.789,21.973,-6.836,12.207,30.273,0
1488724224.690,11.719,19.531,5.371,14.648,33.203,0
1488724224.693,25.391,35.156,37.598,22.949,15.625,0
1488724224.697,6.836,21.484,36.133,7.812,23.926,0
1488724224.701,13.184,27.344,3.418,7.812,6.348,0
1488724224.705,-2.441,34.180,-10.742,-4.395,-11.230,0
1488724224.709,9.277,37.598,17.578,9.766,-1.465,0
1488724224.713,58.594,55.664,44.434,51.758,-5.371,0
1488724224.717,67.871,46.875,53.223,47.852,3.906,0
1488724224.721,46.875,34.668,46.387,23.438,17.090,0
1488724224.725,32.715,31.250,24.414,15.625,-1.465,0
1488724224.729,26.855,39.551,12.695,5.859,-7.324,0
1488724224.733,6.836,10.742,-20.996,-15.625,-1.465,0
1488724224.736,10.742,-2.441,-17.578,-8.301,-30.273,0
1488724224.740,31.250,21.484,16.113,19.043,-24.414,0
1488724224.744,24.414,12.207,44.922,16.602,15.137,0
1488724224.748,39.062,29.785,59.570,11.719,1.465,0
1488724224.752,31.250,47.363,33.691,-4.883,-31.250,0
1488724224.756,48.340,57.129,81.543,38.086,-10.254,0
1488724224.760,20.020,39.551,78.613,36.133,16.602,0
1488724224.764,-64.941,-35.645,-9.766,-55.176,20.020,0
1488724224.768,-36.621,0.977,-18.066,-30.762,8.789,0
1488724224.772,-12.207,37.598,30.273,3.418,6.348,0
1488724224.776,-18.066,16.602,67.383,2.441,22.949,0
1488724224.779,-15.137,20.020,69.824,-2.930,-1.953,0
1488724224.783,-18.555,21.973,42.480,-19.531,-13.672,0
1488724224.787,-45.410,10.742,16.113,-40.039,25.879,0
1488724224.791,-47.363,6.348,7.324,-30.762,26.855,0
1488724224.795,-17.578,24.414,22.949,-18.066,-15.137,0
1488724224.799,-8.301,24.902,69.824,-17.090,-10.742,0
1488724224.803,-3.906,42.969,80.078,-6.348,13.184,0
1488724224.807,-24.902,50.293,53.711,-23.926,27.344,0
1488724224.811,-44.922,10.254,25.391,-56.152,2.930,0
1488724224.815,-25.879,9.277,38.086,-51.758,6.836,0
1488724224.818,-15.625,18.066,52.246,-41.504,9.277,0
1488724224.822,-38.574,1.953,21.484,-59.570,7.324,0
1488724224.826,-12.695,21.973,67.871,-22.949,5.859,0
1488724224.830,44.434,62.500,95.703,20.020,-15.137,0
1488724224.834,43.457,65.430,58.594,8.789,-3.906,0
1488724224.838,18.555,67.383,73.730,9.766,16.113,0
1488724224.842,-7.324,37.109,29.297,-12.207,22.461,0
1488724224.846,0.488,30.762,10.254,-21.484,20.508,0
1488724224.850,29.785,64.941,68.359,0.977,20.020,0
1488724224.854,29.297,50.781,52.246,-3.906,-3.906,0
1488724224.858,35.156,39.062,27.344,9.766,-9.277,0
1488724224.861,37.598,20.508,42.969,1.465,-3.418,0
1488724224.865,17.090,-5.371,19.531,-12.207,13.672,0
1488724224.869,25.879,45.898,22.949,16.602,6.348,0
1488724224.873,33.203,76.660,56.152,23.926,-13.672,0
1488724224.877,37.109,86.914,67.383,40.527,10.254,0
1488724224.881,20.996,83.008,7.812,34.180,34.180,0
1488724224.885,0.977,35.156,-9.766,1.953,3.418,0
1488724224.889,3.906,20.020,37.109,-1.953,-16.113,0
1488724224.893,6.836,13.184,31.250,-3.906,5.859,0
1488724224.897,34.180,20.508,-10.742,33.203,21.973,0
1488724224.901,38.086,17.578,-8.789,39.551,11.719,0
1488724224.904,50.781,27.344,38.574,40.039,29.785,0
1488724224.908,93.262,74.219,70.801,83.984,30.762,0
1488724224.912,59.082,52.734,47.363,54.199,13.184,0
1488724224.916,13.672,6.348,-1.953,15.625,-0.488,0
1488724224.920,20.508,10.742,-19.043,19.531,-10.254,0
1488724224.924,3.906,9.766,-3.418,12.695,9.277,0
1488724224.928,-9.277,4.395,5.371,0.000,10.254,0
1488724224.932,16.113,19.531,11.230,1.465,8.789,0
1488724224.936,28.320,21.484,10.254,7.812,27.832,0
1488724224.940,52.734,32.715,21.484,32.227,42.480,0
1488724224.943,71.777,50.781,21.973,47.363,20.996,0
1488724224.947,56.641,40.527,-29.785,54.688,3.418,0
1488724224.951,70.801,41.992,-20.996,67.871,18.066,0
1488724224.955,72.754,35.645,19.043,36.621,25.391,0
1488724224.959,51.270,29.297,7.324,18.555,12.695,0
1488724224.963,32.715,30.273,-13.672,22.461,17.578,0
1488724224.967,38.574,38.574,14.160,27.832,14.160,0
1488724224.971,50.781,42.969,13.184,40.527,20.508,0
1488724224.975,42.969,26.855,-15.137,27.832,0.000,0
1488724224.979,38.574,14.160,-1.953,23.926,-32.227,0
1488724224.983,56.641,37.598,10.742,52.734,3.906,0
1488724224.986,81.543,60.059,16.602,70.312,28.809,0
1488724224.990,77.637,53.223,19.043,58.594,-15.137,0
1488724224.994,59.570,29.785,16.602,37.598,-4.395,0
1488724224.998,36.621,7.324,0.488,5.371,42.480,0
1488724225.002,43.945,31.738,-7.812,14.648,10.742,0
1488724225.006,56.152,62.012,9.277,27.832,2.441,0
1488724225.010,27.832,57.129,-0.488,4.883,27.832,0
1488724225.014,-3.906,39.062,-37.109,-10.254,23.438,0
1488724225.018,23.438,49.805,-52.246,15.137,13.184,0
1488724225.022,44.922,50.293,-0.977,23.438,-10.254,0
1488724225.026,12.695,39.062,1.465,-29.297,32.227,0
1488724225.029,9.766,50.293,-10.254,-39.551,107.422,0
1488724225.033,12.695,33.203,-0.977,-33.691,110.352,0
1488724225.037,27.832,43.945,-18.555,-18.555,127.930,0
1488724225.041,29.297,78.125,-25.391,-13.184,150.391,0
1488724225.045,-12.695,52.246,-35.156,-54.199,147.461,0
1488724225.049,-22.461,38.086,-33.691,-62.988,146.484,0
1488724225.053,-5.859,41.504,-1.465,-41.992,133.789,0
1488724225.057,-1.465,29.297,-2.930,-33.691,110.352,0
1488724225.061,24.414,32.227,-0.488,-1.465,105.469,0
1488724225.065,49.316,34.668,19.043,24.414,102.051,0
1488724225.068,9.766,32.227,-0.977,-8.301,67.871,0
1488724225.072,-14.648,24.902,10.254,-32.715,98.145,0
1488724225.076,35.645,31.250,29.785,13.672,121.094,0
1488724225.080,62.988,42.969,-4.395,41.504,103.027,0
1488724225.084,17.090,34.180,-21.484,-8.301,113.770,0
1488724225.088,-23.438,15.137,6.348,-35.645,96.191,0
1488724225.092,-5.859,28.809,40.039,-2.441,64.453,0
1488724225.096,11.719,44.922,46.387,8.789,69.336,0
1488724225.100,0.488,23.926,27.832,-18.555,86.426,0
1488724225.104,-4.883,10.742,11.230,-25.391,67.871,0
1488724225.108,-3.906,-0.977,-10.254,-15.625,67.871,0
1488724225.111,18.555,29.297,10.742,14.160,65.918,0
1488724225.115,22.461,50.293,37.109,32.227,46.875,0
1488724225.119,38.086,75.684,17.090,44.922,64.941,0
1488724225.123,52.734,80.078,8.789,34.180,57.129,0
1488724225.127,45.898,54.199,23.438,4.395,41.992,0
1488724225.131,32.227,42.480,31.738,-1.465,50.293,0
1488724225.135,8.301,32.227,38.086,0.488,62.988,0
1488724225.139,0.488,35.156,23.926,-6.348,63.965,0
1488724225.143,10.742,34.668,11.230,-13.672,75.684,0
1488724225.147,24.902,33.691,3.418,-32.227,71.289,0
1488724225.151,32.715,44.922,2.441,-17.578,76.660,0
1488724225.154,19.043,33.203,-1.465,-0.977,42.480,0
1488724225.158,20.508,20.996,2.441,-9.766,-0.488,0
1488724225.162,47.363,57.129,26.367,28.809,26.855,0
1488724225.166,41.992,64.453,19.531,35.156,72.754,0
1488724225.170,7.812,27.832,27.832,3.418,46.875,0
1488724225.174,-8.789,26.367,37.598,-14.160,14.160,0
1488724225.178,-2.930,37.598,26.367,-17.090,34.180,0
1488724225.182,0.488,40.527,7.812,1.465,23.438,0
1488724225.186,-15.625,17.578,-0.488,-1.953,16.602,0
1488724225.190,-23.438,-1.465,-1.953,-17.578,29.785,0
1488724225.193,-9.766,20.508,11.230,-4.395,30.273,0
1488724225.197,9.277,45.898,25.391,15.625,40.039,0
1488724225.201,18.555,37.109,32.715,4.395,29.297,0
1488724225.205,-5.371,14.648,40.527,-1.953,24.902,0
1488724225.209,-8.301,14.648,26.367,10.742,53.711,0
1488724225.213,28.320,28.320,30.273,28.320,33.691,0
1488724225.217,71.777,57.617,44.434,60.547,26.855,0
1488724225.221,59.570,51.270,33.691,44.434,33.203,0
1488724225.225,11.719,13.672,10.254,-11.719,25.391,0
1488724225.229,-14.160,3.906,-20.508,-32.715,-3.906,0
1488724225.233,-4.395,15.625,-34.668,-17.090,4.395,0
1488724225.236,24.902,55.176,-1.465,10.254,29.297,0
1488724225.240,29.297,71.777,33.691,20.996,13.672,2
1488724225.244,-5.859,29.785,6.348,-22.461,6.836,0
1488724225.248,7.812,26.855,-7.812,-24.414,4.395,0
1488724225.252,46.875,54.688,7.324,26.855,23.438,0
1488724225.256,42.480,50.293,30.273,24.902,36.621,0
1488724225.260,33.691,22.461,39.551,17.090,1.953,0
1488724225.264,33.691,22.949,2.930,28.320,-17.578,0
1488724225.268,9.766,28.809,0.488,-1.465,15.625,0
1488724225.272,1.953,31.250,19.043,-11.719,38.086,0
1488724225.276,23.438,48.828,58.594,30.273,-5.371,0
1488724225.279,10.742,20.020,41.992,20.996,-0.488,0
1488724225.283,0.488,7.812,0.488,1.465,26.367,0
1488724225.287,8.301,21.973,11.230,12.695,23.438,0
1488724225.291,15.625,13.184,31.250,22.461,33.691,0
1488724225.295,18.066,8.301,10.254,29.297,47.363,0
1488724225.299,11.719,-4.883,16.113,28.320,10.742,0
1488724225.303,20.508,-3.418,68.848,37.598,-13.184,0
1488724225.307,4.395,16.602,67.383,15.625,-25.879,0
1488724225.311,-4.395,16.602,42.480,6.836,-36.133,0
1488724225.315,15.137,34.180,44.922,25.391,1.465,0
1488724225.318,-4.883,29.785,32.715,-3.418,-2.441,0
1488724225.322,-45.410,-4.883,15.625,-24.902,28.809,0
1488724225.326,-64.941,-11.230,-26.855,-27.344,41.992,0
1488724225.330,-15.137,29.785,-6.348,6.836,22.949,0
1488724225.334,-7.812,41.504,46.387,7.812,23.438,0
1488724225.338,-23.438,25.391,51.270,-18.066,7.324,0
1488724225.342,-10.254,10.742,29.297,-18.066,17.578,0
1488724225.346,5.371,18.555,25.391,-2.930,40.527,0
1488724225.350,9.766,34.668,14.160,10.742,14.648,0
1488724225.354,-8.301,38.574,-23.926,3.906,7.812,0
1488724225.358,0.488,40.527,-4.883,-1.953,35.645,0
1488724225.361,6.348,32.715,20.508,-17.578,24.414,0
1488724225.365,24.414,41.992,10.254,0.000,32.715,0
1488724225.369,28.809,44.922,11.719,4.883,35.645,0
1488724225.373,-4.395,27.344,30.273,-19.531,45.410,0
1488724225.377,20.508,32.715,26.855,4.883,44.922,0
1488724225.381,21.973,22.461,12.695,8.789,17.090,0
1488724225.385,4.395,11.230,21.973,-12.695,41.504,0
1488724225.389,37.598,31.738,36.133,20.508,43.457,0
1488724225.393,42.480,37.598,43.945,42.969,24.902,0
1488724225.397,36.133,28.809,38.086,14.160,26.367,0
1488724225.401,25.391,22.949,13.184,-3.418,43.945,0
1488724225.404,29.297,23.438,27.832,21.973,56.152,0
1488724225.408,58.105,38.574,70.312,50.293,38.574,0
1488724225.412,47.852,27.344,69.824,41.016,38.574,0
1488724225.416,24.414,7.812,57.617,31.738,53.223,0
1488724225.420,39.551,29.297,73.730,48.340,59.570,0
1488724225.424,50.293,37.598,69.336,66.895,33.691,0
1488724225.428,9.766,-6.348,22.461,40.039,9.277,0
1488724225.432,-16.602,-13.672,17.578,11.719,23.438,0
1488724225.436,-6.348,7.324,41.992,10.742,47.852,0
1488724225.440,10.254,21.973,54.688,14.160,48.828,0
1488724225.443,20.508,25.391,68.359,18.555,-13.672,0
1488724225.447,17.578,4.883,36.133,13.672,-0.488,0
1488724225.451,16.602,9.766,39.062,28.320,31.738,0
1488724225.455,23.438,23.438,59.570,42.969,-19.043,0
1488724225.459,22.461,28.320,39.551,32.715,8.789,0
1488724225.463,32.715,37.109,45.898,48.828,39.551,0
1488724225.467,18.555,0.488,19.531,41.504,-9.277,0
1488724225.471,-4.395,-9.277,20.996,1.465,4.395,0
1488724225.475,0.977,28.320,36.133,0.000,16.602,0
1488724225.479,-21.973,17.578,4.395,-2.930,10.254,0
1488724225.483,-34.180,12.207,11.719,-13.184,24.902,0
1488724225.486,-3.906,37.109,36.621,-3.418,-2.441,0
1488724225.490,43.457,53.711,49.316,25.391,-9.766,0
1488724225.494,62.012,59.082,30.273,48.828,21.973,0
1488724225.498,29.785,42.480,-8.789,41.504,16.602,0
1488724225.502,7.324,18.555,-2.930,12.695,11.719,0
1488724225.506,3.906,28.809,28.320,8.789,29.785,0
1488724225.510,8.301,29.297,14.160,25.391,33.203,0
1488724225.514,19.531,4.883,-18.555,32.715,-14.160,0
1488724225.518,23.926,12.695,-3.418,10.742,0.000,0
1488724225.522,26.855,32.227,14.160,0.000,25.879,0
1488724225.526,33.203,44.434,6.348,11.719,22.461,0
1488724225.529,41.016,64.941,3.906,14.160,19.043,0
1488724225.533,26.367,54.199,-15.625,2.930,11.230,0
1488724225.537,50.293,56.641,-5.371,31.250,49.805,0
1488724225.541,61.035,62.012,20.996,47.852,43.945,0
1488724225.545,18.555,25.391,36.621,9.277,7.812,0
1488724225.549,4.395,0.977,24.414,3.418,16.602,0
1488724225.553,19.531,-7.812,6.836,20.996,46.387,0
1488724225.557,36.133,10.254,-4.395,30.273,48.340,0
1488724225.561,1.465,31.738,-30.273,0.000,33.691,0
1488724225.565,-14.160,29.297,-9.766,-14.160,68.848,0
1488724225.568,-12.695,18.555,37.598,-4.883,102.051,0
1488724225.572,-18.555,3.418,47.852,-12.695,77.637,0
1488724225.576,10.742,14.160,34.668,7.812,44.922,0
1488724225.580,-1.465,17.578,25.391,3.906,44.922,0
1488724225.584,-32.715,4.883,11.719,-16.113,68.848,0
1488724225.588,-27.832,20.996,1.953,0.000,65.918,0
1488724225.592,-11.719,36.621,7.324,19.043,51.270,0
1488724225.596,11.719,25.391,20.508,20.996,42.480,0
1488724225.600,6.348,8.301,-7.812,-7.812,50.293,0
1488724225.604,4.395,29.297,-1.953,-1.953,49.805,0
1488724225.608,25.879,43.945,0.977,29.297,36.133,0
1488724225.611,22.949,24.902,-22.461,16.602,46.387,0
1488724225.615,13.672,28.809,5.371,0.000,58.594,0
1488724225.619,15.137,45.898,27.344,5.371,29.297,0
1488724225.623,53.223,83.008,49.805,36.133,1.953,0
1488724225.627,62.988,69.336,35.645,47.363,41.016,0
1488724225.631,-7.812,6.348,-9.766,-11.230,45.410,0
1488724225.635,-11.719,18.066,6.836,-22.949,17.090,0
1488724225.639,29.297,59.082,18.555,6.348,26.367,0
1488724225.643,11.719,54.199,16.113,-1.465,42.969,0
1488724225.647,-2.441,40.527,13.672,-16.602,40.527,0
1488724225.651,23.926,32.715,-3.906,-3.418,44.922,0
1488724225.654,35.156,30.273,-2.930,23.438,56.641,0
1488724225.658,46.387,52.246,12.207,37.109,53.223,0
1488724225.662,76.172,76.660,46.875,41.992,41.016,0
1488724225.666,55.176,66.406,29.297,18.555,43.945,0
1488724225.670,20.996,45.898,12.695,7.812,21.973,0
1488724225.674,5.859,31.738,18.555,17.578,15.625,0
1488724225.678,-0.488,28.320,18.555,1.953,26.855,0
1488724225.682,1.465,36.621,26.367,-13.184,-18.066,0
1488724225.686,0.488,42.480,-5.371,-21.484,-17.090,0
1488724225.690,3.418,38.574,-15.137,-25.879,32.227,0
1488724225.693,-0.488,43.945,-6.836,-17.090,23.926,0
1488724225.697,-2.441,46.387,30.273,-2.930,-5.859,0
1488724225.701,13.672,54.688,56.152,2.930,18.555,0
1488724225.705,0.488,29.785,11.719,-22.461,19.043,0
1488724225.709,-15.625,-23.926,1.465,-34.668,7.812,0
1488724225.713,0.977,4.395,0.000,0.977,31.738,0
1488724225.717,6.348,63.965,5.371,11.230,55.176,0
1488724225.721,4.395,52.246,21.484,0.488,45.898,0
1488724225.725,22.949,36.133,22.949,13.184,-0.488,0
1488724225.729,46.875,57.617,35.156,37.598,-5.371,0
1488724225.733,39.551,60.547,36.621,34.180,34.180,0
1488724225.736,24.414,44.922,47.363,13.184,39.551,0
1488724225.740,32.715,39.551,43.945,31.250,18.555,3
1488724225.744,45.410,43.457,21.484,38.574,39.551,0
1488724225.748,38.086,45.410,14.648,17.578,17.090,0
1488724225.752,54.199,31.250,2.441,30.273,13.672,0
1488724225.756,59.570,7.812,-25.879,26.367,55.664,0
1488724225.760,26.367,7.812,-12.207,2.441,21.973,0
1488724225.764,43.457,52.246,38.086,16.113,1.953,0
1488724225.768,64.941,70.801,51.758,34.180,21.973,0
1488724225.772,16.113,15.625,27.344,1.465,44.922,0
1488724225.776,-19.043,3.418,5.371,-27.344,44.922,0
1488724225.779,7.812,40.527,19.043,-3.418,46.875,0
1488724225.783,8.789,20.508,-7.324,-9.277,32.715,0
1488724225.787,12.207,23.926,-10.254,-9.277,31.250,0
1488724225.791,16.113,50.293,13.672,3.906,60.547,0
1488724225.795,-19.043,26.855,-31.250,-25.391,59.082,0
1488724225.799,2.441,29.297,-17.578,-16.113,55.176,0
1488724225.803,25.391,45.898,24.414,14.160,25.879,0
1488724225.807,-9.277,5.859,8.301,-4.395,41.504,0
1488724225.811,-20.996,-16.602,8.301,-22.461,88.379,0
1488724225.815,24.902,19.531,1.465,26.367,64.941,0
1488724225.818,47.363,54.199,-31.250,56.641,46.387,0
1488724225.822,-18.066,28.320,-25.391,-2.930,75.195,0
1488724225.826,-18.555,6.348,12.695,-13.184,77.637,0
1488724225.830,17.578,22.949,19.531,8.789,37.109,0
1488724225.834,16.602,26.367,5.371,5.859,55.176,0
1488724225.838,11.719,31.738,-24.414,11.719,82.520,0
1488724225.842,19.531,49.316,-20.996,23.926,36.621,0
1488724225.846,22.461,46.875,24.414,28.809,31.738,0
1488724225.850,4.883,34.668,43.457,22.461,51.270,0
1488724225.854,-15.625,25.391,16.113,-9.277,59.082,0
1488724225.858,-47.852,-0.977,0.488,-47.852,39.551,0
1488724225.861,-41.992,11.230,-19.531,-31.738,-1.465,0
1488724225.865,-10.742,20.508,-36.133,-2.930,12.695,0
1488724225.869,-2.441,20.020,-8.301,-5.371,55.664,0
1488724225.873,32.715,47.363,14.160,10.742,39.062,0
1488724225.877,27.832,27.832,11.719,4.395,34.180,0
1488724225.881,-15.137,-17.090,-7.324,-19.531,55.664,0
1488724225.885,1.953,14.648,0.977,0.000,21.973,0
1488724225.889,36.621,65.430,39.551,25.879,40.527,0
1488724225.893,8.301,41.504,20.996,6.836,63.965,0
1488724225.897,-5.859,22.461,4.395,8.301,51.270,0
1488724225.901,23.438,11.719,22.461,31.738,21.484,0
1488724225.904,19.043,0.000,24.902,17.578,18.555,0
1488724225.908,-4.883,4.883,18.066,-5.859,26.855,0
1488724225.912,-3.906,5.859,12.695,-8.301,20.020,0
1488724225.916,-19.531,-2.441,-2.441,-24.414,-8.789,0
1488724225.920,-19.043,6.836,1.953,-20.508,5.371,0
1488724225.924,7.324,18.066,24.902,23.926,25.879,0
1488724225.928,15.137,27.344,44.434,42.480,16.602,0
1488724225.932,3.418,25.391,42.969,12.207,12.695,0
1488724225.936,-15.137,14.160,41.992,-8.301,30.273,0
1488724225.940,-15.137,-8.301,35.645,-1.953,59.570,0
1488724225.943,0.977,-2.930,33.691,7.812,50.293,0
1488724225.947,12.207,14.648,23.926,20.508,13.672,0
1488724225.951,-2.441,9.277,-19.043,17.578,-1.953,0
1488724225.955,-7.812,23.926,5.371,9.766,11.719,0
1488724225.959,-2.441,20.020,59.570,3.418,22.461,0
1488724225.963,16.602,23.926,62.500,20.508,10.742,0
1488724225.967,37.598,28.809,39.551,45.898,11.230,0
1488724225.971,5.859,0.977,0.977,20.996,13.672,0
1488724225.975,1.465,11.230,0.000,1.465,2.930,0
1488724225.979,62.988,52.734,51.758,35.156,-14.648,0
1488724225.983,57.129,38.574,49.805,31.250,-14.648,0
1488724225.986,-10.254,5.859,26.367,-14.648,29.785,0
1488724225.990,-43.457,-5.859,35.645,-26.855,42.480,0
1488724225.994,-34.668,-7.324,3.418,-23.926,14.160,0
1488724225.998,3.906,27.832,-11.230,1.953,14.648,0
1488724226.002,30.273,61.523,26.855,40.527,27.832,0
1488724226.006,14.160,23.438,19.043,20.508,42.969,0
1488724226.010,15.137,17.578,33.203,4.395,25.879,0
1488724226.014,17.090,50.781,43.457,-1.953,-23.438,0
1488724226.018,-8.301,36.133,17.090,-16.602,-17.090,0
1488724226.022,-14.160,10.254,10.254,-25.391,16.113,0
1488724226.026,-8.301,20.996,9.277,-26.855,17.578,0
1488724226.029,0.977,38.086,21.484,-14.160,16.602,0
1488724226.033,16.113,41.504,26.855,-7.324,7.324,0
1488724226.037,8.301,41.992,45.898,-4.395,12.207,0
1488724226.041,-13.184,29.785,30.273,-11.719,53.711,0
1488724226.045,0.977,14.648,30.762,-0.977,31.250,0
1488724226.049,-1.465,5.859,23.438,-17.090,46.875,0
1488724226.053,-10.254,23.926,-7.324,-29.297,53.223,0
1488724226.057,-24.414,11.719,9.766,-39.062,20.020,0
1488724226.061,-18.066,10.254,44.922,-30.762,30.273,0
1488724226.065,19.043,58.594,51.758,10.254,41.992,0
1488724226.068,14.160,48.828,12.207,-10.254,46.387,0
1488724226.072,22.461,16.602,-6.836,-19.531,47.852,0
1488724226.076,33.691,15.137,19.043,-0.977,36.621,0
1488724226.080,-2.441,-15.137,45.410,-16.602,36.621,0
1488724226.084,-28.320,-26.367,42.480,-29.785,38.574,0
1488724226.088,16.113,30.762,44.922,27.344,40.527,0
1488724226.092,23.438,22.461,33.691,40.039,42.480,0
1488724226.096,-10.254,-29.785,17.090,-2.930,50.293,0
1488724226.100,17.090,-14.160,42.969,26.367,22.461,0
1488724226.104,16.602,7.324,38.086,42.480,-0.977,0
1488724226.108,9.277,-3.418,21.973,31.250,26.367,0
1488724226.111,15.137,-11.230,33.203,24.414,33.691,0
1488724226.115,19.531,8.789,43.457,24.414,9.277,0
1488724226.119,64.453,60.547,62.988,63.477,4.395,0
1488724226.123,40.039,34.668,58.594,42.480,26.367,0
1488724226.127,-17.578,-33.691,36.621,-21.484,33.691,0
1488724226.131,-8.301,-15.137,31.738,-17.578,43.945,0
1488724226.135,-8.789,17.090,25.879,6.836,49.805,0
1488724226.139,-24.902,16.602,2.930,-8.301,51.270,0
1488724226.143,0.488,31.250,-4.395,-10.742,55.664,0
1488724226.147,16.602,31.250,21.973,7.324,2.441,0
1488724226.151,26.367,29.297,70.801,22.949,-9.277,0
1488724226.154,19.531,20.996,39.551,9.766,41.016,0
1488724226.158,6.348,4.395,0.977,6.836,20.508,0
1488724226.162,-0.977,38.574,22.461,19.531,6.836,0
1488724226.166,-14.160,43.945,30.762,5.371,62.500,0
1488724226.170,-13.184,36.133,34.180,-4.395,83.984,0
1488724226.174,24.902,66.406,56.641,29.785,56.152,0
1488724226.178,42.480,57.129,35.645,47.852,23.926,0
1488724226.182,-3.906,16.602,-23.926,1.953,13.184,0
1488724226.186,-32.715,-19.043,-5.371,-20.996,46.387,0
1488724226.190,-17.578,-27.344,6.836,-19.531,58.105,0
1488724226.193,3.906,26.855,9.277,-7.324,41.016,0
1488724226.197,16.602,39.062,28.809,2.930,57.129,0
1488724226.201,26.855,26.367,34.668,4.883,63.965,0
1488724226.205,25.879,35.645,39.062,-0.488,55.664,0
1488724226.209,9.766,23.438,10.742,-16.113,23.438,0
1488724226.213,8.789,21.973,1.465,6.836,27.344,0
1488724226.217,24.414,25.879,24.414,41.504,41.992,0
1488724226.221,-11.230,-5.859,11.230,7.812,19.531,0
1488724226.225,-47.363,-21.484,-17.578,-19.531,32.715,0
1488724226.229,-24.414,5.859,23.438,2.930,53.223,0
1488724226.233,4.883,41.504,86.914,31.738,54.199,0
1488724226.236,4.395,35.645,73.730,35.645,39.551,0
1488724226.240,13.672,24.414,56.641,47.363,20.020,4
1488724226.244,-5.859,7.812,30.273,23.926,43.945,0
1488724226.248,-36.133,-28.320,-18.066,-17.090,36.621,0
1488724226.252,-7.324,-14.160,5.859,10.742,36.621,0
1488724226.256,-8.789,-8.789,27.832,6.836,48.828,0
1488724226.260,-7.812,5.859,14.160,-4.395,37.109,0
1488724226.264,-15.137,21.973,-3.418,-12.207,40.039,0
1488724226.268,-17.578,23.438,-4.883,-6.836,43.945,0
1488724226.272,1.465,37.109,7.812,18.555,51.758,0
1488724226.276,6.348,39.062,15.137,19.043,32.227,0
1488724226.279,25.879,41.504,37.598,32.715,35.156,0
1488724226.283,22.949,18.066,2.930,31.250,25.391,0
1488724226.287,23.926,30.762,-1.465,21.484,33.691,0
1488724226.291,-6.836,32.715,8.789,-10.254,42.480,0
1488724226.295,-65.430,-4.883,-27.832,-60.547,10.742,0
1488724226.299,-51.270,-20.508,-10.254,-54.199,18.066,0
1488724226.303,5.371,3.418,7.812,-1.953,41.992,0
1488724226.307,21.973,37.598,-23.438,17.090,39.551,0
1488724226.311,-2.930,28.809,-24.414,-0.488,29.785,0
1488724226.315,-8.301,23.438,26.855,-7.324,3.418,0
1488724226.318,0.488,13.672,17.090,-21.973,-11.230,0
1488724226.322,14.160,21.484,-1.953,-9.766,-1.953,0
1488724226.326,18.555,33.691,-32.227,0.488,4.883,0
1488724226.330,-13.184,23.926,-54.688,-33.691,-24.414,0
1488724226.334,-30.273,9.277,-13.184,-52.734,12.695,0
1488724226.338,-31.250,-3.906,7.324,-40.527,36.621,0
1488724226.342,-42.480,-3.906,-8.301,-44.922,0.488,0
1488724226.346,-20.996,17.090,24.414,-27.832,33.691,0
1488724226.350,-7.812,1.465,23.926,-14.648,79.590,0
1488724226.354,-11.719,-18.066,7.324,-18.555,43.945,0
1488724226.358,9.766,15.625,-7.324,-4.883,-5.859,0
1488724226.361,0.000,20.020,-34.668,-28.809,8.789,0
1488724226.365,-29.785,-4.395,-11.230,-53.711,38.086,0
1488724226.369,-41.992,-8.301,12.207,-56.641,29.297,0
1488724226.373,-29.297,-15.137,20.020,-47.363,10.742,0
1488724226.377,4.883,9.277,27.832,-11.719,7.812,0
1488724226.381,21.973,45.898,20.508,15.625,22.461,0
1488724226.385,8.789,40.527,-12.207,10.254,27.344,0
1488724226.389,-16.602,9.277,-27.344,-21.973,19.043,0
1488724226.393,-3.418,5.859,14.648,-24.414,6.348,0
1488724226.397,21.484,20.508,44.922,5.371,3.418,0
1488724226.401,13.672,26.367,13.184,-13.672,15.137,0
1488724226.404,10.742,34.180,-8.301,-38.574,19.043,0
1488724226.408,35.156,54.199,1.465,-11.719,36.621,0
1488724226.412,48.828,67.871,-0.977,17.578,29.297,0
1488724226.416,47.852,55.176,-5.859,34.180,12.695,0
1488724226.420,26.367,29.297,-21.973,27.832,21.484,0
1488724226.424,-7.324,16.113,-20.508,-12.695,40.527,0
1488724226.428,5.859,15.625,16.113,-20.508,36.133,0
1488724226.432,41.992,28.320,38.086,16.602,4.395,0
1488724226.436,35.156,30.273,14.648,10.742,31.250,0
1488724226.440,37.598,28.320,16.602,15.137,57.129,0
1488724226.443,43.457,41.504,29.785,44.922,18.066,0
1488724226.447,43.457,60.547,24.902,43.457,16.113,0
1488724226.451,36.621,33.691,48.340,28.809,42.969,0
1488724226.455,11.719,1.953,41.992,2.930,38.574,0
1488724226.459,25.391,28.320,20.020,7.324,24.414,0
1488724226.463,47.363,48.828,10.742,27.344,-12.695,0
1488724226.467,41.992,36.621,25.391,11.230,-16.602,0
1488724226.471,31.250,25.391,4.395,-6.348,23.438,0
1488724226.475,47.852,53.223,14.160,30.273,19.531,0
1488724226.479,53.711,37.598,52.734,54.688,-1.465,0
1488724226.483,49.805,21.484,50.293,49.805,13.672,0
1488724226.486,44.434,36.133,55.176,38.574,39.062,0
1488724226.490,48.828,42.969,54.688,37.598,38.574,0
1488724226.494,48.828,35.645,29.297,55.176,5.859,0
1488724226.498,20.996,-6.836,17.090,31.738,19.043,0
1488724226.502,34.180,22.461,44.434,28.809,42.480,0
1488724226.506,43.457,53.223,28.320,40.039,52.734,0
1488724226.510,46.875,40.039,7.812,41.016,36.621,0
1488724226.514,50.781,34.180,39.062,40.527,40.039,0
1488724226.518,41.992,41.016,67.871,31.250,42.969,0
1488724226.522,50.293,52.734,62.988,35.156,3.906,0
1488724226.526,51.270,39.551,59.570,31.250,19.531,0
1488724226.529,45.410,39.062,72.754,37.598,55.176,0
1488724226.533,36.133,56.152,40.039,30.762,44.434,0
1488724226.537,46.875,65.918,17.578,31.250,51.270,0
1488724226.541,61.523,62.500,50.781,53.223,61.523,0
1488724226.545,35.156,35.645,70.312,21.973,27.344,0
1488724226.549,-0.488,15.137,43.457,-20.020,25.391,0
1488724226.553,14.648,36.133,9.766,-2.441,20.996,0
1488724226.557,35.156,49.805,39.551,25.391,-2.930,0
1488724226.561,27.344,45.410,62.012,22.461,28.809,0
1488724226.565,30.273,63.477,48.828,31.250,52.246,0
1488724226.568,57.617,79.102,42.480,49.316,-5.859,0
1488724226.572,37.598,43.457,20.508,12.695,-3.418,0
1488724226.576,0.977,11.719,13.184,-19.531,35.156,0
1488724226.580,24.414,29.297,38.574,-8.789,11.719,0
1488724226.584,60.547,58.594,58.105,24.414,15.137,0
1488724226.588,56.152,62.012,43.945,42.969,47.852,0
1488724226.592,45.898,53.711,42.480,41.016,21.973,0
1488724226.596,35.645,61.035,62.500,29.297,-5.371,0
1488724226.600,13.672,64.941,54.688,15.137,15.625,0
1488724226.604,16.602,56.641,33.691,6.836,30.762,0
1488724226.608,43.457,52.734,41.016,19.531,39.062,0
1488724226.611,18.555,26.367,40.527,6.348,17.578,0
1488724226.615,-13.672,25.391,18.555,-8.789,3.418,0
1488724226.619,12.207,56.641,4.395,5.859,26.367,0
1488724226.623,49.316,50.293,23.926,32.715,7.324,0
1488724226.627,52.246,51.758,57.129,31.738,15.137,0
1488724226.631,14.648,50.293,29.785,-16.113,36.621,0
1488724226.635,-13.184,20.996,11.719,-41.992,14.160,0
1488724226.639,0.488,17.578,55.664,-8.789,1.465,0
1488724226.643,14.648,25.391,51.758,13.672,24.902,0
1488724226.647,14.160,20.020,5.859,7.324,37.109,0
1488724226.651,24.902,9.277,15.137,7.324,35.156,0
1488724226.654,19.043,8.301,22.461,10.742,18.066,0
1488724226.658,-7.324,11.719,17.090,10.254,9.277,0
1488724226.662,20.508,53.223,57.617,44.922,43.457,0
1488724226.666,28.809,41.016,60.059,49.316,53.223,0
1488724226.670,15.625,8.301,47.363,26.367,21.484,0
1488724226.674,11.230,28.320,35.645,18.066,17.578,0
1488724226.678,-17.578,10.742,-6.836,-15.137,35.645,0
1488724226.682,24.414,50.293,38.086,19.043,25.391,0
1488724226.686,21.973,70.801,33.203,36.621,27.832,0
1488724226.690,-49.316,8.789,-27.832,-20.996,28.320,0
1488724226.693,-41.992,0.000,-15.137,-32.227,25.879,0
1488724226.697,-8.789,27.832,13.672,-11.230,18.555,0
1488724226.701,-20.996,26.367,18.066,1.953,-3.418,0
1488724226.705,-30.762,3.418,39.062,8.301,-8.301,0
1488724226.709,-11.230,24.414,42.480,13.184,31.250,0
1488724226.713,24.414,79.102,21.484,39.062,12.695,0
1488724226.717,-20.508,30.762,-4.883,-13.672,-5.371,0
1488724226.721,-41.504,10.742,-18.066,-53.223,34.668,0
1488724226.725,-1.953,46.387,-6.836,-22.461,43.457,0
1488724226.729,-8.789,8.789,13.184,-38.086,25.879,0
1488724226.733,-20.996,-23.438,14.160,-62.988,25.879,0
1488724226.736,-9.766,1.465,25.879,-25.391,47.363,0
1488724226.740,33.691,59.082,45.410,37.598,42.969,5
1488724226.744,21.973,50.781,-5.371,20.996,-2.441,0
1488724226.748,-3.906,29.785,-14.648,-18.555,-22.461,0
1488724226.752,26.855,52.246,16.602,-3.418,14.160,0
1488724226.756,19.043,37.109,22.949,-6.348,33.691,0
1488724226.760,14.160,14.160,40.039,-3.906,21.973,0
1488724226.764,0.000,-1.953,45.898,4.395,13.672,0
1488724226.768,-12.207,-16.602,39.551,-3.906,20.508,0
1488724226.772,9.277,7.812,32.715,16.113,21.973,0
1488724226.776,17.090,24.902,-0.977,27.344,19.531,0
1488724226.779,36.621,23.926,2.441,35.645,42.969,0
1488724226.783,50.781,44.922,52.246,36.133,46.875,0
1488724226.787,25.391,35.156,60.059,2.441,18.066,0
1488724226.791,-8.301,-17.090,60.547,-4.395,-14.160,0
1488724226.795,-15.625,-23.926,44.434,-5.371,-8.789,0
1488724226.799,-15.625,16.113,25.391,-4.883,39.062,0
1488724226.803,-15.137,28.320,35.156,11.230,31.738,0
1488724226.807,-6.348,20.508,45.410,16.113,-9.277,0
1488724226.811,-7.324,-1.465,1.465,0.488,3.418,0
1488724226.815,19.531,21.973,-1.465,20.020,19.531,0
1488724226.818,22.461,42.969,25.879,34.180,18.555,0
1488724226.822,14.160,39.062,28.809,32.715,24.414,0
1488724226.826,23.926,59.082,40.039,37.109,17.578,0
1488724226.830,16.113,41.016,27.344,24.414,46.875,0
1488724226.834,-19.531,-0.977,-6.348,-15.137,38.574,0
1488724226.838,-22.949,5.859,0.000,-20.508,-17.090,0
1488724226.842,14.160,30.273,13.184,24.902,1.953,0
1488724226.846,26.855,46.875,-7.324,50.781,48.340,0
1488724226.850,29.785,57.617,9.277,55.176,9.766,0
1488724226.854,31.250,22.461,59.082,44.434,-12.695,0
1488724226.858,24.902,22.461,42.480,33.691,37.109,0
1488724226.861,39.062,53.711,21.973,51.758,47.363,0
1488724226.865,63.477,41.016,57.617,60.547,49.805,0
1488724226.869,57.617,29.297,66.406,60.547,33.203,0
1488724226.873,42.480,25.391,47.363,59.082,2.441,0
1488724226.877,44.922,11.230,51.270,68.359,19.531,0
1488724226.881,49.805,27.832,74.219,77.148,1.953,0
1488724226.885,74.707,57.129,74.707,93.750,-8.789,0
1488724226.889,82.520,57.129,56.641,103.516,8.301,0
1488724226.893,60.059,33.203,49.805,83.496,24.902,0
1488724226.897,30.273,3.906,70.312,64.453,19.043,0
1488724226.901,-12.207,-21.484,67.871,27.832,-11.230,0
1488724226.904,-12.695,-15.137,28.320,8.789,0.000,0
1488724226.908,26.855,4.883,34.668,40.527,25.879,0
1488724226.912,30.762,33.203,73.242,71.289,33.691,0
1488724226.916,20.996,46.875,44.922,46.387,14.160,0
1488724226.920,37.109,49.805,26.367,31.250,11.230,0
1488724226.924,25.391,29.785,34.668,12.207,10.254,0
1488724226.928,-7.812,10.742,11.230,-20.996,10.254,0
1488724226.932,8.301,38.574,39.551,-1.953,24.414,0
1488724226.936,13.184,8.301,44.922,-2.930,12.207,0
1488724226.940,-2.930,-7.812,0.977,-23.926,-15.137,0
1488724226.943,-16.602,12.695,-7.812,-26.367,-32.227,0
1488724226.947,-19.531,3.906,-1.953,-38.574,23.438,0
1488724226.951,0.488,34.180,-7.812,-27.832,24.902,0
1488724226.955,3.418,83.496,12.207,-9.766,-8.789,0
1488724226.959,-8.789,79.102,57.617,-15.137,4.395,0
1488724226.963,-7.324,44.434,36.621,-21.484,20.996,0
1488724226.967,11.719,37.109,-7.812,-15.137,23.438,0
1488724226.971,-0.488,20.020,-21.484,-29.785,13.672,0
1488724226.975,-47.363,-23.438,-5.371,-68.359,-0.977,0
1488724226.979,-20.020,-21.973,31.250,-34.180,-6.348,0
1488724226.983,33.203,13.184,48.340,20.508,18.555,0
1488724226.986,16.602,22.949,15.625,-3.906,-2.441,0
1488724226.990,38.574,54.688,-9.277,15.137,-31.738,0
1488724226.994,61.523,53.223,7.324,56.152,19.531,0
1488724226.998,33.691,16.602,24.902,40.039,16.602,0
1488724227.002,42.480,22.949,57.617,62.500,-31.250,0
1488724227.006,36.621,4.395,74.707,58.594,3.906,0
1488724227.010,12.207,-38.574,48.340,12.207,37.598,0
1488724227.014,44.434,-14.160,52.246,45.898,41.016,0
1488724227.018,67.383,37.109,25.391,80.078,56.152,0
1488724227.022,38.574,25.879,-8.789,43.457,78.125,0
1488724227.026,69.824,41.992,63.477,59.082,63.477,0
1488724227.029,67.871,52.734,73.242,53.711,2.441,0
1488724227.033,14.648,15.137,-13.672,5.371,0.000,0
1488724227.037,33.691,35.156,-30.273,25.391,32.715,0
1488724227.041,45.410,46.387,-15.625,24.414,22.949,0
1488724227.045,-5.859,13.672,-4.883,-6.836,-16.113,0
1488724227.049,-29.785,17.578,0.488,-11.719,-20.020,0
1488724227.053,-2.930,43.457,-29.297,-1.465,50.293,0
1488724227.057,28.320,48.340,-29.785,15.625,73.730,0
1488724227.061,27.344,55.664,-15.625,11.230,33.203,0
1488724227.065,45.410,84.961,-4.883,22.949,49.316,0
1488724227.068,44.922,73.730,7.324,12.207,62.988,0
1488724227.072,14.160,27.344,-19.531,-20.020,24.902,0
1488724227.076,17.578,13.184,-4.395,-18.555,9.277,0
1488724227.080,-7.324,3.906,10.742,-44.434,12.207,0
1488724227.084,-17.578,3.906,-3.906,-54.688,40.527,0
1488724227.088,10.742,7.812,11.230,-20.508,30.273,0
1488724227.092,59.082,51.270,39.062,45.410,18.066,0
1488724227.096,27.832,57.617,12.695,27.344,53.223,0
1488724227.100,-10.742,3.418,0.488,-10.254,76.172,0
1488724227.104,17.090,0.000,33.203,9.277,33.691,0
1488724227.108,40.527,29.785,57.617,33.203,14.160,0
1488724227.111,28.809,10.742,17.090,15.137,35.645,0
1488724227.115,32.715,8.789,37.598,10.742,31.738,0
1488724227.119,33.691,0.977,84.961,30.273,-3.418,0
1488724227.123,20.508,-12.207,65.918,29.297,-4.395,0
1488724227.127,10.254,7.324,55.664,27.832,38.086,0
1488724227.131,15.137,13.184,35.156,30.762,66.406,0
1488724227.135,31.250,16.602,35.645,25.879,1.953,0
1488724227.139,37.598,16.602,64.453,32.715,-7.812,0
1488724227.143,22.461,23.438,47.363,38.086,38.086,0
1488724227.147,16.602,16.602,46.875,37.598,12.695,0
1488724227.151,-5.371,-3.418,53.223,7.324,14.648,0
1488724227.154,-45.898,-27.832,-3.418,-26.855,23.926,0
1488724227.158,-26.367,-18.555,-13.672,-4.883,4.395,0
1488724227.162,12.207,13.672,33.691,14.648,3.906,0
1488724227.166,-6.836,23.438,20.508,-9.766,-8.301,0
1488724227.170,-25.391,26.855,5.371,-11.719,-26.855,0
1488724227.174,4.395,50.293,41.992,34.668,11.230,0
1488724227.178,52.734,91.309,82.031,64.941,29.297,0
1488724227.182,84.473,95.215,87.891,75.195,-1.953,0
1488724227.186,30.273,18.066,19.043,27.344,22.461,0
1488724227.190,-20.020,-14.160,-18.066,-16.113,40.527,0
1488724227.193,10.742,19.043,6.836,19.531,39.551,0
1488724227.197,20.508,18.555,-2.930,34.668,23.926,0
1488724227.201,7.324,20.996,0.488,9.277,2.441,0
1488724227.205,10.254,33.691,30.762,10.254,34.180,0
1488724227.209,5.371,35.645,28.320,23.438,28.320,0
1488724227.213,46.875,47.852,27.832,60.059,-18.555,0
1488724227.217,89.844,63.965,25.879,92.285,-6.836,0
1488724227.221,77.148,50.781,-16.602,73.242,-1.953,0
1488724227.225,77.148,42.480,11.230,64.941,-11.230,0
1488724227.229,48.828,34.668,46.875,59.570,-8.301,0
1488724227.233,3.418,11.230,15.625,25.391,36.621,0
1488724227.236,9.766,11.719,12.207,10.254,66.895,0
1488724227.240,32.227,23.438,34.668,27.344,17.090,0
1488724227.244,83.008,56.641,39.551,72.266,14.160,0
1488724227.248,106.445,79.590,11.719,83.984,46.387,0
1488724227.252,54.688,56.152,-5.371,38.574,41.016,0
1488724227.256,33.203,48.828,12.695,34.180,45.898,0
1488724227.260,34.180,47.852,20.508,28.320,16.602,0
1488724227.264,8.301,17.578,22.949,-13.184,21.484,0
1488724227.268,14.160,14.160,31.738,-8.789,62.012,0
1488724227.272,16.113,6.348,11.230,-7.324,8.301,0
1488724227.276,8.789,12.695,-40.039,-27.832,3.906,0
1488724227.279,62.500,78.125,-24.414,35.645,40.527,0
1488724227.283,84.473,78.125,20.020,74.219,26.855,0
1488724227.287,30.762,41.016,3.418,24.414,18.066,0
1488724227.291,-9.277,30.273,29.297,-21.484,26.855,0
1488724227.295,-9.277,30.273,40.527,-29.297,33.691,0
1488724227.299,26.855,54.688,26.367,-4.883,27.344,0
1488724227.303,50.781,75.195,57.129,22.461,18.066,0
1488724227.307,14.648,37.109,45.898,-3.418,16.113,0
1488724227.311,-4.883,-4.395,11.230,-38.574,25.879,0
1488724227.315,3.418,-18.066,0.000,-29.297,15.137,0
1488724227.318,-3.906,-10.254,12.207,-14.648,12.207,0
1488724227.322,1.953,20.996,17.578,1.953,29.785,0
1488724227.326,27.344,51.758,25.391,30.762,35.156,0
1488724227.330,45.898,55.664,51.270,48.828,34.668,0
1488724227.334,38.086,29.785,31.250,27.832,27.832,0
1488724227.338,23.926,11.230,24.902,3.418,22.461,0
1488724227.342,41.992,35.156,62.500,19.043,22.461,0
1488724227.346,24.414,41.504,34.180,11.719,12.207,0
1488724227.350,1.953,16.602,11.230,-16.602,13.184,0
1488724227.354,19.531,25.879,27.832,1.465,23.926,0
1488724227.358,24.414,42.480,27.832,22.949,29.785,0
1488724227.361,15.137,50.293,30.273,2.930,-5.859,0
1488724227.365,17.578,47.852,21.484,-11.719,-24.414,0
1488724227.369,22.949,41.016,2.441,-1.953,15.137,0
1488724227.373,47.363,66.406,23.926,27.344,11.230,0
1488724227.377,67.871,83.496,-3.418,40.527,3.906,0
1488724227.381,69.824,57.617,-18.066,33.203,21.484,0
1488724227.385,49.316,31.250,23.926,28.809,10.742,0
1488724227.389,16.113,23.438,45.410,10.254,-7.324,0
1488724227.393,7.812,26.367,60.059,-6.836,-4.395,0
1488724227.397,8.789,26.367,17.090,-19.043,12.695,0
1488724227.401,16.113,28.809,-3.906,-4.395,40.527,0
1488724227.404,23.926,32.227,26.855,29.297,38.574,0
1488724227.408,63.965,67.871,50.293,82.031,13.672,0
1488724227.412,67.383,66.406,25.391,90.820,47.363,0
1488724227.416,12.695,2.441,-7.812,21.973,54.199,0
1488724227.420,-5.859,0.488,8.789,-7.324,37.598,0
1488724227.424,16.113,21.484,54.688,23.438,54.688,0
1488724227.428,36.133,4.883,83.008,42.480,74.219,0
1488724227.432,9.277,-11.230,41.504,15.137,44.434,0
1488724227.436,-9.766,12.207,35.645,0.488,31.250,0
1488724227.440,13.672,43.457,64.941,26.367,52.734,0
1488724227.443,16.113,24.902,21.973,32.715,46.875,0
1488724227.447,14.160,6.348,16.602,30.273,26.855,0
1488724227.451,47.852,47.852,62.988,60.547,0.000,0
1488724227.455,52.734,49.316,70.312,56.152,16.113,0
1488724227.459,15.625,2.930,40.527,17.090,42.480,0
1488724227.463,2.930,14.648,30.762,22.461,38.574,0
1488724227.467,-10.254,10.254,13.184,16.602,29.297,0
1488724227.471,-13.184,5.859,-3.418,-5.859,40.527,0
1488724227.475,8.789,45.410,30.273,17.578,22.949,0
1488724227.479,9.277,51.758,40.527,18.555,17.090,0
1488724227.483,1.953,26.855,-0.488,-14.160,56.152,0
1488724227.486,18.555,24.414,-25.391,-2.930,59.082,0
1488724227.490,20.508,28.809,-3.906,4.395,57.129,0
1488724227.494,8.789,43.457,22.461,-7.324,50.293,0
1488724227.498,28.809,63.965,7.324,2.441,39.551,0
1488724227.502,10.742,39.062,-15.625,-13.184,62.500,0
1488724227.506,-1.953,26.855,20.996,-4.883,61.523,0
1488724227.510,0.977,35.156,34.668,4.883,7.812,0
1488724227.514,26.367,31.738,21.484,20.508,4.883,0
1488724227.518,72.754,71.289,30.762,62.012,34.668,0
1488724227.522,22.949,42.480,18.555,16.602,36.133,0
1488724227.526,-14.648,-10.254,-17.090,-12.695,33.203,0
1488724227.529,4.883,8.789,-19.043,20.508,42.969,0
1488724227.533,41.992,24.902,38.574,59.082,32.715,0
1488724227.537,47.363,4.395,61.523,52.246,2.441,0
1488724227.541,32.715,-5.371,13.672,26.367,-20.020,0
1488724227.545,28.809,14.160,3.906,27.344,-8.301,0
1488724227.549,49.805,31.250,55.664,47.852,16.113,0
1488724227.553,67.871,30.273,68.848,57.129,26.367,0
1488724227.557,39.551,-1.953,40.527,34.668,-13.184,0
1488724227.561,-7.324,-3.418,-3.906,5.859,8.301,0
1488724227.565,-9.766,-0.977,7.324,5.859,60.059,0
1488724227.568,28.809,15.625,48.340,30.762,32.715,0
1488724227.572,36.621,36.133,52.246,29.785,0.977,0
1488724227.576,11.230,18.555,16.602,13.672,-4.395,0
1488724227.580,-10.742,9.766,-6.348,2.441,2.441,0
1488724227.584,9.277,21.484,7.324,5.859,-4.395,0
1488724227.588,46.875,36.133,14.160,37.109,-8.789,0
1488724227.592,55.664,44.434,15.137,62.988,-1.465,0
1488724227.596,8.301,31.738,7.324,10.254,30.273,0
1488724227.600,-30.762,22.461,9.277,-40.527,16.113,0
1488724227.604,-20.996,53.711,34.180,-25.391,-44.434,0
1488724227.608,-20.996,62.988,34.180,-15.625,1.465,0
1488724227.611,-13.184,59.082,5.859,-17.090,36.621,0
1488724227.615,-29.785,36.621,-31.738,-37.109,19.043,0
1488724227.619,-30.762,19.531,-0.977,-27.832,33.203,0
1488724227.623,-9.277,31.250,18.555,4.883,44.922,0
1488724227.627,-14.160,24.414,4.883,0.000,53.711,0
1488724227.631,0.488,21.973,33.203,-4.395,35.156,0
1488724227.635,34.668,53.711,48.340,30.762,7.324,0
1488724227.639,34.180,53.223,34.668,26.855,22.461,0
1488724227.643,38.086,21.484,32.227,28.809,4.883,0
1488724227.647,55.664,26.855,56.152,54.688,-28.809,0
1488724227.651,54.688,48.828,41.016,46.875,5.371,0
1488724227.654,41.016,54.199,9.277,37.109,53.711,0
1488724227.658,4.395,8.301,-1.465,10.742,23.438,0
1488724227.662,1.953,-0.977,27.832,0.977,-7.812,0
1488724227.666,8.789,24.414,61.035,6.348,11.719,0
1488724227.670,23.926,18.555,85.449,19.043,33.203,0
1488724227.674,57.129,22.461,102.539,41.992,44.922,0
1488724227.678,57.617,33.203,62.500,38.574,18.066,0
1488724227.682,29.297,12.695,-4.883,17.090,0.977,0
1488724227.686,25.879,15.137,13.672,31.738,36.133,0
1488724227.690,22.461,9.766,48.340,30.273,11.230,0
1488724227.693,38.086,-29.785,24.902,21.973,-29.297,0
1488724227.697,70.312,-3.906,27.832,53.711,12.207,0
1488724227.701,57.129,45.898,65.430,70.801,15.137,0
1488724227.705,48.340,43.457,50.781,62.988,18.555,0
1488724227.709,47.852,23.438,13.184,46.387,20.508,0
1488724227.713,46.387,25.391,19.043,36.621,25.879,0
1488724227.717,45.898,33.203,47.852,47.363,30.762,0
1488724227.721,33.203,21.484,41.992,48.340,20.508,0
1488724227.725,35.156,20.996,29.785,36.621,15.625,0
1488724227.729,57.617,40.039,41.504,61.523,11.719,0
1488724227.733,44.922,28.320,52.734,64.453,29.297,0
1488724227.736,2.930,-8.789,8.301,31.250,-10.254,0
1488724227.740,8.789,8.301,-10.254,25.391,-13.672,0
1488724227.744,16.602,24.414,7.324,4.883,19.043,0
1488724227.748,10.254,28.809,12.207,-14.160,-8.789,0
1488724227.752,20.020,48.828,35.156,14.160,-4.395,0
1488724227.756,16.602,55.176,30.762,22.949,21.973,0
1488724227.760,22.949,42.480,-8.301,4.395,37.109,0
1488724227.764,43.457,32.227,5.371,17.578,22.461,0
1488724227.768,30.762,42.480,15.625,11.230,22.461,0
1488724227.772,32.715,35.645,20.020,6.836,44.922,0
1488724227.776,40.039,22.461,26.855,21.973,17.578,0
1488724227.779,-20.020,-0.488,-16.602,-15.625,-8.789,0
1488724227.783,-34.180,-19.531,-22.949,-34.668,-29.297,0
1488724227.787,-1.953,7.324,-6.836,-25.391,49.805,0
1488724227.791,11.719,21.973,-8.789,-20.020,82.031,0
1488724227.795,16.602,10.254,11.230,-9.277,38.574,0
1488724227.799,39.551,31.738,35.645,16.602,45.410,0
1488724227.803,27.344,51.758,13.672,26.855,73.730,0
1488724227.807,12.695,37.109,4.395,36.133,42.480,0
1488724227.811,54.688,41.016,30.273,53.711,-9.766,0
1488724227.815,53.223,44.922,0.977,50.293,25.391,0
1488724227.818,24.414,20.996,-19.531,46.875,52.734,0
1488724227.822,2.441,-21.484,2.930,26.855,49.316,0
1488724227.826,17.090,-4.883,29.785,27.344,25.879,0
1488724227.830,46.875,12.207,59.570,57.617,2.930,0
1488724227.834,37.598,7.812,30.762,60.059,35.645,0
1488724227.838,5.371,19.043,-6.836,41.016,40.527,0
1488724227.842,-3.906,5.371,3.906,38.574,17.090,0
1488724227.846,26.855,22.949,18.066,51.270,19.531,0
1488724227.850,26.367,34.180,20.996,51.270,35.156,0
1488724227.854,37.109,47.852,33.203,54.199,16.602,0
1488724227.858,39.551,30.762,31.250,41.016,-7.812,0
1488724227.861,1.465,-23.926,16.113,12.207,18.555,0
1488724227.865,-12.207,-11.230,35.156,1.465,34.668,0
1488724227.869,-21.484,21.484,22.461,-5.371,25.391,0
1488724227.873,-8.301,20.508,-17.090,-6.836,-24.414,0
1488724227.877,43.457,37.598,-3.906,26.367,-41.992,0
1488724227.881,43.457,58.105,18.555,38.574,-1.465,0
1488724227.885,-13.184,31.738,8.301,-4.395,-12.207,0
1488724227.889,-31.250,19.043,-18.555,-38.574,-42.969,0
1488724227.893,-26.367,33.691,-42.969,-54.199,-27.344,0
1488724227.897,-13.184,39.551,-15.137,-39.062,-17.578,0
1488724227.901,-5.371,29.297,-2.441,-25.879,-15.137,0
1488724227.904,0.000,17.090,-11.230,-26.367,-10.254,0
1488724227.908,20.508,25.391,-9.277,-14.648,-0.977,0
1488724227.912,20.996,50.781,-6.348,-22.461,16.602,0
1488724227.916,-8.789,35.156,-23.926,-45.410,-14.160,0
1488724227.920,29.785,65.430,-35.645,-13.184,-20.996,0
1488724227.924,81.543,101.562,1.953,12.207,-9.766,0
1488724227.928,19.043,44.434,-6.348,-45.898,-26.367,0
1488724227.932,1.465,40.039,0.977,-45.898,-16.602,0
1488724227.936,21.484,46.875,15.137,-15.137,-18.066,0
1488724227.940,2.441,22.949,4.883,-21.973,1.953,0
1488724227.943,29.297,41.504,25.391,0.000,13.184,0
1488724227.947,39.062,48.340,24.902,-5.859,-20.996,0
1488724227.951,41.504,60.547,-8.789,-10.254,12.207,0
1488724227.955,32.715,56.641,-41.504,-9.766,50.293,0
1488724227.959,-9.766,21.484,-32.227,-47.852,7.812,0
1488724227.963,-1.465,18.555,-8.301,-40.527,-18.066,0
1488724227.967,17.578,22.949,15.625,-6.348,10.742,0
1488724227.971,23.438,44.434,42.969,9.277,12.207,0
1488724227.975,24.902,56.641,44.922,8.789,0.000,0
1488724227.979,22.461,27.344,19.043,-0.977,2.441,0
1488724227.983,22.949,34.180,-11.719,-1.465,-6.348,0
1488724227.986,8.301,46.875,-25.391,8.789,0.488,0
1488724227.990,-2.930,10.254,-34.180,2.441,18.555,0
1488724227.994,4.883,-2.930,-36.621,-7.324,18.066,0
1488724227.998,15.625,26.367,-62.500,18.555,26.855,0
1488724228.002,1.465,27.832,-84.961,23.926,36.133,0
1488724228.006,9.766,12.695,-33.691,29.297,46.387,0
1488724228.010,73.242,52.734,31.250,81.543,25.391,0
1488724228.014,68.848,44.434,30.273,72.754,29.297,0
1488724228.018,-8.301,-29.297,1.953,6.348,40.527,0
1488724228.022,-23.926,-26.855,0.977,7.324,-13.184,0
1488724228.026,14.648,23.438,-1.953,35.156,-0.488,0
1488724228.029,44.922,37.598,-22.461,50.293,41.504,0
1488724228.033,87.891,47.852,3.418,86.914,36.133,0
1488724228.037,62.012,13.184,23.926,69.824,37.598,0
1488724228.041,0.000,-26.367,-9.277,24.414,56.152,0
1488724228.045,20.020,14.160,12.207,32.715,56.641,0
1488724228.049,26.367,23.926,57.617,36.133,42.969,0
1488724228.053,23.926,33.203,53.711,37.109,37.598,0
1488724228.057,38.574,58.594,-3.906,38.086,35.645,0
1488724228.061,7.324,26.367,-32.227,22.461,49.805,0
1488724228.065,0.977,0.977,-5.859,22.949,43.945,0
1488724228.068,37.109,37.109,-0.488,47.852,6.836,0
1488724228.072,24.414,29.297,2.930,36.621,41.504,0
1488724228.076,-6.836,5.371,24.902,-1.953,73.242,0
1488724228.080,5.371,24.902,31.250,3.418,70.801,0
1488724228.084,10.742,22.949,26.855,22.461,74.707,0
1488724228.088,-1.465,9.277,10.742,7.812,79.590,0
1488724228.092,7.812,23.438,-20.996,7.812,64.941,0
1488724228.096,26.855,54.688,-26.367,29.297,38.574,0
1488724228.100,19.043,52.246,-12.207,17.578,39.062,0
1488724228.104,27.832,32.227,3.906,10.742,57.129,0
1488724228.108,34.668,17.090,18.066,13.672,51.758,0
1488724228.111,15.137,27.344,17.578,16.602,44.434,0
1488724228.115,18.066,49.316,25.391,22.949,29.785,0
1488724228.119,11.719,36.133,21.973,4.883,48.828,0
1488724228.123,16.113,25.391,1.465,12.695,44.922,0
1488724228.127,7.324,16.113,-12.695,15.625,11.230,0
1488724228.131,5.371,36.133,0.977,9.766,29.297,0
1488724228.135,14.648,62.500,6.836,11.230,70.312,0
1488724228.139,50.781,77.148,46.387,45.410,76.172,0
1488724228.143,51.270,54.199,50.293,48.340,45.898,0
1488724228.147,20.996,21.973,3.418,24.902,45.898,0
1488724228.151,10.254,26.367,-0.488,13.672,66.895,0
1488724228.154,-6.348,34.668,22.461,0.000,46.875,0
1488724228.158,7.812,35.156,30.762,19.531,24.414,0
1488724228.162,26.855,31.250,42.480,31.250,44.434,0
1488724228.166,20.020,50.293,50.293,32.227,94.238,0
1488724228.170,7.324,58.105,17.578,27.832,61.523,0
1488724228.174,-13.184,17.578,-12.695,3.906,24.902,0
1488724228.178,-21.973,-3.418,-17.578,-14.648,61.523,0
1488724228.182,-10.254,20.996,-10.254,-0.977,50.293,0
1488724228.186,10.254,29.785,28.320,18.555,46.875,0
1488724228.190,25.391,13.184,39.551,12.207,46.387,0
1488724228.193,25.879,17.090,10.742,8.301,47.852,0
1488724228.197,30.762,55.176,-3.906,24.414,75.195,0
1488724228.201,42.480,60.547,40.039,40.527,51.270,0
1488724228.205,9.277,20.996,38.086,23.438,18.066,0
1488724228.209,-34.180,-8.789,-38.574,-28.809,53.223,0
1488724228.213,-39.551,-18.555,-39.062,-55.176,43.457,0
1488724228.217,-29.297,-5.859,4.883,-40.527,52.246,0
1488724228.221,6.836,17.578,37.109,2.930,64.453,0
1488724228.225,24.902,22.949,35.645,22.949,48.828,0
1488724228.229,18.066,5.371,13.184,26.855,19.043,0
1488724228.233,27.344,33.691,24.414,22.949,9.277,0
1488724228.236,62.012,89.355,56.152,35.156,52.734,0
1488724228.240,27.832,57.129,22.949,18.066,63.965,0
1488724228.244,-19.043,1.465,-21.973,-29.297,34.180,0
1488724228.248,-9.766,6.836,-38.086,-29.297,-1.953,0
1488724228.252,5.859,21.973,-17.578,-1.953,27.832,0
1488724228.256,14.648,24.902,18.066,5.371,43.457,0
1488724228.260,3.906,26.855,13.184,-16.113,3.906,0
1488724228.264,12.207,30.762,30.762,-7.812,16.113,0
1488724228.268,42.480,10.742,37.109,17.578,62.988,0
1488724228.272,40.039,39.062,40.527,22.461,46.387,0
1488724228.276,20.020,73.730,20.020,0.000,39.551,0
1488724228.279,-2.441,38.574,-4.883,-26.367,40.039,0
1488724228.283,3.418,40.527,28.320,-25.391,25.391,0
1488724228.287,0.000,46.875,36.621,-34.668,33.203,0
1488724228.291,-35.645,23.926,-11.719,-41.016,18.555,0
1488724228.295,-34.180,7.324,-29.297,-36.133,1.465,0
1488724228.299,-18.555,-10.254,-21.973,-36.621,17.090,0
1488724228.303,5.371,29.785,15.625,2.441,26.855,0
1488724228.307,7.812,39.062,73.730,17.090,8.789,0
1488724228.311,-1.953,15.137,62.012,1.953,-1.465,0
1488724228.315,-10.742,10.742,19.043,-10.742,36.621,0
1488724228.318,11.719,25.879,34.180,4.395,44.922,0
1488724228.322,24.414,25.879,23.438,12.695,13.672,0
1488724228.326,29.297,13.672,22.461,9.766,-1.465,0
1488724228.330,55.664,38.086,66.406,33.203,0.977,0
1488724228.334,41.992,25.391,47.363,20.508,18.066,0
1488724228.338,52.246,20.996,37.109,32.227,3.906,0
1488724228.342,47.852,19.043,14.160,30.762,-9.766,0
1488724228.346,42.969,-0.977,36.133,32.227,21.484,0
1488724228.350,27.832,-6.836,66.406,28.320,14.648,0
1488724228.354,-8.789,0.977,34.180,-7.324,-23.926,0
1488724228.358,-5.371,18.066,21.484,1.465,-11.230,0
1488724228.361,11.230,16.602,22.949,9.277,15.137,0
1488724228.365,38.086,40.039,49.316,27.344,11.719,0
1488724228.369,79.590,83.984,74.219,62.988,2.441,0
1488724228.373,79.102,45.410,68.848,46.875,44.922,0
1488724228.377,54.199,-0.977,22.461,20.508,63.477,0
1488724228.381,39.551,5.859,16.602,9.766,51.270,0
1488724228.385,3.906,-11.230,29.785,-19.043,20.996,0
1488724228.389,11.719,6.836,43.945,-6.348,12.207,0
1488724228.393,33.203,36.133,48.340,14.160,47.363,0
1488724228.397,38.086,49.316,29.785,19.531,38.574,0
1488724228.401,55.664,73.242,42.480,39.062,15.625,0
1488724228.404,41.992,76.660,56.152,37.109,17.578,0
1488724228.408,24.414,49.316,59.082,35.645,35.156,0
1488724228.412,-0.488,17.090,34.668,15.137,2.930,0
1488724228.416,-50.781,-24.414,-0.488,-50.781,9.277,0
1488724228.420,-44.434,-20.996,10.742,-62.500,62.988,0
1488724228.424,-16.113,18.066,53.223,-28.320,46.387,0
1488724228.428,-4.395,29.785,64.941,-22.461,3.418,0
1488724228.432,14.160,38.574,69.336,-33.203,24.902,0
1488724228.436,68.848,94.238,94.727,31.738,65.918,0
1488724228.440,35.156,52.246,68.359,20.508,47.852,0
1488724228.443,-40.039,-29.297,23.438,-61.035,20.020,0
1488724228.447,-25.391,-4.883,26.367,-39.551,51.758,0
1488724228.451,5.371,21.484,51.758,4.395,58.594,0
1488724228.455,7.324,18.555,56.152,8.301,40.527,0
1488724228.459,-0.977,18.066,33.203,-9.277,4.883,0
1488724228.463,0.488,29.785,43.457,-20.996,21.973,0
1488724228.467,31.250,66.406,81.543,15.137,48.828,0
1488724228.471,37.109,61.035,63.965,30.273,20.996,0
1488724228.475,-2.441,13.672,42.969,-4.395,30.273,0
1488724228.479,26.367,24.902,80.566,11.719,57.617,0
1488724228.483,62.988,41.016,104.492,31.250,42.969,0
1488724228.486,38.574,2.930,102.539,23.438,16.602,0
1488724228.490,20.508,-6.836,81.055,11.230,29.785,0
1488724228.494,19.043,-22.461,53.223,3.906,32.715,0
1488724228.498,33.203,-13.184,82.031,31.738,29.297,0
1488724228.502,31.738,28.809,82.031,28.809,1.465,0
1488724228.506,-0.977,22.461,44.922,-8.789,4.395,0
1488724228.510,9.766,24.414,66.406,11.230,30.273,0
1488724228.514,52.246,44.922,82.520,54.688,20.020,0
1488724228.518,41.504,41.504,73.730,35.645,39.062,0
1488724228.522,22.949,39.062,93.750,19.043,31.250,0
1488724228.526,10.254,27.344,59.082,12.695,21.484,0
1488724228.529,7.812,15.625,35.156,2.441,22.461,0
1488724228.533,33.691,23.438,56.641,18.555,6.348,0
1488724228.537,55.664,53.223,81.543,41.504,19.043,0
1488724228.541,45.898,75.195,99.121,39.551,9.766,0
1488724228.545,-1.953,23.438,52.734,-0.977,-22.949,0
1488724228.549,-4.395,36.621,42.969,-2.930,-15.625,0
1488724228.553,16.602,82.031,56.152,9.766,22.461,0
1488724228.557,17.578,49.316,29.297,-1.465,11.719,0
1488724228.561,-1.953,17.090,28.320,-22.949,1.953,0
1488724228.565,-20.996,15.625,56.641,-26.855,16.602,0
1488724228.568,-10.742,9.766,83.008,10.742,18.555,0
1488724228.572,0.000,17.578,72.754,24.902,28.809,0
1488724228.576,10.742,51.758,38.086,24.414,-1.465,0
1488724228.580,16.602,18.555,56.152,14.160,-17.090,0
1488724228.584,11.230,16.602,93.262,0.977,17.090,0
1488724228.588,20.996,48.828,103.516,27.344,35.156,0
1488724228.592,43.457,49.316,110.840,51.758,23.926,0
1488724228.596,28.320,35.156,101.074,32.227,21.484,0
1488724228.600,25.879,28.320,87.402,39.551,44.434,0
1488724228.604,41.504,26.367,70.801,51.758,63.477,0
1488724228.608,18.555,13.672,55.664,22.949,49.316,0
1488724228.611,33.691,15.625,79.590,37.598,13.184,0
1488724228.615,85.449,15.137,102.539,82.520,31.738,0
1488724228.619,84.961,33.203,69.824,76.172,27.344,0
1488724228.623,45.898,34.180,46.875,38.574,-6.836,0
1488724228.627,38.086,45.898,72.266,32.227,14.160,0
1488724228.631,59.570,68.848,111.328,42.480,29.785,0
1488724228.635,51.758,38.574,102.539,28.809,45.410,0
1488724228.639,10.742,7.324,53.711,7.324,59.570,0
1488724228.643,14.648,20.508,35.645,40.527,41.504,0
1488724228.647,30.762,20.020,27.344,49.805,46.875,0
1488724228.651,19.531,3.418,36.133,19.531,48.828,0
1488724228.654,15.137,-11.719,48.828,19.043,33.691,0
1488724228.658,23.926,13.672,59.570,22.949,42.480,0
1488724228.662,47.363,47.363,78.613,35.645,48.340,0
1488724228.666,62.500,49.805,61.035,63.965,45.410,0
1488724228.670,39.551,41.016,33.203,41.016,41.504,0
1488724228.674,10.742,22.461,45.898,18.555,54.688,0
1488724228.678,-2.441,12.207,52.734,26.367,43.457,0
1488724228.682,6.348,21.973,24.902,21.973,12.207,0
1488724228.686,48.828,46.875,-9.277,48.340,42.480,0
1488724228.690,40.039,37.598,26.367,36.133,62.500,0
1488724228.693,11.719,35.645,80.078,-5.371,52.246,0
1488724228.697,4.883,54.199,49.805,-7.812,40.039,0
1488724228.701,-1.465,52.246,17.578,1.465,41.016,0
1488724228.705,-2.930,24.902,37.109,-16.113,75.684,0
1488724228.709,-2.441,18.066,35.156,-28.320,76.172,0
1488724228.713,4.395,25.391,-3.906,-10.254,28.809,0
1488724228.717,-20.996,-7.324,-18.066,-22.461,34.668,0
1488724228.721,-2.930,27.344,49.805,0.488,69.336,0
1488724228.725,9.277,63.477,64.941,-0.977,29.785,0
1488724228.729,-10.254,28.320,32.715,-26.855,13.672,0
1488724228.733,1.465,16.113,15.137,-8.789,33.203,0
1488724228.736,11.230,36.621,-29.785,3.906,32.715,0
1488724228.740,19.043,58.105,2.930,9.277,50.781,0
1488724228.744,53.711,65.430,93.262,39.551,60.059,0
1488724228.748,38.086,39.551,81.543,32.227,52.734,0
1488724228.752,2.441,27.344,19.043,-1.953,31.250,0
1488724228.756,17.090,19.043,29.297,3.906,14.160,0
1488724228.760,28.320,9.766,56.152,13.184,-1.953,0
1488724228.764,43.945,10.254,60.059,35.156,7.812,0
1488724228.768,21.484,-13.672,45.410,32.715,41.016,0
1488724228.772,3.906,3.906,41.992,18.555,-3.418,0
1488724228.776,59.570,63.965,76.172,53.711,-3.906,0
1488724228.779,55.664,43.945,48.828,49.805,36.621,0
1488724228.783,20.508,-4.883,39.551,37.598,2.441,0
1488724228.787,33.691,8.789,93.750,58.594,-2.441,0
1488724228.791,29.785,30.762,84.473,63.965,4.883,0
1488724228.795,14.160,17.090,72.266,43.457,8.301,0
1488724228.799,59.570,32.715,88.379,79.590,5.859,0
1488724228.803,96.680,51.270,70.312,122.070,-21.973,0
1488724228.807,42.480,32.227,26.367,69.336,-17.578,0
1488724228.811,41.992,34.180,59.082,69.824,-1.465,0
1488724228.815,63.965,26.367,62.500,90.332,-24.414,0
1488724228.818,41.016,21.973,49.316,71.289,-44.434,0
1488724228.822,23.438,3.418,50.781,46.875,-8.301,0
1488724228.826,46.387,17.578,47.363,66.406,39.551,0
1488724228.830,72.266,52.734,83.496,101.562,-3.418,0
1488724228.834,54.199,31.738,52.246,70.801,-25.391,0
1488724228.838,26.367,15.137,0.488,38.086,23.926,0
1488724228.842,34.180,29.297,7.812,50.781,25.879,0
1488724228.846,73.730,45.898,48.340,72.266,-0.977,0
1488724228.850,54.688,16.113,28.320,51.758,24.414,0
1488724228.854,42.480,24.414,12.695,49.316,25.879,0
1488724228.858,54.688,54.199,34.668,59.570,17.090,0
1488724228.861,27.832,21.484,30.762,36.621,0.488,0
1488724228.865,57.129,34.180,42.480,62.012,-1.465,0
1488724228.869,144.531,100.586,101.074,138.184,4.883,0
1488724228.873,92.285,45.410,55.176,83.496,-33.691,0
1488724228.877,0.977,-17.578,-24.414,-11.719,-37.598,0
1488724228.881,18.555,28.809,26.367,8.301,-2.441,0
1488724228.885,41.504,58.594,46.875,41.504,6.348,0
1488724228.889,31.250,27.832,-1.465,31.738,-1.953,0
1488724228.893,39.551,38.086,20.508,33.203,-0.977,0
1488724228.897,41.016,63.477,49.316,39.551,-3.418,0
1488724228.901,15.137,46.875,43.945,17.578,-1.465,0
1488724228.904,12.695,27.344,61.523,19.043,-9.766,0
1488724228.908,3.906,-0.488,46.387,13.184,3.906,0
1488724228.912,-30.762,1.465,-16.602,-14.648,32.227,0
1488724228.916,-38.574,27.344,-10.254,-13.184,36.133,0
1488724228.920,13.184,51.270,28.320,31.738,10.742,0
1488724228.924,29.297,45.898,52.246,41.016,4.883,0
1488724228.928,10.742,38.574,79.590,31.250,51.270,0
1488724228.932,19.043,33.203,66.406,28.320,32.715,0
1488724228.936,-34.668,-4.883,12.207,-14.160,6.348,0
1488724228.940,-41.504,5.859,22.949,-9.277,25.879,0
1488724228.943,13.672,29.785,43.457,34.180,32.227,0
1488724228.947,10.254,19.043,32.227,19.531,32.227,0
1488724228.951,-5.371,33.203,46.387,1.465,-19.043,0
1488724228.955,17.578,72.754,33.691,28.809,-39.551,0
1488724228.959,16.113,71.289,16.602,36.133,4.395,0
1488724228.963,-19.531,27.344,16.113,-12.207,20.020,0
1488724228.967,-9.766,-0.977,8.301,-34.668,11.719,0
1488724228.971,-2.441,-0.977,-7.812,-36.133,10.254,0
1488724228.975,-31.738,7.812,-10.254,-51.758,8.301,0
1488724228.979,-43.945,18.066,-19.531,-60.059,3.906,0
1488724228.983,-23.926,41.016,-28.809,-30.762,-11.719,0
1488724228.986,38.086,63.477,8.301,21.484,6.836,0
1488724228.990,54.199,60.547,23.926,20.508,20.020,0
1488724228.994,1.465,38.086,18.066,-28.320,-15.137,0
1488724228.998,-3.418,40.527,27.832,-30.762,-40.527,0
1488724229.002,-11.230,43.945,9.766,-30.273,-34.180,0
1488724229.006,8.301,55.664,-11.719,-8.789,-0.977,0
1488724229.010,30.762,45.898,-18.066,-2.441,-28.809,0
1488724229.014,33.691,50.293,27.344,-7.812,-47.363,0
1488724229.018,36.133,59.082,42.969,-1.953,-9.766,0
1488724229.022,-2.930,30.273,10.742,-25.879,-3.418,0
1488724229.026,-20.508,19.531,-13.184,-31.738,-4.883,0
1488724229.029,0.000,19.043,-21.484,-20.996,-1.465,0
1488724229.033,49.805,42.969,-6.348,27.344,26.367,0
1488724229.037,86.914,67.871,13.184,67.871,38.574,0
1488724229.041,23.438,21.484,12.207,0.977,7.812,0
1488724229.045,-12.695,8.789,34.180,-36.621,-21.484,0
1488724229.049,44.922,68.359,68.359,23.438,-21.484,0
1488724229.053,29.297,41.992,29.297,18.066,-9.766,0
1488724229.057,-2.441,0.488,-9.277,-7.812,-39.062,0
1488724229.061,13.184,21.484,-25.879,5.859,-39.551,0
1488724229.065,15.137,27.832,-34.180,10.254,10.742,0
1488724229.068,49.316,59.082,8.301,44.434,12.695,0
1488724229.072,35.156,60.547,19.043,18.066,10.742,0
1488724229.076,6.348,33.203,6.836,-16.602,38.086,0
1488724229.080,15.137,20.020,16.113,-3.906,23.926,0
1488724229.084,1.953,12.207,-2.441,-21.973,0.000,0
1488724229.088,18.555,31.250,-2.930,-0.977,5.859,0
1488724229.092,30.273,47.852,13.184,24.414,17.578,0
1488724229.096,18.555,33.691,-16.602,7.324,40.039,0
1488724229.100,7.324,26.367,0.977,-10.742,21.484,0
1488724229.104,0.488,24.902,16.602,-24.902,4.395,0
1488724229.108,13.184,42.480,4.883,-9.277,44.434,0
1488724229.111,15.625,43.457,30.273,15.137,39.062,0
1488724229.115,8.789,25.391,23.926,19.043,16.602,0
1488724229.119,-7.324,5.859,-19.531,-20.508,24.414,0
1488724229.123,-24.902,-3.906,-26.855,-46.875,50.293,0
1488724229.127,20.508,53.223,16.113,22.461,42.480,0
1488724229.131,67.383,85.449,77.148,76.660,29.297,0
1488724229.135,-0.488,22.949,39.551,0.977,31.738,0
1488724229.139,-70.801,-27.344,-35.156,-63.477,47.852,0
1488724229.143,-24.902,9.277,-2.441,-20.508,54.688,0
1488724229.147,20.508,36.621,33.203,-7.324,28.809,0
1488724229.151,-2.441,15.625,15.625,-36.621,41.992,0
1488724229.154,8.301,44.434,32.227,-9.766,79.590,0
1488724229.158,37.109,55.176,19.531,18.066,77.637,0
1488724229.162,28.320,27.832,-2.441,-6.836,81.543,0
1488724229.166,11.230,23.926,25.391,-25.879,88.867,0
1488724229.170,27.344,34.180,17.090,-2.441,75.684,0
1488724229.174,45.410,31.250,6.348,13.184,71.777,0
1488724229.178,44.922,43.457,16.113,15.137,58.105,0
1488724229.182,28.320,48.340,20.508,6.836,69.336,0
1488724229.186,17.090,43.945,6.348,7.812,87.891,0
1488724229.190,31.250,56.152,11.719,15.625,65.430,0
1488724229.193,32.227,43.457,26.855,14.160,26.367,0
1488724229.197,40.527,54.688,8.301,26.855,33.691,0
1488724229.201,34.180,66.895,-7.812,-1.465,57.617,0
1488724229.205,5.859,28.809,2.930,-37.598,81.055,0
1488724229.209,6.836,19.043,-2.930,-15.625,72.754,0
1488724229.213,4.395,17.578,11.719,-0.977,75.195,0
1488724229.217,-12.695,-6.348,9.766,-33.691,69.336,0
1488724229.221,-17.578,0.000,-5.371,-40.527,50.293,0
1488724229.225,-14.160,7.324,-4.395,-25.391,55.664,0
1488724229.229,2.441,33.203,-3.906,-10.742,34.180,0
1488724229.233,8.301,52.246,-13.672,-6.348,50.781,0
1488724229.236,-4.883,37.109,2.930,-16.113,32.715,0
1488724229.240,3.418,45.410,62.988,7.324,4.883,0
1488724229.244,33.691,63.477,77.637,43.945,36.133,0
1488724229.248,15.137,25.391,18.555,6.836,27.344,0
1488724229.252,-1.953,-17.090,8.301,-15.625,11.230,0
1488724229.256,15.625,-18.555,11.719,0.488,18.066,0
1488724229.260,4.395,7.812,-4.883,-12.207,49.316,0
1488724229.264,1.953,36.621,-12.695,-8.301,51.758,0
1488724229.268,25.879,61.035,16.113,2.930,20.508,0
1488724229.272,16.113,50.293,48.340,-14.160,25.391,0
1488724229.276,40.527,58.105,58.594,4.883,18.066,0
1488724229.279,32.715,53.711,30.762,5.371,0.977,0
1488724229.283,-6.348,20.996,-19.531,-30.762,-14.648,0
1488724229.287,20.996,15.137,-14.160,-4.883,5.371,0
1488724229.291,37.598,21.484,3.906,24.414,44.922,0
1488724229.295,16.113,40.527,34.180,14.648,13.184,0
1488724229.299,5.859,42.480,32.227,-6.348,-4.883,0
1488724229.303,0.488,18.555,1.953,-10.254,36.133,0
1488724229.307,28.320,36.621,57.617,22.949,61.523,0
1488724229.311,37.109,73.242,69.336,41.504,37.109,0
1488724229.315,5.371,36.621,-0.488,3.418,16.113,0
1488724229.318,10.742,20.996,-4.883,-14.648,50.781,0
1488724229.322,16.602,47.363,16.113,-6.348,44.922,0
1488724229.326,-18.066,30.762,37.109,-26.367,-0.488,0
1488724229.330,-38.086,5.371,20.020,-31.738,7.812,0
1488724229.334,-3.906,28.320,-3.906,-8.789,37.109,0
1488724229.338,12.207,36.621,18.066,-4.395,31.250,0
1488724229.342,2.930,20.996,38.574,-5.371,30.273,0
1488724229.346,6.348,17.090,40.039,11.230,49.316,0
1488724229.350,30.273,19.043,27.832,15.625,38.574,0
1488724229.354,68.359,59.570,32.227,34.668,37.598,0
1488724229.358,64.453,66.895,47.363,31.250,26.855,0
1488724229.361,40.527,34.668,30.273,7.324,41.504,0
1488724229.365,31.738,42.480,1.465,14.160,59.082,0
1488724229.369,-11.719,18.066,-19.043,-17.578,41.504,0
1488724229.373,7.812,23.926,29.297,-14.648,23.438,0
1488724229.377,62.012,57.129,77.148,35.156,35.645,0
1488724229.381,55.176,40.039,44.434,42.480,46.387,0
1488724229.385,24.414,27.832,22.949,32.227,15.137,0
1488724229.389,24.902,36.621,56.641,50.293,-3.418,0
1488724229.393,39.062,31.250,53.711,49.805,31.738,0
1488724229.397,17.090,8.301,3.906,20.020,58.594,0
1488724229.401,2.441,20.508,0.488,24.902,42.969,0
1488724229.404,26.367,52.246,32.227,38.086,4.395,0
1488724229.408,35.156,45.410,27.832,38.086,-1.953,0
1488724229.412,47.363,48.828,27.344,54.199,18.066,0
1488724229.416,47.852,53.223,45.898,49.316,-4.395,0
1488724229.420,8.301,29.297,8.789,23.926,-0.977,0
1488724229.424,-0.977,19.531,6.348,16.113,38.086,0
1488724229.428,25.391,33.203,32.715,21.973,12.695,0
1488724229.432,52.734,48.340,18.555,40.039,-10.254,0
1488724229.436,62.500,41.504,6.348,46.875,31.250,0
1488724229.440,52.734,53.711,38.086,50.293,49.805,0
1488724229.443,47.852,76.660,78.125,68.359,3.906,0
1488724229.447,8.301,38.086,34.180,22.461,-12.695,0
1488724229.451,-22.461,-7.324,4.883,-17.578,32.715,0
1488724229.455,34.180,24.414,49.316,27.832,20.020,0
1488724229.459,84.473,72.266,82.031,66.406,-27.344,0
1488724229.463,48.828,44.922,46.875,30.273,-6.836,0
1488724229.467,12.695,17.578,13.672,4.395,3.906,0
1488724229.471,14.648,44.922,52.246,24.902,-10.254,0
1488724229.475,26.855,39.062,56.152,31.250,-19.531,0
1488724229.479,19.531,4.395,-12.207,0.977,-17.578,0
1488724229.483,0.000,16.602,-37.109,-25.879,1.465,0
1488724229.486,-13.184,18.555,21.484,-14.648,20.508,0
1488724229.490,18.066,33.691,78.613,27.832,17.578,0
1488724229.494,1.465,23.438,19.531,-5.371,-6.836,0
1488724229.498,-35.156,-8.301,-34.668,-65.918,10.742,0
1488724229.502,-8.789,34.668,23.926,-32.227,34.180,0
1488724229.506,2.930,60.547,35.645,-4.395,17.578,0
1488724229.510,-13.672,20.508,15.137,-24.414,14.648,0
1488724229.514,-23.438,19.531,37.109,-29.297,28.320,0
1488724229.518,-41.504,16.602,-2.441,-32.227,12.207,0
1488724229.522,-5.371,31.738,-18.066,2.930,-10.254,0
1488724229.526,22.949,51.270,-11.230,24.902,7.812,0
1488724229.529,-17.090,7.812,-17.090,-19.043,42.969,0
1488724229.533,-37.598,-9.766,22.461,-39.062,26.367,0
1488724229.537,-33.203,4.883,42.480,-21.484,17.090,0
1488724229.541,-13.672,34.180,57.129,8.301,47.363,0
1488724229.545,14.648,41.504,51.270,34.668,19.531,0
1488724229.549,3.906,-7.812,17.578,21.973,10.742,0
1488724229.553,-4.883,-28.320,-17.578,-3.906,33.203,0
1488724229.557,17.090,13.672,-17.090,18.555,31.250,0
1488724229.561,26.367,34.180,19.043,48.828,28.320,0
1488724229.565,26.855,28.809,80.566,44.434,9.277,0
1488724229.568,26.855,5.859,83.008,24.902,-24.902,0
1488724229.572,28.320,-3.906,55.664,22.949,-0.488,0
1488724229.576,29.297,14.648,56.641,15.137,19.043,0
1488724229.580,41.992,31.250,27.832,17.578,-8.789,0
1488724229.584,51.270,7.812,10.254,29.297,-8.789,0
1488724229.588,24.902,-7.812,4.395,10.742,10.742,0
1488724229.592,11.230,11.230,3.906,-5.859,-6.836,0
1488724229.596,7.812,14.160,15.625,-10.254,-12.207,0
1488724229.600,3.418,14.160,36.621,-13.184,8.789,0
1488724229.604,44.922,42.969,39.062,23.438,-6.348,0
1488724229.608,22.461,45.898,16.602,22.949,-6.836,0
1488724229.611,-40.527,2.441,9.766,-28.809,-24.902,0
1488724229.615,-29.297,-21.973,0.977,-42.969,-14.160,0
1488724229.619,-1.953,5.371,-0.488,-26.855,35.645,0
1488724229.623,-2.441,24.902,11.719,-13.672,-2.441,0
1488724229.627,4.883,33.203,44.434,5.371,-34.668,0
1488724229.631,0.000,41.504,53.223,11.230,-1.953,0
1488724229.635,-23.438,17.090,-18.555,-19.531,34.668,0
1488724229.639,-9.766,25.391,-30.273,-35.645,26.855,0
1488724229.643,29.785,48.828,53.711,-1.953,17.090,0
1488724229.647,-0.977,8.301,26.855,-16.602,22.461,0
1488724229.651,-34.668,-17.578,-15.625,-41.992,16.602,0
1488724229.654,-3.906,12.207,39.062,5.371,-4.395,0
1488724229.658,-1.953,-9.766,53.711,1.465,-29.785,0
1488724229.662,-12.207,-17.578,20.020,-13.184,-7.324,0
1488724229.666,10.742,43.945,19.043,22.461,39.062,0
1488724229.670,-15.137,37.598,26.855,7.324,6.348,0
1488724229.674,-15.625,14.648,52.246,10.742,-7.324,0
1488724229.678,37.109,18.555,85.938,34.180,34.668,0
1488724229.682,17.090,1.465,65.430,6.836,-6.836,0
1488724229.686,-16.113,-16.113,59.570,-8.789,-1.953,0
1488724229.690,-8.301,-6.836,46.875,-2.930,30.762,0
1488724229.693,-14.648,1.953,28.809,-10.742,16.602,0
1488724229.697,-19.531,13.184,44.922,-20.020,21.973,0
1488724229.701,0.488,30.273,63.965,-9.766,12.695,0
1488724229.705,13.184,41.016,54.688,4.395,-7.324,0
1488724229.709,9.766,29.297,24.902,4.883,4.883,0
1488724229.713,-20.996,-15.625,61.523,-24.902,3.906,0
1488724229.717,-52.734,-34.180,66.895,-70.801,-9.766,0
1488724229.721,-56.152,-9.277,35.156,-79.590,3.906,0
1488724229.725,-48.828,-3.906,57.617,-58.594,24.902,0
1488724229.729,-34.180,-4.395,56.641,-47.852,-0.977,0
1488724229.733,-24.414,2.930,25.391,-45.410,-12.207,0
1488724229.736,-20.996,12.207,16.602,-47.363,24.414,0
1488724229.740,3.906,27.832,64.453,-15.137,29.785,0
1488724229.744,-11.230,39.551,79.102,2.930,-13.672,0
1488724229.748,-83.008,5.371,13.184,-68.359,-3.906,0
1488724229.752,-82.031,0.000,-18.555,-88.379,35.156,0
1488724229.756,-71.777,-2.930,2.930,-89.844,32.715,0
1488724229.760,-68.359,-10.254,44.922,-95.215,24.902,0
1488724229.764,-40.527,13.672,75.195,-64.453,3.906,0
1488724229.768,-21.484,22.461,60.547,-48.828,7.812,0
1488724229.772,14.160,23.438,64.453,-23.438,22.461,0
1488724229.776,0.488,20.020,49.805,-23.438,50.293,0
1488724229.779,-39.551,31.250,36.133,-36.621,25.879,0
1488724229.783,-25.879,41.504,41.016,-15.625,-9.277,0
1488724229.787,-26.855,-7.324,12.207,-27.344,-2.930,0
1488724229.791,-24.414,-18.066,21.973,-31.250,-6.348,0
1488724229.795,8.301,31.250,48.340,11.230,28.320,0
1488724229.799,11.230,20.020,57.617,11.230,31.250,0
1488724229.803,33.203,24.414,52.246,29.785,-13.184,0
1488724229.807,5.371,3.418,1.465,13.184,-41.016,0
1488724229.811,-24.414,-8.789,-3.418,-9.766,2.930,0
1488724229.815,12.695,11.719,43.457,13.672,62.500,0
1488724229.818,23.926,-4.395,48.340,5.859,13.184,0
1488724229.822,38.574,22.461,65.918,21.484,-49.316,0
1488724229.826,55.664,43.945,79.102,41.504,-53.223,0
1488724229.830,34.180,8.789,7.324,33.203,-39.062,0
1488724229.834,21.973,32.715,3.906,42.480,-11.719,0
1488724229.838,21.973,35.156,51.758,31.738,-17.090,0
1488724229.842,27.832,10.742,56.641,26.367,-26.367,0
1488724229.846,29.785,40.039,34.668,30.273,-10.742,0
1488724229.850,50.293,71.777,22.461,42.480,-18.066,0
1488724229.854,31.738,41.504,40.039,26.367,-41.504,0
1488724229.858,7.812,28.320,37.109,0.488,-4.395,0
1488724229.861,55.664,71.777,45.410,44.434,10.742,0
1488724229.865,47.363,57.129,12.207,37.109,-19.531,0
1488724229.869,20.996,33.691,3.418,11.230,-31.738,0
1488724229.873,20.996,22.461,40.039,27.832,-10.254,0
1488724229.877,8.301,24.902,41.992,28.809,-16.602,0
1488724229.881,38.574,54.688,73.730,46.875,-57.129,0
1488724229.885,94.727,81.055,95.215,93.750,-67.383,0
1488724229.889,84.473,81.543,12.695,81.543,-47.852,0
1488724229.893,29.785,32.227,0.488,21.484,-22.461,0
1488724229.897,28.809,12.695,69.336,14.648,-36.621,0
1488724229.901,58.105,35.156,69.336,52.246,-25.879,0
1488724229.904,64.941,30.762,81.543,68.848,0.488,0
1488724229.908,66.406,47.363,85.449,72.754,-30.273,0
1488724229.912,50.781,75.195,61.035,83.496,-24.414,0
1488724229.916,38.086,51.270,53.223,67.871,12.207,0
1488724229.920,19.043,3.418,43.945,40.527,15.625,0
1488724229.924,4.395,-7.812,62.500,38.086,-30.762,0
1488724229.928,46.875,41.992,106.934,75.195,-21.973,0
1488724229.932,58.105,45.898,104.980,78.125,-23.926,0
1488724229.936,76.172,36.621,66.406,67.871,-44.434,0
1488724229.940,104.980,45.410,23.926,79.590,-54.688,0
1488724229.943,98.145,28.809,41.992,82.520,-72.266,0
1488724229.947,67.383,14.160,64.453,74.219,-40.527,0
1488724229.951,11.230,6.836,45.410,27.344,-20.020,0
1488724229.955,-1.953,2.930,1.465,1.465,-16.113,0
1488724229.959,53.223,40.039,-3.906,49.805,-30.273,0
1488724229.963,82.031,91.309,68.848,78.613,-24.902,0
1488724229.967,100.098,126.465,86.426,102.539,-23.926,0
1488724229.971,28.809,47.852,8.301,37.109,-43.945,0
1488724229.975,-23.926,-2.930,-39.062,-18.066,-20.020,0
1488724229.979,2.441,29.785,-43.457,-2.441,-5.859,0
1488724229.983,34.180,20.996,-14.648,11.230,-21.484,0
1488724229.986,57.617,52.246,21.973,44.922,-31.738,0
1488724229.990,20.996,79.590,27.832,26.855,-0.488,0
1488724229.994,4.883,34.668,-3.906,7.812,11.230,0
1488724229.998,-20.508,4.883,-60.059,-20.020,-6.348,0
1488724230.002,-3.418,22.949,-39.551,1.465,-23.438,0
1488724230.006,20.020,30.273,-2.441,23.438,-15.625,0
1488724230.010,46.875,46.875,28.320,30.762,27.832,0
1488724230.014,46.875,41.504,26.367,27.344,12.207,0
1488724230.018,23.926,28.320,-1.465,10.742,18.555,0
1488724230.022,16.113,33.691,-21.484,6.348,20.508,0
1488724230.026,-20.020,-19.043,-65.918,-33.203,-23.438,0
1488724230.029,-4.883,-29.297,-43.457,-2.441,-61.035,0
1488724230.033,62.500,45.410,46.387,88.379,-37.598,0
1488724230.037,86.426,63.477,59.082,92.285,3.418,0
1488724230.041,25.391,-8.301,7.324,19.043,-19.043,0
1488724230.045,30.273,-4.395,36.133,45.898,-18.066,0
1488724230.049,59.082,13.184,52.734,70.312,10.742,0
1488724230.053,16.113,0.977,13.672,21.484,9.766,0
1488724230.057,-1.465,-15.625,19.531,4.883,-32.227,0
1488724230.061,28.809,1.465,47.363,13.184,-66.895,0
1488724230.065,68.848,71.777,62.988,37.598,-62.012,0
1488724230.068,52.246,61.523,1.953,33.691,-27.832,0
1488724230.072,75.195,53.711,31.250,68.848,-5.859,0
1488724230.076,41.016,37.109,58.105,29.785,-43.457,0
1488724230.080,-70.801,-40.527,-17.090,-91.797,-61.035,0
1488724230.084,-38.574,-17.578,-19.043,-68.848,-6.348,0
1488724230.088,-1.465,46.387,17.090,-27.344,-9.766,0
1488724230.092,13.672,71.289,20.996,-8.789,-29.785,0
1488724230.096,-13.672,37.109,-17.578,-27.344,-30.762,0
1488724230.100,-17.090,39.062,32.227,-19.043,-17.578,0
1488724230.104,14.160,27.832,71.289,-0.977,-40.527,0
1488724230.108,-8.789,3.418,23.926,-33.691,-47.363,0
1488724230.111,-20.020,8.301,-16.602,-43.457,-42.480,0
1488724230.115,-16.113,10.254,-42.480,-24.414,-52.734,0
1488724230.119,8.301,60.547,-14.160,11.230,-48.828,0
1488724230.123,14.648,52.246,16.602,7.324,-62.988,0
1488724230.127,-1.953,24.414,24.414,-16.602,-50.781,0
1488724230.131,11.230,29.297,49.316,5.371,-8.301,0
1488724230.135,13.184,-0.488,15.625,2.930,-12.207,0
1488724230.139,34.668,34.180,20.508,39.551,-20.508,0
1488724230.143,31.250,45.410,39.551,59.082,7.324,0
1488724230.147,-28.809,-10.742,-20.508,-2.930,3.906,0
1488724230.151,-35.156,-4.395,-40.527,-14.160,-15.625,0
1488724230.154,2.441,20.020,-27.832,8.301,0.488,0
1488724230.158,50.293,34.668,42.480,48.828,17.090,0
1488724230.162,104.980,49.316,96.680,107.910,15.625,0
1488724230.166,75.684,7.812,53.223,81.543,-5.371,0
1488724230.170,44.434,-13.184,-24.414,41.016,-14.160,0
1488724230.174,51.758,6.836,-26.855,33.203,-21.484,0
1488724230.178,49.805,14.648,40.527,38.086,-17.090,0
1488724230.182,49.316,23.438,27.832,44.434,-33.691,0
1488724230.186,11.230,5.859,6.348,-3.906,-51.270,0
1488724230.190,17.578,21.484,11.719,1.465,-9.277,0
1488724230.193,66.895,80.078,-2.441,70.801,-25.391,0
1488724230.197,34.180,51.270,-3.906,57.129,-32.227,0
1488724230.201,-0.488,-6.836,-3.906,19.043,-9.277,0
1488724230.205,6.836,-7.324,5.371,9.277,-6.836,0
1488724230.209,-17.578,11.230,11.230,-31.738,2.930,0
1488724230.213,5.859,40.039,8.301,-32.227,-5.371,0
1488724230.217,41.016,62.012,-27.832,-3.418,12.207,0
1488724230.221,3.906,37.109,-56.152,-14.160,14.648,0
1488724230.225,-4.395,23.438,-41.504,-12.695,-14.160,0
1488724230.229,33.203,39.062,-15.137,23.438,-18.555,0
1488724230.233,48.828,51.270,18.555,36.621,4.395,0
1488724230.236,-0.977,31.250,-26.855,-20.996,-4.395,0
1488724230.240,-21.484,10.742,-17.090,-39.062,-13.184,0
1488724230.244,-44.434,-4.395,3.906,-39.062,3.418,0
1488724230.248,-30.273,20.508,1.465,-18.555,43.945,0
1488724230.252,30.762,76.660,22.949,36.133,27.344,0
1488724230.256,-6.836,9.277,17.578,13.672,10.254,0
1488724230.260,-32.227,-59.570,6.348,1.465,18.555,0
1488724230.264,-12.207,-14.648,-15.137,15.137,0.977,0
1488724230.268,-13.184,17.090,-0.488,0.977,15.137,0
1488724230.272,-4.395,15.625,46.875,4.883,-9.766,0
1488724230.276,5.371,26.367,49.805,20.996,13.184,0
1488724230.279,0.977,27.832,6.836,35.645,43.945,0
1488724230.283,45.410,43.457,-15.625,69.336,33.203,0
1488724230.287,50.293,29.297,0.977,49.805,47.852,0
1488724230.291,3.906,1.953,9.277,-16.602,33.203,0
1488724230.295,31.738,21.484,35.645,6.348,21.973,0
1488724230.299,0.000,8.789,-0.977,0.488,20.996,0
1488724230.303,-5.859,26.367,-40.527,3.906,0.488,0
1488724230.307,66.895,89.355,35.645,62.500,34.180,0
1488724230.311,52.734,76.660,36.621,45.410,26.367,0
1488724230.315,-36.133,-0.488,-44.434,-35.645,-25.879,0
1488724230.318,-55.176,-10.742,-42.480,-60.547,-6.836,0
1488724230.322,-14.160,13.672,-14.160,-23.926,33.691,0
1488724230.326,13.672,10.254,-10.742,0.977,31.738,0
1488724230.330,29.785,32.715,-18.066,10.254,23.438,0
1488724230.334,-13.672,30.762,-39.551,-41.504,21.973,0
1488724230.338,-12.207,30.762,9.766,-50.781,12.695,0
1488724230.342,53.223,83.496,53.223,35.645,-13.184,0
1488724230.346,43.457,84.473,33.203,45.898,-9.766,0
1488724230.350,20.020,50.293,-15.625,3.906,2.930,0
1488724230.354,-11.230,3.418,-78.613,-27.344,13.672,0
1488724230.358,-52.734,-32.715,-76.660,-64.941,13.672,0
1488724230.361,15.137,18.066,-11.230,1.465,-17.578,0
1488724230.365,61.523,33.691,26.367,38.574,9.277,0
1488724230.369,5.859,23.438,4.395,-14.648,57.617,0
1488724230.373,32.227,73.730,57.129,34.180,51.270,0
1488724230.377,26.855,56.152,63.477,42.969,18.066,0
1488724230.381,-48.828,-28.809,0.488,-28.809,8.789,0
1488724230.385,-49.805,-44.922,-10.742,-27.832,43.945,0
1488724230.389,-29.785,0.488,-27.344,-7.812,36.621,0
1488724230.393,-3.418,32.227,-23.438,10.254,14.160,0
1488724230.397,58.105,58.594,64.453,65.918,10.742,0
1488724230.401,58.594,31.250,120.605,73.242,16.602,0
1488724230.404,17.578,15.625,54.199,40.039,-3.418,0
1488724230.408,24.902,42.480,23.926,59.082,-18.066,0
1488724230.412,59.082,38.086,63.477,86.914,3.906,0
1488724230.416,53.711,11.719,33.203,61.035,18.555,0
1488724230.420,5.859,-7.812,-24.414,5.371,18.066,0
1488724230.424,27.344,25.879,70.801,39.551,-14.160,0
1488724230.428,33.203,26.367,82.031,47.852,-1.465,0
1488724230.432,25.879,4.883,20.508,13.672,8.301,0
1488724230.436,49.805,-0.488,19.043,27.832,9.766,0
1488724230.440,97.168,51.270,23.926,89.355,32.715,0
1488724230.443,65.918,60.059,28.320,80.566,48.828,0
1488724230.447,-20.020,-30.762,-2.441,4.883,21.973,0
1488724230.451,2.441,-25.391,-26.367,-0.977,-27.344,0
1488724230.455,62.500,57.129,50.293,43.457,-8.789,0
1488724230.459,73.730,82.520,89.844,80.566,25.879,0
1488724230.463,48.828,36.621,10.742,62.012,31.250,0
1488724230.467,33.691,5.859,-19.043,20.020,32.227,0
1488724230.471,16.602,9.277,20.996,4.883,18.066,0
1488724230.475,38.574,31.250,51.758,49.805,27.832,0
1488724230.479,29.785,13.184,17.578,49.805,20.020,0
1488724230.483,0.488,0.977,7.324,16.602,9.766,0
1488724230.486,48.340,37.598,28.320,66.406,34.180,0
1488724230.490,26.367,4.395,-2.441,36.621,55.664,0
1488724230.494,14.160,26.855,-3.906,11.230,54.199,0
1488724230.498,43.457,74.219,46.875,58.594,14.160,0
1488724230.502,1.465,20.508,32.715,33.691,14.648,0
1488724230.506,-8.301,-10.254,10.742,14.160,66.406,0
1488724230.510,11.719,5.859,28.809,25.391,69.824,0
1488724230.514,-2.441,26.367,18.066,14.648,26.367,0
1488724230.518,-14.160,22.461,24.902,-4.395,7.324,0
1488724230.522,-14.160,10.742,33.203,-4.395,33.203,0
1488724230.526,-16.113,32.715,22.461,5.371,47.363,0
1488724230.529,9.766,60.547,29.297,30.762,35.645,0
1488724230.533,33.691,28.809,40.527,45.898,52.734,0
1488724230.537,6.348,-0.488,41.992,11.230,58.105,0
1488724230.541,9.277,47.363,75.684,23.438,20.020,0
1488724230.545,16.602,48.828,82.031,22.949,22.949,0
1488724230.549,-32.227,12.695,12.207,-48.828,55.176,0
1488724230.553,-45.410,5.371,-10.254,-73.242,46.387,0
1488724230.557,-0.488,36.621,27.832,-30.273,1.465,0
1488724230.561,66.895,91.309,39.551,35.645,20.996,0
1488724230.565,48.828,56.641,34.668,40.039,49.316,0
1488724230.568,-20.020,11.719,34.180,-6.836,29.297,0
1488724230.572,19.043,62.012,66.406,14.648,23.438,0
1488724230.576,49.805,47.852,73.730,20.508,58.594,0
1488724230.580,44.922,23.438,48.340,15.137,64.453,0
1488724230.584,36.133,39.551,16.113,16.602,31.738,0
1488724230.588,-10.742,21.973,3.418,-9.277,45.410,0
1488724230.592,16.113,32.715,67.871,22.461,24.902,0
1488724230.596,20.508,23.926,59.570,25.879,18.066,0
1488724230.600,15.137,4.395,20.020,19.531,34.668,0
1488724230.604,47.852,22.949,43.457,37.598,28.809,0
1488724230.608,61.035,47.363,41.992,60.547,10.742,0
1488724230.611,70.801,39.551,24.414,80.078,13.672,0
1488724230.615,56.152,28.320,73.730,70.312,-8.789,0
1488724230.619,67.383,65.918,121.094,75.195,-12.695,0
1488724230.623,47.363,73.730,81.543,54.688,41.992,0
1488724230.627,-29.785,2.441,20.508,-6.348,24.414,0
1488724230.631,15.137,20.508,61.035,30.273,19.043,0
1488724230.635,52.246,71.777,41.016,58.105,45.410,0
1488724230.639,-32.227,11.719,-79.102,-26.367,41.992,0
1488724230.643,-22.461,-11.230,-20.020,-10.742,47.852,0
1488724230.647,10.742,46.387,57.617,24.902,15.625,0
1488724230.651,0.000,57.617,27.344,5.859,0.488,0
1488724230.654,37.598,68.848,37.598,14.160,21.484,0
1488724230.658,60.059,96.191,68.359,27.344,24.414,0
1488724230.662,8.789,48.828,20.020,-13.672,16.113,0
1488724230.666,27.832,48.828,18.555,8.789,14.160,0
1488724230.670,37.598,61.523,-2.930,18.555,36.133,0
1488724230.674,-9.277,27.344,-23.926,-46.387,25.879,0
1488724230.678,14.648,52.246,33.203,-20.508,22.949,0
1488724230.682,28.809,60.059,37.598,-2.441,34.668,0
1488724230.686,5.859,39.062,19.043,-20.020,44.922,0
1488724230.690,4.395,31.738,-15.137,-17.578,32.715,0
1488724230.693,28.809,33.203,-24.902,-0.977,-17.090,0
1488724230.697,76.660,54.688,46.875,41.504,-7.324,0
1488724230.701,83.008,39.062,56.152,46.387,22.949,0
1488724230.705,78.613,38.086,-0.977,50.293,43.457,0
1488724230.709,83.008,61.523,-12.695,43.457,61.523,0
1488724230.713,67.871,48.828,18.555,21.973,58.594,0
1488724230.717,84.961,47.852,65.430,47.852,41.016,0
1488724230.721,81.543,50.781,55.176,50.293,17.090,0
1488724230.725,49.805,26.855,1.465,22.949,29.785,0
1488724230.729,53.711,33.691,16.602,26.367,48.828,0
1488724230.733,68.848,57.129,29.785,54.199,21.484,0
1488724230.736,83.496,83.984,37.109,79.102,-1.953,0
1488724230.740,62.500,74.707,35.156,68.848,39.551,0
1488724230.744,-17.578,-10.254,-8.789,2.441,76.172,0
1488724230.748,-24.902,-19.531,-17.578,-9.766,65.918,0
1488724230.752,25.879,28.809,-29.297,12.207,50.781,0
1488724230.756,15.137,24.414,-38.086,-12.207,51.270,0
1488724230.760,45.898,70.801,24.902,40.039,65.430,0
1488724230.764,55.664,70.801,50.781,79.102,79.590,0
1488724230.768,-7.324,14.648,4.395,18.555,59.082,0
1488724230.772,-26.367,-6.836,-33.691,-22.461,55.664,0
1488724230.776,-3.418,16.113,-13.672,-14.160,29.785,0
1488724230.779,9.277,44.434,-3.906,3.418,11.230,0
1488724230.783,-1.465,20.020,-8.301,-10.254,28.809,0
1488724230.787,57.129,35.645,20.020,18.555,42.969,0
1488724230.791,41.504,21.973,-35.645,14.648,30.273,0
1488724230.795,-19.531,7.324,-34.668,-7.812,5.371,0
1488724230.799,-18.066,27.344,-0.488,-11.230,1.953,0
1488724230.803,0.488,27.832,-17.578,4.883,16.113,0
1488724230.807,28.320,26.855,-6.348,31.250,28.320,0
1488724230.811,20.996,22.461,24.414,11.230,24.414,0
1488724230.815,-8.301,13.672,28.809,-20.508,33.691,0
1488724230.818,45.410,26.855,37.109,18.066,40.039,0
1488724230.822,93.750,68.359,40.039,67.383,33.203,0
1488724230.826,17.090,46.875,-0.977,0.488,-20.020,0
1488724230.830,-15.625,25.391,-5.859,-28.320,-25.391,0
1488724230.834,19.531,44.922,31.250,7.324,13.184,0
1488724230.838,41.504,53.711,49.805,31.250,19.043,0
1488724230.842,52.246,54.688,52.734,61.035,16.113,0
1488724230.846,47.852,40.527,56.641,70.312,0.488,0
1488724230.850,11.719,-2.441,50.293,20.020,10.742,0
1488724230.854,1.465,1.465,20.996,-6.836,22.461,0
1488724230.858,2.441,22.949,-5.859,-4.395,28.320,0
1488724230.861,-14.648,4.395,17.578,-9.766,22.949,0
1488724230.865,4.395,15.137,63.965,15.137,0.977,0
1488724230.869,47.363,40.039,48.340,49.316,-5.371,0
1488724230.873,67.871,51.758,23.926,56.152,-0.977,0
1488724230.877,57.129,41.016,9.277,60.059,21.484,0
1488724230.881,42.969,19.531,-14.160,65.430,30.762,0
1488724230.885,15.625,-2.441,-7.812,28.809,25.879,0
1488724230.889,18.066,13.672,31.738,26.367,20.996,0
1488724230.893,11.230,24.902,20.508,12.207,27.832,0
1488724230.897,-4.395,38.574,-20.020,-17.578,41.016,0
1488724230.901,43.457,69.824,4.883,29.297,31.250,0
1488724230.904,21.973,13.672,-19.531,15.625,39.062,0
1488724230.908,-23.438,-2.930,-49.316,-20.996,66.895,0
1488724230.912,36.621,70.801,-1.465,32.715,57.617,0
1488724230.916,39.062,51.270,1.465,26.855,53.223,0
1488724230.920,5.859,7.324,-37.109,3.906,59.570,0
1488724230.924,-34.180,-4.883,-77.637,-27.832,54.199,0
1488724230.928,-43.945,29.297,-31.250,-36.621,53.711,0
1488724230.932,-26.367,42.480,-4.883,-22.949,36.133,0
1488724230.936,6.348,41.992,-11.719,-3.906,38.574,0
1488724230.940,23.438,38.574,-19.531,-8.789,54.688,0
1488724230.943,41.016,30.762,2.930,-5.371,21.973,0
1488724230.947,41.992,42.480,33.203,8.301,25.879,0
1488724230.951,20.020,50.293,-1.465,-5.371,36.133,0
1488724230.955,21.973,39.062,-79.102,-17.090,29.785,0
1488724230.959,0.000,-9.277,-81.055,-39.062,39.062,0
1488724230.963,-16.602,-2.930,-28.320,-22.461,32.227,0
1488724230.967,-11.719,39.062,-37.598,-16.113,22.461,0
1488724230.971,35.645,59.570,-23.438,5.371,48.340,0
1488724230.975,44.434,47.852,-0.488,21.973,22.461,0
1488724230.979,20.996,24.902,12.695,21.973,-10.254,0
1488724230.983,25.879,24.414,-21.484,21.973,41.992,0
1488724230.986,-2.930,10.254,-73.730,-27.344,56.152,0
1488724230.990,8.789,18.555,-30.762,-30.762,23.438,0
1488724230.994,46.875,31.738,11.230,25.391,14.648,0
1488724230.998,19.043,27.832,19.043,23.438,25.879,0
1488724231.002,33.691,62.012,11.719,22.949,28.320,0
1488724231.006,42.969,48.828,-18.066,29.297,42.480,0
1488724231.010,18.066,15.137,-28.809,6.348,48.828,0
1488724231.014,14.648,33.691,-2.441,-0.488,52.734,0
1488724231.018,27.344,35.645,18.555,6.836,59.570,0
1488724231.022,24.902,38.086,9.766,8.789,37.598,0
1488724231.026,33.203,40.527,-25.879,26.367,15.137,0
1488724231.029,59.570,41.016,-27.832,56.641,47.852,0
1488724231.033,21.484,41.504,18.555,40.039,55.176,0
1488724231.037,0.000,13.672,30.273,8.301,44.922,0
1488724231.041,39.551,24.414,0.977,38.574,39.551,0
1488724231.045,35.156,45.410,-5.859,29.297,21.973,0
1488724231.049,11.719,31.738,12.695,-2.441,11.230,0
1488724231.053,10.254,18.066,19.531,-0.977,23.926,0
1488724231.057,30.273,37.109,29.785,6.836,45.410,0
1488724231.061,49.316,50.781,19.531,10.742,51.758,0
1488724231.065,16.602,38.574,2.930,-1.953,13.672,0
1488724231.068,-5.371,35.645,-15.625,4.883,-12.695,0
1488724231.072,9.766,26.855,-41.504,6.348,3.906,0
1488724231.076,23.926,9.766,-22.949,0.488,38.574,0
1488724231.080,32.227,27.344,38.086,37.109,4.883,0
1488724231.084,48.340,84.961,68.848,71.777,-8.789,0
1488724231.088,7.812,75.195,18.555,21.973,34.180,0
1488724231.092,-24.902,37.109,-41.992,-15.137,26.855,0
1488724231.096,3.906,30.762,-15.625,-4.883,17.578,0
1488724231.100,31.250,59.082,29.785,13.672,23.926,0
1488724231.104,8.789,25.879,20.996,-2.930,2.930,0
1488724231.108,-9.766,-12.207,0.000,-20.996,12.695,0
1488724231.111,2.930,15.625,-11.230,-11.719,-27.344,0
1488724231.115,-20.996,0.000,-33.691,-24.902,-30.762,0
1488724231.119,-6.836,4.395,-13.184,-12.207,25.391,0
1488724231.123,24.414,32.715,28.809,-11.719,17.090,0
1488724231.127,4.883,42.480,15.625,-36.133,12.695,0
1488724231.131,5.859,42.969,-4.883,-32.715,22.461,0
1488724231.135,34.668,54.688,14.160,-8.301,35.645,0
1488724231.139,23.438,30.762,4.883,-12.207,12.207,0
1488724231.143,34.668,19.043,13.184,13.184,11.719,0
1488724231.147,43.457,43.457,21.484,41.016,31.250,0
1488724231.151,10.742,15.625,-7.324,7.324,20.508,0
1488724231.154,-3.418,3.906,-5.859,-21.484,32.227,0
1488724231.158,-10.254,-7.812,-13.672,-35.156,11.719,0
1488724231.162,-11.230,-20.996,7.324,-21.973,13.672,0
1488724231.166,16.113,20.508,49.805,19.043,32.715,0
1488724231.170,36.133,57.617,55.176,45.898,17.578,0
1488724231.174,15.137,30.762,41.504,16.602,13.184,0
1488724231.178,8.789,13.184,52.246,7.812,27.832,0
1488724231.182,2.441,23.438,46.387,5.859,28.809,0
1488724231.186,-16.113,-15.137,-10.254,-33.203,0.488,0
1488724231.190,-5.371,-24.902,-32.715,-23.438,24.414,0
1488724231.193,20.020,17.090,34.668,19.043,58.105,0
1488724231.197,14.160,5.371,90.332,20.020,13.184,0
1488724231.201,16.113,27.344,83.008,23.926,-7.324,0
1488724231.205,41.504,41.504,61.523,33.691,27.344,0
1488724231.209,24.902,7.812,42.969,28.320,23.926,0
1488724231.213,-18.555,3.418,-3.418,-3.906,6.836,0
1488724231.217,-34.668,5.859,-16.113,-35.645,35.156,0
1488724231.221,-42.969,-3.418,-2.930,-47.363,66.406,0
1488724231.225,-50.781,-11.719,10.254,-53.711,64.941,0
1488724231.229,-15.625,18.066,23.926,-25.391,16.602,0
1488724231.233,22.949,37.109,11.719,11.230,14.160,0
1488724231.236,-6.836,21.973,-3.906,-9.766,35.156,0
1488724231.240,-11.719,11.719,8.789,-25.391,25.879,0
1488724231.244,19.043,11.719,49.316,-0.977,33.691,0
1488724231.248,-20.508,-11.230,34.668,-35.156,17.090,0
1488724231.252,-53.223,-22.461,-36.621,-68.848,45.410,0
1488724231.256,-41.504,-3.906,-29.785,-55.664,77.148,0
1488724231.260,13.184,57.129,62.988,-7.812,45.410,0
1488724231.264,31.250,63.477,64.941,6.348,33.691,0
1488724231.268,-14.648,-9.277,37.109,-27.832,65.430,0
1488724231.272,-35.156,-17.578,45.898,-35.156,59.570,0
1488724231.276,-29.297,10.254,39.062,-18.066,46.875,0
1488724231.279,6.348,21.484,38.086,4.883,19.043,0
1488724231.283,14.160,20.996,13.672,7.812,0.000,0
1488724231.287,-30.762,3.418,-22.949,-19.043,47.852,0
1488724231.291,-32.715,-1.465,28.320,-14.160,62.988,0
1488724231.295,-19.531,23.438,89.844,2.441,32.715,0
1488724231.299,-68.848,-8.301,41.504,-42.480,29.785,0
1488724231.303,-64.941,-50.293,3.418,-54.688,33.691,0
1488724231.307,-24.414,-13.184,30.762,-14.648,-2.441,0
1488724231.311,24.902,41.992,41.992,31.738,-3.418,0
1488724231.315,24.414,10.254,16.113,27.832,37.598,0
1488724231.318,-24.414,-26.367,52.246,-1.465,17.090,0
1488724231.322,-21.973,17.578,81.055,10.254,-19.043,0
1488724231.326,-12.695,17.090,13.184,-8.789,1.953,0
1488724231.330,-26.855,-14.160,-17.090,-34.180,18.066,0
1488724231.334,-56.641,-7.812,-19.531,-38.086,37.598,0
1488724231.338,2.930,55.176,51.758,20.996,10.742,0
1488724231.342,38.086,56.641,75.684,37.109,-10.742,0
1488724231.346,-14.648,3.418,-18.555,-24.902,7.324,0
1488724231.350,-20.996,6.836,-30.273,-22.949,1.953,0
1488724231.354,-15.137,18.555,10.742,-14.648,-5.371,0
1488724231.358,-35.645,16.113,-2.930,-42.969,2.930,0
1488724231.361,-25.391,6.836,-12.695,-40.527,-3.418,0
1488724231.365,-10.742,1.465,-35.156,-18.555,-6.836,0
1488724231.369,-13.672,29.785,-43.945,-21.973,-4.395,0
1488724231.373,13.184,44.434,16.113,-11.230,-7.324,0
1488724231.377,29.297,51.758,46.387,5.859,14.648,0
1488724231.381,20.508,62.500,28.320,5.859,35.156,0
1488724231.385,-5.859,20.508,-4.395,-6.348,11.230,0
1488724231.389,-49.316,0.488,-28.809,-46.387,13.672,0
1488724231.393,-51.270,5.371,13.184,-48.828,24.414,0
1488724231.397,-3.418,5.371,41.016,7.324,-26.367,0
1488724231.401,12.207,18.555,6.348,20.020,-10.742,0
1488724231.404,12.207,20.996,7.324,16.113,53.711,0
1488724231.408,12.695,11.719,23.926,16.113,24.902,0
1488724231.412,11.230,14.648,38.086,15.625,7.812,0
1488724231.416,11.719,11.719,50.781,13.672,43.457,0
1488724231.420,48.828,19.043,57.129,30.762,69.336,0
1488724231.424,68.848,0.977,59.570,55.664,38.574,0
1488724231.428,37.598,-2.930,27.344,39.551,29.785,0
1488724231.432,44.434,46.387,2.441,43.457,61.035,0
1488724231.436,56.641,61.035,13.184,71.289,58.105,0
1488724231.440,35.156,42.969,20.020,62.012,37.598,0
1488724231.443,26.367,21.484,45.898,36.621,17.578,0
1488724231.447,42.480,25.879,49.316,41.504,28.320,0
1488724231.451,47.363,28.809,38.086,53.711,40.527,0
1488724231.455,25.391,18.066,53.711,49.316,34.668,0
1488724231.459,11.719,4.883,33.203,30.273,36.133,0
1488724231.463,34.180,6.836,6.836,45.410,62.988,0
1488724231.467,57.617,62.500,41.504,69.824,62.988,0
1488724231.471,21.973,43.945,47.852,26.367,72.266,0
1488724231.475,3.906,12.207,32.715,-1.953,84.473,0
1488724231.479,36.133,43.945,34.180,48.340,60.059,0
1488724231.483,40.039,38.086,-16.602,74.219,59.570,0
1488724231.486,33.691,40.039,-28.809,58.105,55.176,0
1488724231.490,54.199,44.922,28.809,63.477,39.551,0
1488724231.494,39.062,19.531,44.922,51.758,50.293,0
1488724231.498,40.039,12.695,36.621,47.852,44.434,0
1488724231.502,70.312,22.461,49.316,60.059,49.316,0
1488724231.506,66.895,20.996,43.945,53.223,62.988,0
1488724231.510,52.246,35.156,21.973,46.387,62.012,0
1488724231.514,27.344,30.273,4.395,29.785,39.062,0
1488724231.518,47.363,21.973,11.230,57.617,55.176,0
1488724231.522,50.293,27.344,-5.371,76.660,72.754,0
1488724231.526,39.062,23.438,-3.906,50.781,59.570,0
1488724231.529,26.855,11.719,29.297,30.762,56.152,0
1488724231.533,20.508,11.230,41.016,39.062,58.594,0
1488724231.537,27.832,27.344,21.973,51.758,64.453,0
1488724231.541,31.250,46.875,27.344,62.012,79.102,0
1488724231.545,20.508,19.043,27.832,49.805,41.992,0
1488724231.549,41.504,8.301,17.578,42.480,35.156,0
1488724231.553,50.781,37.598,23.438,38.574,54.688,0
1488724231.557,20.996,18.555,11.719,7.324,40.039,0
1488724231.561,23.438,24.902,27.832,22.461,51.758,0
1488724231.565,44.434,57.129,50.781,57.129,72.754,0
1488724231.568,32.715,32.715,16.602,35.156,66.895,0
1488724231.572,9.277,0.977,-36.621,12.695,55.664,0
1488724231.576,0.000,6.348,-19.531,11.230,19.531,0
1488724231.580,7.812,16.602,14.648,0.000,15.137,0
1488724231.584,18.066,27.832,20.996,6.836,54.199,0
1488724231.588,16.113,27.832,15.137,24.902,74.219,0
1488724231.592,76.660,45.898,12.207,78.125,55.664,0
1488724231.596,83.008,56.641,22.949,73.242,38.086,0
1488724231.600,36.621,37.598,9.766,16.602,35.645,0
1488724231.604,33.203,31.250,-6.348,5.859,25.879,0
1488724231.608,20.508,27.344,-14.160,-1.465,35.156,0
1488724231.611,9.766,18.066,-13.672,-8.301,34.180,0
1488724231.615,35.156,36.133,12.695,19.531,23.438,0
1488724231.619,19.043,32.715,1.953,11.719,36.133,0
1488724231.623,-5.859,14.160,-4.395,-3.418,19.043,0
1488724231.627,2.930,30.762,-1.465,7.324,14.648,0
1488724231.631,47.363,60.059,3.418,48.340,13.672,0
1488724231.635,65.918,52.734,19.043,59.570,28.320,0
1488724231.639,24.902,20.020,-13.672,11.719,54.199,0
1488724231.643,-1.465,33.203,-54.199,-11.230,50.781,0
1488724231.647,9.277,62.500,-4.395,0.000,33.691,0
1488724231.651,-1.465,46.875,28.320,5.371,31.250,0
1488724231.654,-20.020,13.672,-15.137,-1.953,19.531,0
1488724231.658,12.695,21.484,-7.324,1.953,14.648,0
1488724231.662,55.664,30.273,14.648,27.832,28.320,0
1488724231.666,49.805,10.742,16.113,43.457,20.996,0
1488724231.670,37.109,16.113,12.695,40.039,28.809,0
1488724231.674,38.086,27.344,13.184,42.969,35.645,0
1488724231.678,28.809,33.691,27.832,45.898,20.508,0
1488724231.682,46.875,56.152,53.223,62.500,-2.441,0
1488724231.686,48.828,18.555,24.902,48.340,-3.906,0
1488724231.690,27.832,-13.184,-15.625,32.715,14.160,0
1488724231.693,23.926,2.930,-20.508,29.785,11.230,0
1488724231.697,24.414,27.344,5.371,22.949,-6.836,0
1488724231.701,36.133,43.945,-14.160,32.715,15.137,0
1488724231.705,67.871,68.848,4.883,60.059,18.555,0
1488724231.709,47.852,57.129,44.434,40.039,8.301,0
1488724231.713,13.184,17.578,-11.719,2.930,9.766,0
1488724231.717,18.555,18.066,-20.996,15.137,17.578,0
1488724231.721,12.695,14.648,1.465,10.742,40.527,0
1488724231.725,4.395,-4.395,3.906,2.441,36.621,0
1488724231.729,26.367,21.484,16.602,30.762,41.016,0
1488724231.733,28.809,45.410,17.578,32.715,53.223,0
1488724231.736,15.625,32.227,-0.488,23.438,57.617,0
1488724231.740,23.438,26.855,11.230,34.668,10.254,0
1488724231.744,-4.883,10.254,-0.488,6.348,-31.738,0
1488724231.748,-14.160,31.738,-13.672,0.488,18.066,0
1488724231.752,-2.930,46.875,34.180,5.859,34.180,0
1488724231.756,-8.789,13.184,48.828,-0.977,42.480,0
1488724231.760,6.348,16.602,36.621,25.879,41.016,0
1488724231.764,26.367,32.715,24.414,43.457,17.090,0
1488724231.768,41.016,35.156,15.137,58.105,5.371,0
1488724231.772,34.668,21.484,16.113,54.199,-17.090,0
1488724231.776,57.617,31.738,-1.953,57.129,18.555,0
1488724231.779,60.059,48.828,-9.766,59.082,64.941,0
1488724231.783,18.066,8.789,8.789,26.855,44.922,0
1488724231.787,57.129,5.859,70.312,48.340,27.832,0
1488724231.791,76.660,50.781,85.449,78.613,40.527,0
1488724231.795,14.160,19.043,21.484,40.527,28.320,0
1488724231.799,17.090,16.602,3.418,24.902,23.438,0
1488724231.803,97.168,89.355,30.273,88.379,37.109,0
1488724231.807,101.074,104.004,9.766,91.309,47.852,0
1488724231.811,56.152,55.664,-17.578,41.992,45.410,0
1488724231.815,50.781,42.969,1.465,39.551,18.066,0
1488724231.818,47.363,72.266,35.156,30.273,8.301,0
1488724231.822,30.762,61.035,43.457,10.254,29.297,0
1488724231.826,9.277,34.180,35.645,7.324,42.480,0
1488724231.830,16.113,25.879,13.184,9.277,35.156,0
1488724231.834,37.598,22.949,13.672,33.203,45.898,0
1488724231.838,27.344,41.992,22.949,41.016,56.641,0
1488724231.842,15.625,62.012,6.836,27.832,55.176,0
1488724231.846,10.742,58.594,17.090,21.973,39.062,0
1488724231.850,1.465,28.320,22.949,3.906,34.180,0
1488724231.854,30.762,30.273,20.996,21.973,34.180,0
1488724231.858,42.480,34.668,15.137,46.875,40.527,0
1488724231.861,40.527,30.273,21.973,60.059,20.020,0
1488724231.865,22.461,30.273,12.207,46.387,4.395,0
1488724231.869,-4.395,22.461,19.531,15.137,61.523,0
1488724231.873,45.898,37.598,60.547,47.852,54.199,0
1488724231.877,55.176,43.457,65.918,84.961,36.133,0
1488724231.881,-12.207,1.465,10.254,50.781,64.453,0
1488724231.885,-4.395,-8.789,14.160,59.570,56.152,0
1488724231.889,27.832,46.875,54.199,92.773,61.523,0
1488724231.893,26.855,66.895,47.363,81.055,43.457,0
1488724231.897,22.461,48.340,48.828,57.617,35.156,0
1488724231.901,11.719,39.551,50.781,44.434,44.922,0
1488724231.904,0.000,29.297,47.852,48.340,32.715,0
1488724231.908,17.578,26.855,28.809,49.316,7.812,0
1488724231.912,55.176,46.387,33.691,65.430,13.672,0
1488724231.916,32.715,39.062,20.020,46.387,41.992,0
1488724231.920,25.391,47.852,-3.906,35.156,28.320,0
1488724231.924,55.176,67.871,36.133,59.570,33.203,0
1488724231.928,54.199,37.598,71.289,62.988,47.363,0
1488724231.932,47.363,18.555,31.250,54.199,56.641,0
1488724231.936,34.180,32.715,-2.930,36.621,27.832,0
1488724231.940,36.621,44.922,40.527,44.434,-6.348,0
1488724231.943,53.223,17.578,42.969,62.500,9.277,0
1488724231.947,61.035,27.832,24.414,53.711,18.066,0
1488724231.951,41.016,28.320,36.621,17.090,-2.441,0
1488724231.955,52.246,40.039,37.598,33.691,-7.324,0
1488724231.959,58.105,59.082,31.250,58.105,14.160,0
1488724231.963,34.668,46.387,29.297,41.992,37.109,0
1488724231.967,34.668,56.152,20.508,35.645,13.672,0
1488724231.971,36.133,41.016,11.719,27.344,13.672,0
1488724231.975,50.293,19.531,20.020,36.621,33.203,0
1488724231.979,24.414,14.160,31.738,22.461,28.320,0
1488724231.983,6.836,15.137,36.133,27.832,51.270,0
1488724231.986,27.344,14.160,24.902,50.781,53.223,0
1488724231.990,10.254,5.859,24.414,19.531,38.574,0
1488724231.994,-8.789,-5.371,14.160,5.371,16.113,0
1488724231.998,12.695,12.207,5.859,18.066,-2.441,0
1488724232.002,25.879,29.785,23.926,15.625,4.883,0
1488724232.006,35.156,44.922,68.848,47.852,28.320,0
1488724232.010,64.941,73.242,111.816,99.121,25.879,0
1488724232.014,59.082,62.988,73.242,85.938,-11.719,0
1488724232.018,33.203,7.324,2.930,38.574,13.184,0
1488724232.022,2.930,-11.719,-20.996,10.742,45.898,0
1488724232.026,-20.996,-13.184,-32.715,-8.789,6.836,0
1488724232.029,-5.859,-4.395,-25.879,-6.836,6.836,0
1488724232.033,-2.930,26.367,18.555,-1.465,27.832,0
1488724232.037,28.809,30.273,39.062,24.902,20.020,0
1488724232.041,93.262,57.617,72.266,75.195,26.855,0
1488724232.045,54.199,61.035,56.152,37.598,22.949,0
1488724232.049,-20.996,2.930,-12.695,-38.086,35.645,0
1488724232.053,2.441,6.348,-23.926,-30.762,34.180,0
1488724232.057,33.203,33.203,-33.203,2.930,-3.906,0
1488724232.061,23.926,21.484,-50.781,10.742,0.000,0
1488724232.065,39.062,28.320,-5.371,24.902,25.879,0
1488724232.068,44.434,44.434,18.555,16.602,4.883,0
1488724232.072,49.316,42.480,25.391,7.324,-18.066,0
1488724232.076,75.684,56.641,63.477,44.922,22.949,0
1488724232.080,40.527,40.527,26.367,15.625,46.875,0
1488724232.084,10.742,17.578,-5.371,-18.066,16.602,0
1488724232.088,60.547,51.270,29.297,27.344,0.488,0
1488724232.092,53.711,46.875,-29.297,16.602,-3.906,0
1488724232.096,-5.371,4.395,-63.965,-31.738,2.441,0
1488724232.100,-12.207,2.930,15.137,-42.969,-6.348,0
1488724232.104,-0.977,7.812,34.180,-36.621,-11.719,0
1488724232.108,9.277,16.602,36.133,-22.461,16.602,0
1488724232.111,13.184,24.414,41.016,-11.230,29.785,0
1488724232.115,9.766,16.602,-8.789,-18.066,18.066,0
1488724232.119,21.484,25.391,-5.859,-18.555,43.945,0
1488724232.123,44.434,30.762,27.344,9.277,41.992,0
1488724232.127,40.039,9.277,12.695,18.555,0.488,0
1488724232.131,32.227,33.691,22.461,20.020,-17.578,0
1488724232.135,48.340,71.289,37.109,28.320,-19.531,0
1488724232.139,42.969,59.082,11.230,31.250,3.418,0
1488724232.143,15.625,36.133,-0.977,23.438,-6.348,0
1488724232.147,6.348,12.207,-7.812,9.277,-30.273,0
1488724232.151,-0.488,1.465,-22.949,-8.301,-6.836,0
1488724232.154,-3.906,-11.230,-5.371,-7.324,26.855,0
1488724232.158,7.812,-1.465,10.742,12.695,31.250,0
1488724232.162,-3.906,15.137,3.906,5.371,32.227,0
1488724232.166,2.930,30.273,-6.348,6.348,19.043,0
1488724232.170,12.695,30.762,-10.254,10.254,28.320,0
1488724232.174,1.465,6.836,-0.977,8.301,30.762,0
1488724232.178,26.855,22.461,13.672,35.645,34.180,0
1488724232.182,50.293,51.758,-7.324,65.430,35.645,0
1488724232.186,26.367,-0.977,-19.043,35.645,20.020,0
1488724232.190,19.531,-29.297,4.883,14.160,13.672,0
1488724232.193,34.180,19.043,19.531,33.203,0.977,0
1488724232.197,24.414,31.250,-1.953,17.578,30.273,0
1488724232.201,1.465,17.090,0.000,4.883,56.641,0
1488724232.205,18.066,19.531,33.691,28.809,21.973,0
1488724232.209,28.809,17.578,16.602,41.016,11.719,0
1488724232.213,36.621,20.508,28.809,53.711,59.570,0
1488724232.217,25.391,11.719,41.992,38.574,74.219,0
1488724232.221,20.996,26.367,53.711,22.949,57.129,0
1488724232.225,21.973,38.574,21.973,8.789,30.762,0
1488724232.229,-0.488,10.742,-18.066,-9.766,11.230,0
1488724232.233,-4.883,4.883,2.441,-7.812,26.367,0
1488724232.236,-17.578,7.324,4.395,-19.043,0.488,0
1488724232.240,-19.531,5.371,18.555,-32.715,-4.395,0
1488724232.244,4.883,-2.441,31.738,-29.297,25.391,0
1488724232.248,4.395,16.113,14.160,-20.508,23.438,0
1488724232.252,-2.441,51.270,14.160,-7.324,7.812,0
1488724232.256,10.254,43.945,22.461,-0.488,12.695,0
1488724232.260,11.230,29.297,6.836,-4.395,51.270,0
1488724232.264,17.090,28.809,-16.602,-11.719,60.059,0
1488724232.268,4.883,6.836,-26.367,-34.180,54.199,0
1488724232.272,3.418,-5.859,9.766,-27.344,55.664,0
1488724232.276,8.789,17.090,22.461,-12.695,54.199,0
1488724232.279,32.227,49.316,29.297,15.625,37.598,0
1488724232.283,70.801,66.895,56.641,51.270,32.227,0
1488724232.287,68.359,60.059,62.500,38.086,69.336,0
1488724232.291,43.457,23.926,44.434,-1.953,50.293,0
1488724232.295,20.020,-5.371,18.555,-16.113,32.227,0
1488724232.299,-11.719,8.789,-6.836,-9.277,59.082,0
1488724232.303,-14.648,10.254,-2.930,-16.602,56.641,0
1488724232.307,26.367,16.113,31.250,-0.977,34.668,0
1488724232.311,32.227,28.809,33.691,14.160,-4.395,0
1488724232.315,-1.465,7.812,15.625,-11.719,8.301,0
1488724232.318,16.602,25.391,26.855,3.906,28.809,0
1488724232.322,44.434,44.434,50.293,35.156,24.902,0
1488724232.326,20.508,7.812,40.527,6.836,3.418,0
1488724232.330,-2.441,-4.883,0.977,-12.207,-10.254,0
1488724232.334,11.230,28.320,8.301,4.395,46.387,0
1488724232.338,23.438,37.109,35.156,5.371,58.594,0
1488724232.342,8.789,37.598,28.809,1.953,23.926,0
1488724232.346,-9.277,22.949,34.180,13.184,42.969,0
1488724232.350,21.973,34.668,66.406,47.363,92.285,0
1488724232.354,34.180,75.684,68.848,49.805,67.383,0
1488724232.358,5.371,60.547,38.574,0.000,32.715,0
1488724232.361,-13.672,29.297,24.902,-26.367,49.316,0
1488724232.365,-10.254,29.785,18.555,-9.766,71.289,0
1488724232.369,11.719,56.152,43.945,18.555,44.922,0
1488724232.373,5.371,43.945,55.176,7.324,12.207,0
1488724232.377,0.000,18.066,31.250,-14.160,57.129,0
1488724232.381,-5.371,27.832,22.461,-13.184,73.730,0
1488724232.385,27.344,67.383,21.484,36.621,25.879,0
1488724232.389,54.199,94.238,22.949,58.105,-0.488,0
1488724232.393,11.719,56.641,48.828,15.625,12.207,0
1488724232.397,-9.277,26.855,76.660,6.836,56.641,0
1488724232.401,16.113,40.527,70.801,22.949,70.312,0
1488724232.404,26.855,44.434,51.758,18.066,33.203,0
1488724232.408,15.137,20.508,0.977,10.742,36.621,0
1488724232.412,15.625,25.391,-5.371,16.113,38.574,0
1488724232.416,0.488,29.297,32.227,0.000,23.926,0
1488724232.420,15.625,14.160,52.246,13.672,28.809,0
1488724232.424,59.082,43.457,64.453,48.828,39.062,0
1488724232.428,66.895,66.406,63.477,41.992,50.781,0
1488724232.432,34.180,34.668,65.430,29.785,24.414,0
1488724232.436,10.742,22.949,38.574,34.668,28.809,0
1488724232.440,-10.254,15.625,22.949,2.930,56.641,0
1488724232.443,-21.973,-18.066,21.973,-20.020,46.875,0
1488724232.447,8.789,2.441,26.855,3.906,58.594,0
1488724232.451,20.508,58.594,54.688,24.902,58.594,0
1488724232.455,9.766,56.152,20.996,8.789,85.938,0
1488724232.459,33.691,48.828,6.836,11.230,89.844,0
1488724232.463,25.879,47.363,31.250,2.930,70.312,0
1488724232.467,0.000,26.855,35.156,-9.766,81.055,0
1488724232.471,-6.836,4.395,31.738,2.441,80.566,0
1488724232.475,-28.320,-12.207,16.113,-2.441,49.805,0
1488724232.479,-40.039,-4.395,-8.301,-28.320,4.395,0
1488724232.483,-17.090,0.488,10.254,-19.043,51.758,0
1488724232.486,20.996,16.602,62.988,25.391,101.562,0
1488724232.490,32.715,49.316,61.523,37.598,60.059,0
1488724232.494,-3.418,55.176,11.230,-1.465,24.414,0
1488724232.498,-9.766,52.246,13.672,-17.090,42.969,0
1488724232.502,6.348,47.363,52.246,7.812,57.617,0
1488724232.506,-41.504,-2.930,39.551,-21.973,21.973,0
1488724232.510,-66.406,-36.133,0.977,-59.082,-11.230,0
1488724232.514,-45.410,-4.883,-22.461,-48.340,8.789,0
1488724232.518,-4.883,7.812,22.949,-3.418,24.902,0
1488724232.522,28.320,2.441,56.641,26.855,10.742,0
1488724232.526,32.227,21.973,24.902,16.602,-0.488,0
1488724232.529,19.043,32.227,38.086,12.207,26.367,0
1488724232.533,42.969,55.176,68.359,50.781,44.922,0
1488724232.537,64.941,56.641,58.594,83.984,14.160,0
1488724232.541,12.695,10.742,53.711,47.363,9.766,0
1488724232.545,-29.297,-10.254,27.344,3.418,29.785,0
1488724232.549,-37.598,-9.277,-14.160,-34.180,45.410,0
1488724232.553,-0.977,9.766,14.160,-11.719,39.551,0
1488724232.557,15.137,14.648,50.781,6.348,11.230,0
1488724232.561,-0.488,5.859,38.086,-3.418,11.719,0
1488724232.565,-28.809,-9.766,3.418,-19.043,-1.465,0
1488724232.568,-37.598,0.000,8.301,-25.879,-2.930,0
1488724232.572,-2.930,41.016,58.594,0.977,21.973,0
1488724232.576,14.648,63.477,67.383,15.137,26.367,0
1488724232.580,-25.391,10.254,1.953,-13.184,16.602,0
1488724232.584,-51.758,-36.621,-21.973,-33.203,27.344,0
1488724232.588,-26.855,-11.719,10.742,-16.113,42.969,0
1488724232.592,0.000,25.391,19.043,21.973,58.594,0
1488724232.596,4.883,18.066,23.438,34.668,41.992,0
1488724232.600,-14.648,-4.395,15.137,-2.441,20.996,0
1488724232.604,-18.066,1.953,20.020,-14.160,30.762,0
1488724232.608,-1.465,22.461,52.734,-3.418,26.855,0
1488724232.611,14.160,34.180,57.617,2.441,-29.297,0
1488724232.615,8.301,25.879,30.273,-5.371,1.953,0
