timestamps,TP9,AF7,AF8,TP10,Right AUX,Marker0
1488801565.330,-65.918,-162.109,-151.855,-92.285,16.113,0
1488801565.334,-72.266,-172.852,-172.363,-106.934,1.953,0
1488801565.338,-93.262,-181.641,-173.340,-112.305,-6.348,0
1488801565.341,-110.352,-176.758,-174.805,-107.910,10.742,0
1488801565.345,-113.281,-171.387,-179.688,-117.676,5.859,0
1488801565.349,-121.582,-184.570,-177.246,-139.648,27.344,0
1488801565.353,-135.254,-190.918,-184.082,-144.043,64.453,0
1488801565.357,-124.023,-159.668,-163.574,-126.465,41.992,0
1488801565.361,-101.562,-126.953,-128.418,-105.957,8.789,0
1488801565.365,-85.938,-122.559,-116.699,-100.098,3.906,0
1488801565.369,-61.523,-105.957,-96.680,-77.148,37.109,0
1488801565.373,-52.734,-81.543,-72.754,-46.387,26.855,0
1488801565.377,-65.918,-72.266,-49.316,-35.645,11.230,0
1488801565.380,-52.734,-68.359,-39.551,-25.879,55.176,0
1488801565.384,-24.902,-58.594,-32.715,-6.348,82.520,0
1488801565.388,-16.113,-48.828,-23.926,-0.488,52.734,0
1488801565.392,-4.883,-33.203,-15.137,6.348,25.879,0
1488801565.396,15.137,-11.719,3.418,21.973,44.434,0
1488801565.400,25.391,-1.953,7.812,39.062,35.645,0
1488801565.404,29.785,6.836,24.414,60.059,10.742,0
1488801565.408,39.062,21.973,52.246,70.312,6.836,0
1488801565.412,52.246,31.250,56.641,70.801,42.969,0
1488801565.416,80.078,45.898,58.594,83.984,35.645,0
1488801565.420,91.309,56.152,67.871,89.844,11.230,0
1488801565.423,73.730,45.898,62.012,75.684,28.809,0
1488801565.427,63.965,41.016,51.758,80.078,44.922,0
1488801565.431,62.988,41.992,40.039,75.684,57.617,0
1488801565.435,58.594,37.598,35.645,57.617,51.758,0
1488801565.439,70.801,34.668,49.805,61.035,34.180,0
1488801565.443,78.125,39.551,45.898,66.895,31.738,0
1488801565.447,66.895,40.527,39.551,67.871,22.949,0
1488801565.451,69.824,42.969,39.551,72.266,16.602,0
1488801565.455,69.824,34.180,30.762,65.430,25.879,0
1488801565.459,74.219,26.367,33.203,60.059,17.578,0
1488801565.463,86.914,37.109,44.922,71.289,4.883,0
1488801565.466,82.031,35.156,41.016,73.242,12.207,0
1488801565.470,72.266,26.855,30.762,69.336,31.738,0
1488801565.474,73.730,33.691,40.039,66.895,31.738,0
1488801565.478,62.012,30.273,41.504,50.293,31.250,0
1488801565.482,55.176,28.809,26.367,40.039,39.551,0
1488801565.486,56.152,32.715,23.438,45.898,17.578,0
1488801565.490,59.570,27.344,35.645,64.453,10.742,1
1488801565.494,61.523,32.715,40.527,69.824,-20.508,0
1488801565.498,47.363,34.180,28.320,56.152,-36.133,0
1488801565.502,49.805,34.668,20.508,54.688,17.578,0
1488801565.505,58.105,49.805,29.785,66.406,25.391,0
1488801565.509,48.340,52.734,26.367,62.012,9.277,0
1488801565.513,42.969,42.969,17.578,51.758,18.066,0
1488801565.517,42.969,34.180,17.578,41.992,33.691,0
1488801565.521,45.898,35.156,25.391,32.227,36.621,0
1488801565.525,37.598,35.645,31.738,41.016,-1.953,0
1488801565.529,19.531,21.973,19.043,40.039,1.465,0
1488801565.533,19.531,16.113,19.043,32.715,41.504,0
1488801565.537,26.855,20.020,27.344,34.180,31.738,0
1488801565.541,14.160,11.230,2.930,27.344,-20.020,0
1488801565.545,-1.465,-3.906,-18.066,17.090,-9.277,0
1488801565.548,10.254,-4.883,-9.766,20.508,37.109,0
1488801565.552,25.391,-5.859,-8.301,18.066,12.695,0
1488801565.556,26.367,-7.812,-7.812,15.137,-0.977,0
1488801565.560,20.020,-6.348,-6.348,17.578,26.367,0
1488801565.564,12.695,-6.836,-0.488,22.949,52.246,0
1488801565.568,27.344,0.977,-1.953,29.297,23.926,0
1488801565.572,48.828,15.137,-6.348,36.133,1.465,0
1488801565.576,55.664,26.367,9.766,45.410,24.414,0
1488801565.580,50.781,28.809,24.414,50.293,31.738,0
1488801565.584,55.176,34.180,23.926,57.129,23.926,0
1488801565.588,55.664,40.527,18.555,47.363,11.719,0
1488801565.591,41.504,36.133,17.090,37.598,-2.930,0
1488801565.595,44.434,35.156,18.066,31.250,26.367,0
1488801565.599,48.340,29.297,12.207,28.809,23.438,0
1488801565.603,32.715,18.066,6.836,30.762,-6.836,0
1488801565.607,34.180,21.484,5.371,30.273,8.301,0
1488801565.611,47.852,33.691,8.789,28.809,27.344,0
1488801565.615,52.734,33.203,15.137,31.738,27.344,0
1488801565.619,66.895,37.109,3.418,41.016,4.395,0
1488801565.623,70.801,36.621,-7.324,47.363,2.930,0
1488801565.627,71.777,41.504,13.672,60.547,1.465,0
1488801565.630,73.730,53.223,38.086,76.660,-16.602,0
1488801565.634,72.266,47.363,40.039,64.453,-18.555,0
1488801565.638,70.312,36.133,30.273,37.109,11.719,0
1488801565.642,62.988,39.551,21.484,32.715,14.648,0
1488801565.646,48.340,40.527,3.906,32.227,-13.672,0
1488801565.650,30.762,20.508,-25.879,13.184,-6.836,0
1488801565.654,19.043,21.973,-40.527,-0.977,5.371,0
1488801565.658,14.648,34.180,-32.227,-9.766,10.742,0
1488801565.662,8.301,31.738,-33.203,-10.742,16.602,0
1488801565.666,-1.953,22.461,-36.133,-5.859,36.621,0
1488801565.670,11.719,34.180,-13.672,0.488,68.359,0
1488801565.673,11.230,37.109,-2.441,-2.441,41.016,0
1488801565.677,-6.348,20.508,-16.113,-10.742,19.043,0
1488801565.681,-23.926,0.977,-33.691,-20.996,44.922,0
1488801565.685,-35.156,-17.578,-50.293,-31.738,80.566,0
1488801565.689,-25.879,-10.742,-62.012,-28.809,62.012,0
1488801565.693,-32.715,-14.160,-68.359,-39.062,-13.672,0
1488801565.697,-47.852,-36.133,-72.266,-55.664,34.668,0
1488801565.701,-40.039,-32.227,-60.059,-38.086,50.781,0
1488801565.705,-42.480,-28.809,-50.781,-23.438,32.227,0
1488801565.709,-56.641,-41.992,-55.176,-35.156,66.406,0
1488801565.713,-60.547,-53.711,-60.547,-49.805,71.777,0
1488801565.716,-60.547,-57.617,-63.477,-46.875,49.316,0
1488801565.720,-47.852,-60.547,-73.242,-30.273,4.883,0
1488801565.724,-42.480,-65.430,-61.523,-19.043,2.930,0
1488801565.728,-54.199,-73.242,-29.297,-15.137,7.812,0
1488801565.732,-48.828,-77.637,-22.949,-15.625,26.367,0
1488801565.736,-43.457,-85.449,-39.551,-21.484,-17.090,0
1488801565.740,-65.430,-118.164,-64.453,-43.457,2.441,0
1488801565.744,-67.383,-134.277,-74.219,-49.805,58.594,0
1488801565.748,-49.805,-130.859,-76.660,-37.598,32.227,0
1488801565.752,-52.246,-145.996,-73.242,-42.969,40.527,0
1488801565.755,-71.289,-155.762,-68.359,-51.270,34.180,0
1488801565.759,-94.727,-149.902,-79.102,-45.898,18.555,0
1488801565.763,-113.770,-152.832,-104.492,-64.941,26.855,0
1488801565.767,-108.887,-157.227,-119.141,-91.797,29.785,0
1488801565.771,-102.539,-148.438,-122.559,-87.891,28.809,0
1488801565.775,-110.352,-136.230,-131.836,-87.402,42.480,0
1488801565.779,-100.098,-118.164,-108.398,-76.172,20.508,0
1488801565.783,-101.074,-116.699,-102.539,-88.379,20.996,0
1488801565.787,-106.934,-116.211,-108.887,-104.004,29.785,0
1488801565.791,-91.797,-97.656,-100.098,-82.031,28.809,0
1488801565.795,-75.195,-89.355,-103.027,-72.266,33.691,0
1488801565.798,-65.918,-74.707,-94.238,-68.848,29.297,0
1488801565.802,-54.199,-53.223,-83.984,-66.895,34.180,0
1488801565.806,-38.086,-38.086,-76.172,-63.477,20.508,0
1488801565.810,-39.062,-29.297,-53.223,-52.246,-7.812,0
1488801565.814,-47.363,-24.902,-41.504,-51.758,8.789,0
1488801565.818,-43.945,-28.320,-57.129,-66.895,35.156,0
1488801565.822,-36.621,-27.832,-63.477,-69.824,15.625,0
1488801565.826,-43.945,-26.367,-52.246,-70.801,-4.395,0
1488801565.830,-64.941,-47.363,-58.594,-83.008,16.113,0
1488801565.834,-65.430,-59.570,-72.266,-84.961,48.340,0
1488801565.838,-54.688,-47.363,-69.336,-81.055,54.199,0
1488801565.841,-51.758,-43.945,-54.688,-78.125,49.316,0
1488801565.845,-50.781,-59.082,-59.082,-74.707,52.246,0
1488801565.849,-45.898,-61.035,-62.500,-64.941,62.500,0
1488801565.853,-44.922,-57.129,-51.758,-56.152,44.434,0
1488801565.857,-41.992,-57.129,-44.922,-46.875,27.832,0
1488801565.861,-24.902,-57.129,-46.875,-32.715,29.297,0
1488801565.865,-11.230,-58.594,-41.016,-24.902,41.992,0
1488801565.869,0.977,-49.316,-23.438,-5.859,10.254,0
1488801565.873,8.789,-49.805,-12.207,-2.930,13.184,0
1488801565.877,9.277,-51.758,0.977,0.488,50.293,0
1488801565.880,29.297,-35.645,0.488,30.762,44.922,0
1488801565.884,44.922,-26.855,-5.859,35.645,14.160,0
1488801565.888,41.016,-25.391,0.977,23.438,18.066,0
1488801565.892,32.227,-16.113,17.090,25.391,52.734,0
1488801565.896,29.297,-8.301,24.414,40.039,38.086,0
1488801565.900,28.320,-6.348,11.719,33.691,31.738,0
1488801565.904,28.809,7.812,8.301,24.414,28.320,0
1488801565.908,20.996,25.391,15.625,21.973,38.574,0
1488801565.912,11.719,39.062,22.461,20.020,43.945,0
1488801565.916,15.137,39.551,19.043,15.137,6.836,0
1488801565.920,8.789,21.973,-5.371,-2.930,9.277,0
1488801565.923,3.418,19.043,1.953,5.371,26.367,0
1488801565.927,15.625,31.250,24.414,22.461,30.762,0
1488801565.931,25.391,31.250,13.672,14.160,18.555,0
1488801565.935,16.113,21.973,5.859,8.789,23.438,0
1488801565.939,11.230,16.602,13.672,14.160,22.461,0
1488801565.943,26.367,22.949,11.719,20.508,27.832,0
1488801565.947,41.504,27.832,12.695,22.461,35.156,0
1488801565.951,53.711,29.785,23.926,23.438,41.504,0
1488801565.955,51.270,33.203,27.344,29.297,46.387,0
1488801565.959,45.410,26.855,4.883,31.250,25.879,0
1488801565.963,40.039,10.742,-32.715,19.043,24.902,0
1488801565.966,30.762,-3.418,-35.645,4.883,39.551,0
1488801565.970,37.109,3.418,-4.883,11.230,36.621,0
1488801565.974,44.922,14.160,7.324,32.227,3.906,0
1488801565.978,26.367,-5.859,-10.742,20.508,20.508,0
1488801565.982,10.254,-23.926,-21.484,-7.812,68.848,0
1488801565.986,17.578,-14.648,-14.160,1.953,49.316,0
1488801565.990,14.160,-10.742,-25.391,10.254,40.527,0
1488801565.994,6.836,-15.137,-44.922,5.859,28.320,0
1488801565.998,6.348,-21.484,-33.691,10.254,16.113,0
1488801566.002,19.531,-17.578,-2.441,19.043,2.441,0
1488801566.005,27.344,-10.742,9.766,23.926,-17.578,0
1488801566.009,13.184,-21.973,14.160,20.508,-1.953,0
1488801566.013,8.301,-31.738,13.184,28.320,15.625,0
1488801566.017,32.227,-10.254,13.672,50.293,8.789,0
1488801566.021,45.898,16.602,10.742,58.594,-8.301,0
1488801566.025,46.387,12.695,4.883,39.551,8.301,0
1488801566.029,68.848,14.160,20.508,40.039,24.902,0
1488801566.033,85.938,24.902,41.016,62.012,14.648,0
1488801566.037,77.637,21.973,52.246,73.730,28.320,0
1488801566.041,70.801,20.508,45.898,85.449,34.668,0
1488801566.045,74.219,22.949,33.691,88.379,30.762,0
1488801566.048,87.891,31.250,32.715,82.031,38.574,0
1488801566.052,109.863,41.016,50.293,91.797,25.391,0
1488801566.056,111.328,41.504,55.664,97.656,5.371,0
1488801566.060,95.215,42.480,42.969,97.656,20.508,0
1488801566.064,98.145,55.664,52.734,103.516,25.879,0
1488801566.068,109.863,55.664,65.430,94.727,5.371,0
1488801566.072,104.004,49.316,64.941,87.402,24.902,0
1488801566.076,90.332,44.922,60.547,76.660,44.922,0
1488801566.080,78.613,37.109,53.711,57.129,25.391,0
1488801566.084,66.895,23.926,43.945,50.781,11.719,0
1488801566.088,58.105,22.949,33.691,42.969,45.410,0
1488801566.091,38.574,34.180,20.020,35.156,44.922,0
1488801566.095,30.762,37.109,13.184,41.016,31.738,0
1488801566.099,31.738,28.320,15.625,36.621,29.785,0
1488801566.103,22.461,25.879,8.789,23.438,30.762,0
1488801566.107,27.344,40.527,20.020,30.762,10.254,0
1488801566.111,29.297,39.551,24.414,23.926,-10.254,0
1488801566.115,17.090,20.996,4.395,2.441,22.949,0
1488801566.119,12.207,20.508,-4.883,6.836,41.992,0
1488801566.123,9.766,25.879,-8.301,19.043,25.879,0
1488801566.127,6.836,20.508,-6.348,17.090,31.738,0
1488801566.130,7.324,12.207,-9.766,-1.953,60.059,0
1488801566.134,20.020,15.625,-13.672,-3.418,39.551,0
1488801566.138,20.020,19.043,-7.812,2.930,0.977,0
1488801566.142,1.465,14.648,-4.395,-10.742,9.766,0
1488801566.146,-13.184,10.254,-5.859,-10.742,31.738,0
1488801566.150,-8.301,3.418,-12.695,-0.488,27.344,0
1488801566.154,0.977,0.000,-23.926,0.000,28.809,0
1488801566.158,-2.441,-7.324,-39.551,-7.812,31.738,0
1488801566.162,-2.930,-10.742,-44.434,-5.371,31.250,0
1488801566.166,-10.254,-14.648,-32.227,-4.883,36.133,0
1488801566.170,-11.719,-17.578,-23.438,-3.906,15.625,0
1488801566.173,-24.902,-31.250,-28.320,-15.625,-1.465,0
1488801566.177,-29.785,-46.875,-45.898,-41.016,37.598,0
1488801566.181,-16.602,-42.480,-62.012,-36.133,18.066,0
1488801566.185,-31.738,-52.734,-70.312,-42.969,-13.184,0
1488801566.189,-48.828,-61.035,-75.195,-57.129,4.883,0
1488801566.193,-42.969,-52.246,-67.871,-40.039,-3.418,0
1488801566.197,-43.945,-58.105,-62.988,-36.621,6.348,0
1488801566.201,-42.969,-66.406,-70.312,-47.363,-9.766,0
1488801566.205,-38.086,-67.871,-76.660,-51.270,4.395,0
1488801566.209,-38.086,-56.641,-66.406,-41.504,25.879,0
1488801566.213,-26.855,-40.527,-48.340,-35.156,2.441,0
1488801566.216,-18.555,-36.133,-54.199,-41.504,26.855,0
1488801566.220,-21.973,-38.574,-74.707,-36.133,36.133,0
1488801566.224,-34.668,-40.527,-74.707,-28.320,6.836,0
1488801566.228,-54.688,-48.340,-76.172,-40.527,-1.465,0
1488801566.232,-69.824,-61.035,-87.891,-62.500,20.996,0
1488801566.236,-79.590,-74.707,-99.121,-77.148,19.043,0
1488801566.240,-82.031,-83.984,-115.234,-78.613,20.508,0
1488801566.244,-93.750,-97.656,-135.742,-86.914,4.883,0
1488801566.248,-103.027,-113.770,-147.949,-97.168,-25.391,0
1488801566.252,-107.910,-125.000,-159.180,-109.375,0.977,0
1488801566.255,-120.605,-123.535,-165.039,-114.258,17.090,0
1488801566.259,-118.652,-117.188,-164.551,-112.793,13.184,0
1488801566.263,-108.398,-130.859,-166.016,-120.605,19.531,0
1488801566.267,-108.398,-151.855,-167.480,-129.883,32.715,0
1488801566.271,-104.980,-150.391,-168.457,-119.141,20.020,0
1488801566.275,-117.676,-150.391,-175.293,-117.188,13.672,0
1488801566.279,-123.535,-155.273,-170.898,-129.395,29.297,0
1488801566.283,-109.375,-151.855,-166.016,-129.395,43.457,0
1488801566.287,-100.586,-150.391,-168.945,-116.699,19.531,0
1488801566.291,-105.469,-155.273,-158.691,-116.211,-11.230,0
1488801566.295,-113.770,-164.551,-164.062,-133.789,34.668,0
1488801566.298,-110.352,-164.551,-165.527,-130.371,74.219,0
1488801566.302,-96.680,-153.320,-146.484,-110.352,35.645,0
1488801566.306,-94.238,-148.438,-134.766,-105.957,14.160,0
1488801566.310,-107.422,-160.645,-142.090,-108.887,39.062,0
1488801566.314,-101.074,-164.062,-146.484,-109.375,60.547,0
1488801566.318,-93.750,-156.738,-131.836,-103.516,40.527,0
1488801566.322,-93.750,-159.668,-126.953,-92.773,1.465,0
1488801566.326,-92.773,-163.086,-130.859,-88.379,14.160,0
1488801566.330,-90.332,-154.297,-120.117,-82.031,60.059,0
1488801566.334,-83.984,-147.949,-113.281,-86.914,38.086,0
1488801566.338,-88.867,-144.531,-130.859,-91.797,5.859,0
1488801566.341,-108.887,-151.855,-147.461,-94.727,18.066,0
1488801566.345,-116.211,-159.668,-130.859,-96.191,20.996,0
1488801566.349,-97.168,-144.531,-112.793,-64.941,5.371,0
1488801566.353,-88.379,-142.090,-116.211,-52.734,-18.066,0
1488801566.357,-88.379,-145.996,-114.746,-66.406,28.320,0
1488801566.361,-83.496,-132.324,-116.699,-62.988,37.598,0
1488801566.365,-91.309,-132.324,-133.301,-78.613,-3.418,0
1488801566.369,-94.727,-134.277,-127.441,-86.914,14.160,0
1488801566.373,-93.262,-131.348,-113.770,-83.008,41.016,0
1488801566.377,-94.238,-131.348,-110.840,-80.078,56.641,0
1488801566.380,-91.309,-128.418,-98.145,-58.594,36.621,0
1488801566.384,-88.379,-126.953,-92.285,-51.270,2.441,0
1488801566.388,-80.078,-128.418,-108.887,-57.129,13.672,0
1488801566.392,-68.848,-121.094,-112.305,-48.828,3.906,0
1488801566.396,-67.383,-108.887,-100.586,-46.387,-5.371,0
1488801566.400,-71.777,-116.699,-100.586,-56.641,20.020,0
1488801566.404,-69.336,-118.652,-94.727,-62.012,29.297,0
1488801566.408,-56.152,-99.609,-81.543,-47.363,24.414,0
1488801566.412,-47.852,-87.402,-84.961,-42.480,14.160,0
1488801566.416,-57.617,-89.844,-95.215,-61.035,14.648,0
1488801566.420,-55.176,-85.449,-82.031,-59.570,40.039,0
1488801566.423,-50.293,-75.195,-57.617,-41.016,37.598,0
1488801566.427,-57.617,-65.430,-38.086,-35.645,-13.184,0
1488801566.431,-55.664,-69.336,-41.992,-42.969,-10.742,0
1488801566.435,-44.922,-74.707,-56.152,-48.828,53.223,0
1488801566.439,-24.414,-53.223,-51.270,-38.086,17.578,0
1488801566.443,-17.578,-51.270,-58.105,-35.645,-13.184,0
1488801566.447,-31.250,-62.012,-62.012,-40.527,24.902,0
1488801566.451,-30.273,-51.270,-47.852,-37.109,34.180,0
1488801566.455,-22.949,-47.363,-44.922,-33.691,45.410,0
1488801566.459,-22.949,-51.270,-35.645,-24.414,30.273,0
1488801566.463,-24.902,-53.223,-17.578,-22.461,20.996,0
1488801566.466,-22.461,-45.410,-2.930,-12.207,34.668,0
1488801566.470,-24.414,-42.480,-5.859,-7.324,-4.395,0
1488801566.474,-30.273,-40.039,-7.324,-10.254,5.371,0
1488801566.478,-11.230,-28.320,-2.930,-2.930,24.902,0
1488801566.482,4.395,-21.973,-20.508,2.441,-0.977,0
1488801566.486,1.953,-25.879,-20.996,6.836,-10.742,0
1488801566.490,-4.883,-30.762,-0.488,2.930,7.324,0
1488801566.494,-0.977,-15.625,11.230,2.441,40.527,0
1488801566.498,10.742,-4.395,31.250,4.395,49.316,0
1488801566.502,13.184,-4.395,36.621,12.207,46.875,0
1488801566.505,23.438,7.812,26.855,27.832,51.758,0
1488801566.509,40.527,24.902,36.621,42.969,55.664,0
1488801566.513,42.480,19.531,34.668,42.969,42.480,0
1488801566.517,35.156,5.859,21.484,37.109,34.180,0
1488801566.521,45.410,7.324,36.133,41.992,14.160,0
1488801566.525,50.293,14.160,46.875,51.758,-0.488,0
1488801566.529,47.852,22.949,51.758,73.242,0.977,0
1488801566.533,58.105,29.297,44.922,80.566,-15.137,0
1488801566.537,56.152,18.066,21.973,60.547,23.926,0
1488801566.541,49.805,11.719,24.414,54.688,35.645,0
1488801566.545,47.363,21.973,35.645,71.289,-22.949,0
1488801566.548,53.223,24.902,36.133,75.684,2.930,0
1488801566.552,62.988,26.855,28.320,77.148,67.383,0
1488801566.556,72.266,30.762,25.391,79.590,71.289,0
1488801566.560,75.195,32.227,31.738,78.125,38.574,0
1488801566.564,63.965,29.297,27.344,76.660,43.457,0
1488801566.568,64.453,31.250,26.855,83.496,54.688,0
1488801566.572,66.895,35.645,23.438,85.449,42.969,0
1488801566.576,68.848,41.504,23.926,83.496,13.672,0
1488801566.580,66.406,35.156,34.668,82.520,35.645,0
1488801566.584,58.594,25.391,37.109,83.008,62.012,0
1488801566.588,65.918,39.551,39.062,100.586,41.504,0
1488801566.591,76.660,49.805,42.480,106.445,16.113,0
1488801566.595,64.941,30.762,31.250,87.891,7.812,0
1488801566.599,55.664,20.996,21.484,76.172,35.156,0
1488801566.603,58.594,29.785,22.461,76.172,38.086,0
1488801566.607,55.176,40.039,35.156,87.402,38.086,0
1488801566.611,50.781,37.109,37.109,78.125,61.035,0
1488801566.615,59.570,33.203,31.738,68.359,48.828,0
1488801566.619,64.453,36.133,40.527,82.031,16.602,0
1488801566.623,55.664,35.645,51.270,75.684,5.371,0
1488801566.627,49.805,32.715,54.688,64.453,46.387,0
1488801566.630,58.105,46.875,60.059,74.219,81.055,0
1488801566.634,63.477,58.105,61.035,81.543,49.805,0
1488801566.638,61.035,57.129,52.246,67.871,22.949,0
1488801566.642,51.758,53.711,36.133,59.570,58.594,0
1488801566.646,44.922,48.340,38.574,62.500,66.406,0
1488801566.650,53.711,40.039,45.410,63.477,20.508,0
1488801566.654,69.336,44.434,42.480,73.242,27.344,0
1488801566.658,86.914,62.500,45.898,84.473,41.016,0
1488801566.662,95.703,72.754,61.523,87.402,15.625,0
1488801566.666,94.727,73.242,70.801,88.379,20.996,0
1488801566.670,85.449,64.941,55.176,89.355,35.156,0
1488801566.673,90.820,69.336,48.340,95.703,19.531,0
1488801566.677,100.098,73.730,59.082,93.750,41.016,0
1488801566.681,100.586,69.336,62.012,88.379,62.988,0
1488801566.685,102.051,63.965,62.012,80.566,45.898,0
1488801566.689,103.027,65.430,69.336,77.148,37.598,0
1488801566.693,102.539,74.707,67.383,88.379,16.113,0
1488801566.697,87.402,69.824,54.199,83.496,26.367,0
1488801566.701,83.984,67.871,51.758,71.289,34.668,0
1488801566.705,97.168,74.219,51.270,77.637,19.043,0
1488801566.709,88.867,81.543,53.711,86.426,0.488,0
1488801566.713,76.172,76.172,60.547,69.824,-6.348,0
1488801566.716,77.148,63.477,59.082,52.246,1.953,0
1488801566.720,77.148,66.406,55.664,51.758,26.367,0
1488801566.724,76.660,76.172,50.781,59.082,8.789,0
1488801566.728,68.359,74.219,48.340,65.918,-3.418,0
1488801566.732,69.824,76.172,41.016,62.988,31.250,0
1488801566.736,79.590,88.867,35.156,58.105,32.227,0
1488801566.740,75.684,92.285,32.227,57.129,28.320,0
1488801566.744,73.730,87.891,38.086,55.664,19.531,0
1488801566.748,81.055,80.566,44.922,52.734,1.953,0
1488801566.752,93.262,83.496,38.086,53.223,31.250,0
1488801566.755,96.191,91.309,40.039,48.340,36.133,0
1488801566.759,86.426,91.797,51.270,56.641,19.531,2
1488801566.763,79.102,86.914,47.363,68.359,39.551,0
1488801566.767,84.961,83.496,37.109,59.082,34.668,0
1488801566.771,86.426,86.426,50.781,54.199,10.254,0
1488801566.775,78.125,79.590,42.480,58.594,6.348,0
1488801566.779,72.754,73.730,15.625,52.734,5.371,0
1488801566.783,72.754,81.543,26.367,55.176,9.277,0
1488801566.787,83.008,81.543,41.016,74.219,0.977,0
1488801566.791,83.984,75.684,31.738,70.801,31.250,0
1488801566.795,88.867,76.660,29.785,68.359,48.828,0
1488801566.798,97.168,78.125,39.551,87.891,24.902,0
1488801566.802,93.750,76.172,38.086,99.609,6.836,0
1488801566.806,82.031,66.406,34.180,97.656,-3.906,0
1488801566.810,77.637,56.152,36.133,89.844,19.531,0
1488801566.814,90.820,60.059,29.785,87.402,5.859,0
1488801566.818,91.797,61.523,31.738,94.238,-22.949,0
1488801566.822,83.984,46.875,41.016,93.262,19.531,0
1488801566.826,83.984,45.898,44.434,97.656,26.855,0
1488801566.830,76.660,43.457,28.809,88.867,12.695,0
1488801566.834,71.289,29.297,19.531,81.543,36.621,0
1488801566.838,70.801,23.438,19.043,80.566,28.809,0
1488801566.841,73.242,41.992,24.414,83.984,8.301,0
1488801566.845,82.520,52.246,30.273,83.008,5.859,0
1488801566.849,79.590,42.480,35.156,78.613,23.926,0
1488801566.853,57.617,40.527,43.457,89.844,53.223,0
1488801566.857,60.059,47.852,46.875,100.098,42.480,0
1488801566.861,75.195,52.246,48.340,105.957,-5.371,0
1488801566.865,67.871,33.203,33.203,78.613,-2.441,0
1488801566.869,65.918,23.438,20.996,56.641,12.695,0
1488801566.873,65.918,31.250,36.621,63.965,12.207,0
1488801566.877,54.199,30.762,38.086,60.547,31.250,0
1488801566.880,57.129,34.668,24.414,65.918,45.410,0
1488801566.884,83.008,47.363,30.762,82.520,54.688,0
1488801566.888,92.285,61.523,35.156,90.332,29.785,0
1488801566.892,84.473,56.641,31.738,86.426,30.273,0
1488801566.896,86.426,48.340,41.504,73.730,32.715,0
1488801566.900,81.543,40.527,37.109,59.570,11.230,0
1488801566.904,86.426,45.898,30.762,65.918,-14.160,0
1488801566.908,94.727,46.875,34.180,74.707,-28.809,0
1488801566.912,90.332,30.762,27.832,72.266,24.902,0
1488801566.916,98.633,43.457,46.875,83.008,27.344,0
1488801566.920,100.586,57.617,60.547,83.496,-3.906,0
1488801566.923,89.844,41.992,49.805,66.895,2.930,0
1488801566.927,67.871,27.832,48.340,60.059,26.367,0
1488801566.931,61.523,35.156,42.969,79.102,31.738,0
1488801566.935,63.477,35.645,28.809,80.078,24.414,0
1488801566.939,54.688,31.250,26.367,71.289,41.504,0
1488801566.943,56.641,34.668,37.598,76.172,37.598,0
1488801566.947,56.641,28.320,44.434,73.242,-0.488,0
1488801566.951,57.129,24.414,47.852,64.453,-6.348,0
1488801566.955,53.711,29.297,64.453,59.082,8.301,0
1488801566.959,51.758,37.598,83.008,62.500,25.879,0
1488801566.963,63.965,50.293,95.703,76.172,13.672,0
1488801566.966,70.312,51.270,83.984,81.055,-2.930,0
1488801566.970,55.176,38.086,68.848,64.453,42.480,0
1488801566.974,53.711,41.504,72.266,71.289,71.777,0
1488801566.978,71.289,52.734,74.707,89.355,53.711,0
1488801566.982,93.750,57.129,89.355,95.703,37.109,0
1488801566.986,111.328,58.594,110.352,112.793,48.340,0
1488801566.990,113.770,67.383,107.422,126.465,59.082,0
1488801566.994,104.492,75.684,99.609,123.535,65.430,0
1488801566.998,92.285,64.941,96.680,116.211,40.527,0
1488801567.002,89.355,55.664,81.055,104.492,43.457,0
1488801567.005,99.121,69.336,92.773,107.422,80.078,0
1488801567.009,96.680,79.102,98.145,115.234,57.617,0
1488801567.013,81.543,71.289,72.266,106.934,58.594,0
1488801567.017,84.473,72.754,65.430,92.773,81.543,0
1488801567.021,89.844,75.195,68.359,85.449,89.844,0
1488801567.025,86.914,67.383,52.734,75.195,83.984,0
1488801567.029,82.520,63.477,36.621,57.129,85.938,0
1488801567.033,88.867,67.383,31.738,59.570,76.172,0
1488801567.037,95.215,79.102,41.992,79.590,53.711,0
1488801567.041,92.285,82.031,56.641,80.078,49.316,0
1488801567.045,74.707,64.941,42.480,55.664,50.293,0
1488801567.048,68.359,60.547,26.855,47.363,84.961,0
1488801567.052,70.312,64.453,36.621,56.152,57.129,0
1488801567.056,53.711,46.387,39.062,39.551,44.922,0
1488801567.060,39.062,29.297,17.578,20.020,64.941,0
1488801567.064,33.203,32.715,2.930,14.648,70.312,0
1488801567.068,25.879,37.109,5.371,16.113,70.801,0
1488801567.072,15.625,28.320,-3.418,4.395,26.855,0
1488801567.076,4.883,22.949,-11.719,-8.789,16.602,0
1488801567.080,12.207,24.414,-2.930,0.488,39.551,0
1488801567.084,16.602,22.949,5.859,2.930,19.531,0
1488801567.088,-1.953,17.090,4.395,-8.789,-4.395,0
1488801567.091,-15.625,8.301,-8.789,-23.926,31.250,0
1488801567.095,-19.043,3.418,-10.742,-31.738,39.551,0
1488801567.099,-13.184,1.465,-14.648,-24.902,17.578,0
1488801567.103,-8.789,-7.812,-22.461,-28.320,-3.906,0
1488801567.107,-11.719,-3.906,-17.578,-22.461,-13.184,0
1488801567.111,-16.602,-0.488,-8.789,-14.160,6.836,0
1488801567.115,-22.461,-12.695,-13.184,-26.855,5.859,0
1488801567.119,-28.320,-26.855,-29.297,-46.875,18.555,0
1488801567.123,-39.551,-34.180,-43.457,-51.758,19.531,0
1488801567.127,-39.062,-27.832,-49.316,-44.434,6.836,0
1488801567.130,-32.227,-29.297,-44.922,-46.875,26.855,0
1488801567.134,-24.902,-37.109,-37.109,-47.363,10.254,0
1488801567.138,-24.902,-41.016,-41.992,-47.363,17.090,0
1488801567.142,-23.438,-41.016,-45.410,-46.387,25.879,0
1488801567.146,-22.461,-35.645,-41.016,-47.363,4.395,0
1488801567.150,-32.227,-41.504,-53.711,-63.477,25.391,0
1488801567.154,-31.250,-42.480,-62.012,-60.547,11.230,0
1488801567.158,-28.809,-41.504,-53.711,-44.434,10.742,0
1488801567.162,-32.227,-55.176,-67.383,-42.480,20.508,0
1488801567.166,-37.109,-63.965,-82.520,-52.734,17.578,0
1488801567.170,-26.367,-53.223,-67.383,-45.898,9.277,0
1488801567.173,-15.137,-40.527,-45.898,-29.297,15.137,0
1488801567.177,-15.137,-42.480,-35.156,-19.531,28.809,0
1488801567.181,-20.020,-51.758,-44.434,-21.973,42.480,0
1488801567.185,-24.414,-54.688,-61.035,-38.574,51.270,0
1488801567.189,-33.691,-63.477,-70.801,-47.363,53.223,0
1488801567.193,-42.480,-76.172,-83.984,-42.969,42.480,0
1488801567.197,-49.805,-83.496,-93.262,-44.922,42.969,0
1488801567.201,-55.176,-88.867,-91.309,-46.875,57.129,0
1488801567.205,-51.270,-82.520,-78.613,-33.691,38.086,0
1488801567.209,-60.059,-84.473,-67.871,-32.227,25.879,0
1488801567.213,-60.547,-90.820,-67.383,-32.227,31.738,0
1488801567.216,-51.270,-88.867,-64.941,-23.438,33.691,0
1488801567.220,-46.875,-86.914,-72.754,-25.879,20.020,0
1488801567.224,-48.340,-87.402,-84.473,-35.156,15.625,0
1488801567.228,-62.012,-96.680,-101.074,-49.805,21.484,0
1488801567.232,-61.035,-101.074,-116.699,-56.641,18.555,0
1488801567.236,-52.246,-103.516,-117.188,-72.754,8.301,0
1488801567.240,-69.336,-114.746,-129.883,-97.168,9.277,0
1488801567.244,-85.938,-117.188,-140.137,-101.074,32.227,0
1488801567.248,-96.680,-115.723,-135.254,-109.863,26.855,0
1488801567.252,-104.004,-118.164,-145.020,-117.188,22.949,0
1488801567.255,-116.699,-122.559,-154.785,-128.906,42.480,0
1488801567.259,-136.230,-121.094,-152.344,-143.555,44.434,3
1488801567.263,-154.297,-128.906,-161.621,-164.551,57.129,0
1488801567.267,-159.180,-140.137,-180.664,-184.570,35.645,0
1488801567.271,-153.809,-135.254,-185.547,-181.641,7.324,0
1488801567.275,-145.020,-124.023,-175.293,-165.039,6.836,0
1488801567.279,-136.230,-123.047,-165.527,-151.855,-2.441,0
1488801567.283,-138.672,-135.742,-174.805,-163.086,5.371,0
1488801567.287,-145.020,-147.461,-188.477,-181.641,20.508,0
1488801567.291,-147.949,-144.043,-179.199,-170.410,14.160,0
1488801567.295,-147.461,-142.090,-171.875,-152.344,0.488,0
1488801567.298,-135.742,-144.043,-173.340,-145.020,13.672,0
1488801567.302,-118.164,-131.836,-159.180,-129.395,30.273,0
1488801567.306,-117.188,-113.770,-139.160,-107.422,50.781,0
1488801567.310,-119.629,-117.676,-145.996,-110.352,26.367,0
1488801567.314,-116.699,-131.836,-154.297,-122.559,7.324,0
1488801567.318,-111.816,-132.324,-158.691,-117.188,31.738,0
1488801567.322,-103.027,-129.395,-156.250,-105.469,14.648,0
1488801567.326,-108.887,-128.418,-138.672,-104.004,-29.297,0
1488801567.330,-125.000,-143.066,-147.949,-130.371,-13.184,0
1488801567.334,-125.488,-144.531,-151.855,-132.812,30.762,0
1488801567.338,-109.863,-134.766,-145.020,-111.328,15.625,0
1488801567.341,-104.492,-134.277,-156.738,-104.980,1.465,0
1488801567.345,-104.980,-129.883,-161.133,-102.539,31.250,0
1488801567.349,-89.844,-128.418,-147.461,-103.027,42.969,0
1488801567.353,-73.730,-120.605,-133.789,-95.215,19.531,0
1488801567.357,-67.871,-115.723,-131.836,-85.938,10.254,0
1488801567.361,-64.453,-116.211,-128.418,-82.520,44.922,0
1488801567.365,-47.852,-105.957,-107.422,-72.754,48.340,0
1488801567.369,-24.414,-92.773,-84.961,-54.688,-12.695,0
1488801567.373,-21.973,-90.332,-80.566,-50.293,-31.250,0
1488801567.377,-39.551,-100.098,-84.473,-53.223,21.973,0
1488801567.380,-44.922,-93.262,-82.031,-38.086,59.570,0
1488801567.384,-23.926,-79.102,-81.055,-27.344,35.645,0
1488801567.388,-12.695,-69.824,-66.406,-22.461,-9.766,0
1488801567.392,-22.949,-70.312,-62.988,-20.996,18.066,0
1488801567.396,-18.066,-64.941,-50.293,-5.859,34.668,0
1488801567.400,-1.953,-56.641,-19.043,6.836,16.113,0
1488801567.404,4.395,-51.270,-12.207,4.883,16.113,0
1488801567.408,-1.953,-39.551,-14.648,10.742,4.883,0
1488801567.412,-1.465,-34.668,-4.883,24.414,14.160,0
1488801567.416,10.254,-36.621,-0.977,24.414,3.906,0
1488801567.420,10.742,-38.086,-12.695,20.020,-5.859,0
1488801567.423,2.930,-34.180,-13.184,28.320,42.480,0
1488801567.427,11.719,-20.020,-2.441,42.480,30.762,0
1488801567.431,22.461,-13.672,-6.348,36.133,-28.320,0
1488801567.435,20.996,-33.691,-14.160,12.207,-11.230,0
1488801567.439,27.832,-32.715,-3.906,12.207,9.766,0
1488801567.443,28.809,-11.719,12.695,21.484,-13.184,0
1488801567.447,25.391,-5.859,10.742,26.367,-13.184,0
1488801567.451,27.344,-10.254,-1.953,28.809,34.668,0
1488801567.455,41.504,-2.441,2.930,29.785,44.922,0
1488801567.459,49.316,1.953,-0.488,28.320,42.480,0
1488801567.463,49.316,9.277,-5.859,39.062,23.438,0
1488801567.466,55.664,18.555,-0.488,51.758,5.859,0
1488801567.470,67.383,18.066,4.395,53.223,8.301,0
1488801567.474,72.266,24.902,5.371,53.223,-20.996,0
1488801567.478,56.641,19.531,-8.789,45.898,-20.996,0
1488801567.482,43.457,2.441,-11.230,28.320,22.949,0
1488801567.486,41.992,-1.465,2.930,25.391,41.992,0
1488801567.490,38.574,10.742,6.348,34.180,14.648,0
1488801567.494,42.969,16.602,5.859,30.762,3.906,0
1488801567.498,56.152,20.996,1.953,25.879,33.203,0
1488801567.502,65.430,23.438,4.395,30.273,33.691,0
1488801567.505,53.223,17.090,10.742,31.250,16.602,0
1488801567.509,35.645,11.230,3.906,18.555,6.348,0
1488801567.513,31.738,7.812,-8.789,-5.859,21.484,0
1488801567.517,35.156,11.719,0.488,-6.348,27.832,0
1488801567.521,28.320,11.719,7.812,6.348,-32.715,0
1488801567.525,8.301,1.465,-14.160,-0.977,-17.090,0
1488801567.529,14.648,0.000,-23.926,0.000,52.734,0
1488801567.533,40.527,15.625,-2.441,11.719,8.789,0
1488801567.537,38.086,17.578,3.418,13.184,-6.836,0
1488801567.541,18.066,7.324,-5.371,7.324,28.809,0
1488801567.545,14.648,4.395,-0.488,6.348,39.062,0
1488801567.548,20.508,6.348,2.441,13.672,16.113,0
1488801567.552,26.367,14.160,3.906,10.742,-40.527,0
1488801567.556,17.090,11.719,1.953,3.906,-23.926,0
1488801567.560,5.859,6.348,-5.371,3.906,19.043,0
1488801567.564,15.625,17.578,11.230,17.090,-3.906,0
1488801567.568,18.066,13.184,12.695,26.855,2.930,0
1488801567.572,15.137,-2.930,-20.020,18.066,16.602,0
1488801567.576,14.160,0.488,-28.809,12.695,-9.277,0
1488801567.580,-1.953,-2.441,-18.555,6.348,10.742,0
1488801567.584,-0.488,-10.742,-6.836,1.465,29.785,0
1488801567.588,11.230,-14.160,0.488,3.418,28.320,0
1488801567.591,17.090,-1.953,1.953,22.949,8.789,0
1488801567.595,23.438,3.906,7.324,31.250,-8.301,0
1488801567.599,28.809,4.883,4.395,27.344,13.672,0
1488801567.603,25.879,2.930,0.000,32.715,1.465,0
1488801567.607,16.602,1.465,3.418,41.016,-34.668,0
1488801567.611,12.695,1.953,-11.719,34.668,-22.461,0
1488801567.615,9.766,-4.883,-22.949,16.602,9.277,0
1488801567.619,11.230,-6.348,-6.836,15.625,28.809,0
1488801567.623,15.137,-0.977,8.789,26.855,24.902,0
1488801567.627,15.137,9.277,11.230,25.879,11.719,0
1488801567.630,12.207,9.766,2.441,7.812,6.836,0
1488801567.634,15.625,3.906,-5.371,-1.953,12.207,0
1488801567.638,4.395,0.000,-12.695,-5.371,31.250,0
1488801567.642,-16.113,3.418,-12.695,-6.348,10.742,0
1488801567.646,-23.438,4.395,-22.949,-14.160,-3.418,0
1488801567.650,-17.090,5.371,-40.039,-21.484,0.488,0
1488801567.654,-8.789,12.207,-30.273,-13.184,-17.090,0
1488801567.658,-13.184,7.324,-25.879,-21.484,-20.020,0
1488801567.662,-16.602,2.930,-33.203,-42.480,20.996,0
1488801567.666,-12.207,7.324,-31.738,-42.969,11.230,0
1488801567.670,3.906,19.043,-19.043,-19.043,-36.133,0
1488801567.673,6.836,14.160,-16.602,-11.719,-10.254,0
1488801567.677,-0.977,-0.488,-23.926,-21.484,53.223,0
1488801567.681,13.672,11.230,-19.531,-26.367,30.273,0
1488801567.685,16.602,16.602,-23.926,-27.344,13.184,0
1488801567.689,11.719,11.719,-28.320,-9.766,11.719,0
1488801567.693,21.484,18.555,-21.484,1.465,17.090,0
1488801567.697,23.438,19.043,-13.184,-3.906,21.973,0
1488801567.701,16.602,13.672,-12.207,-5.859,-7.812,0
1488801567.705,7.812,8.301,-19.043,0.488,-13.184,0
1488801567.709,1.953,8.301,-18.555,12.207,48.340,0
1488801567.713,8.301,13.672,-14.160,8.789,56.641,0
1488801567.716,22.949,15.137,2.441,12.207,23.926,0
1488801567.720,33.691,15.625,11.719,20.020,30.762,0
1488801567.724,40.527,26.367,1.465,24.414,33.203,0
1488801567.728,33.691,25.879,-20.020,25.879,10.742,0
1488801567.732,30.762,20.508,-16.602,22.949,20.996,0
1488801567.736,35.156,18.555,-3.418,30.273,24.902,0
1488801567.740,27.832,16.602,3.906,37.109,-8.301,0
1488801567.744,35.645,20.020,26.855,41.992,-16.602,0
1488801567.748,46.875,20.996,20.996,49.805,4.883,0
1488801567.752,31.738,16.113,-1.465,41.016,21.484,0
1488801567.755,19.531,19.043,6.348,36.621,28.809,0
1488801567.759,23.926,23.926,13.184,47.363,18.066,0
1488801567.763,22.461,23.926,-0.977,48.340,4.883,4
1488801567.767,26.855,28.320,0.977,51.270,14.648,0
1488801567.771,42.480,39.062,17.090,62.500,11.719,0
1488801567.775,48.340,42.969,14.648,57.129,6.836,0
1488801567.779,45.898,36.621,-9.766,44.922,17.578,0
1488801567.783,47.852,37.598,-8.301,57.617,35.645,0
1488801567.787,48.828,45.898,17.578,74.219,10.254,0
1488801567.791,46.387,47.852,15.625,75.684,-21.484,0
1488801567.795,41.016,39.062,5.859,71.289,-20.020,0
1488801567.798,57.617,39.551,18.555,75.195,8.301,0
1488801567.802,74.707,44.922,17.578,81.543,20.020,0
1488801567.806,64.453,44.434,18.555,90.820,15.137,0
1488801567.810,62.500,46.387,27.344,96.191,18.066,0
1488801567.814,69.336,46.875,33.203,95.215,29.785,0
1488801567.818,89.355,51.270,44.922,104.004,11.719,0
1488801567.822,103.516,60.059,51.758,113.770,-10.742,0
1488801567.826,98.145,62.012,53.711,115.723,7.324,0
1488801567.830,100.098,62.500,55.176,117.188,13.672,0
1488801567.834,108.398,69.336,49.805,126.465,28.809,0
1488801567.838,104.004,66.895,40.527,127.441,21.973,0
1488801567.841,89.844,52.734,45.410,114.746,34.180,0
1488801567.845,86.426,48.828,65.430,112.305,37.109,0
1488801567.849,91.309,46.875,58.594,106.934,26.367,0
1488801567.853,101.562,47.852,44.922,100.586,15.625,0
1488801567.857,102.539,53.711,47.852,99.609,11.719,0
1488801567.861,89.844,58.594,47.363,92.773,27.832,0
1488801567.865,87.402,62.012,40.039,83.984,13.184,0
1488801567.869,88.867,62.012,37.109,73.242,19.043,0
1488801567.873,76.660,55.664,44.434,61.523,23.438,0
1488801567.877,59.082,53.223,50.293,59.570,4.395,0
1488801567.880,43.945,51.270,40.527,51.758,1.465,0
1488801567.884,36.621,40.527,14.648,35.645,7.812,0
1488801567.888,29.785,45.898,14.648,43.945,-4.883,0
1488801567.892,32.715,72.266,58.105,69.824,-23.438,0
1488801567.896,48.340,91.309,83.984,75.684,-21.973,0
1488801567.900,57.617,95.215,88.379,68.359,-0.488,0
1488801567.904,73.730,110.352,103.516,87.891,16.113,0
1488801567.908,80.078,127.930,123.047,111.328,-5.371,0
1488801567.912,68.359,125.977,115.723,101.562,-17.090,0
1488801567.916,62.012,115.723,97.168,81.055,-4.883,0
1488801567.920,74.707,121.094,107.910,84.473,16.602,0
1488801567.923,77.637,127.930,121.094,103.516,23.926,0
1488801567.927,77.637,131.836,120.605,121.094,8.789,0
1488801567.931,72.266,121.094,122.070,122.070,27.344,0
1488801567.935,71.289,105.469,123.535,125.000,32.715,0
1488801567.939,87.891,115.234,122.559,149.414,8.301,0
1488801567.943,82.520,115.723,123.047,151.367,-4.883,0
1488801567.947,78.613,99.609,124.023,130.371,39.551,0
1488801567.951,98.145,102.539,124.023,137.695,55.664,0
1488801567.955,107.910,110.352,128.906,158.203,-3.906,0
1488801567.959,97.656,105.957,135.742,158.691,0.488,0
1488801567.963,88.379,96.191,132.812,146.484,70.312,0
1488801567.966,96.680,97.168,129.395,144.043,71.289,0
1488801567.970,105.957,100.586,134.766,141.602,45.410,0
1488801567.974,97.168,99.121,143.066,142.578,38.574,0
1488801567.978,90.820,96.191,138.672,141.602,26.855,0
1488801567.982,107.910,99.609,127.930,140.137,22.461,0
1488801567.986,127.930,104.492,126.465,150.879,-1.953,0
1488801567.990,117.676,89.844,111.816,153.809,5.371,0
1488801567.994,93.262,79.590,104.004,146.973,48.340,0
1488801567.998,88.379,80.566,113.770,136.230,38.086,0
1488801568.002,80.078,75.195,106.445,124.023,14.160,0
1488801568.005,63.477,59.570,94.238,113.281,30.762,0
1488801568.009,65.918,47.852,90.332,105.469,27.344,0
1488801568.013,75.195,51.270,86.426,100.098,7.812,0
1488801568.017,64.453,42.969,66.895,90.820,-3.418,0
1488801568.021,45.898,29.785,54.688,80.566,-3.906,0
1488801568.025,39.551,24.902,53.711,80.566,11.719,0
1488801568.029,47.363,26.855,51.758,87.891,7.812,0
1488801568.033,50.293,15.137,38.574,76.172,-12.695,0
1488801568.037,37.598,-2.930,25.391,61.523,26.855,0
1488801568.041,32.227,0.000,28.809,58.105,23.438,0
1488801568.045,22.461,-6.348,16.602,41.016,-30.762,0
1488801568.048,8.301,-23.926,2.930,21.973,-4.395,0
1488801568.052,8.789,-27.344,0.488,21.973,46.875,0
1488801568.056,11.719,-14.648,3.906,33.691,23.926,0
1488801568.060,5.859,-7.812,19.043,38.086,5.371,0
1488801568.064,9.277,-13.184,14.648,22.461,35.645,0
1488801568.068,24.902,-10.742,0.977,20.020,3.418,0
1488801568.072,27.344,0.488,2.441,33.691,-20.020,0
1488801568.076,17.090,4.883,8.301,38.574,-11.230,0
1488801568.080,0.000,-14.648,-0.977,25.391,-5.371,0
1488801568.084,-8.789,-23.438,-11.719,6.348,36.133,0
1488801568.088,-8.301,-20.508,-10.254,3.418,24.902,0
1488801568.091,-12.207,-21.484,-15.625,3.906,12.207,0
1488801568.095,-21.973,-20.020,-28.809,-1.465,29.785,0
1488801568.099,-21.973,-23.926,-51.270,-14.160,38.086,0
1488801568.103,-23.926,-36.621,-71.777,-28.809,20.996,0
1488801568.107,-36.133,-43.945,-74.219,-36.621,30.762,0
1488801568.111,-45.410,-43.945,-73.730,-45.410,65.430,0
1488801568.115,-36.621,-33.691,-66.895,-39.551,47.852,0
1488801568.119,-22.461,-20.020,-56.152,-23.926,-1.465,0
1488801568.123,-28.320,-27.832,-59.082,-35.645,7.324,0
1488801568.127,-32.715,-43.457,-73.242,-55.664,47.363,0
1488801568.130,-26.367,-35.156,-80.566,-48.828,49.316,0
1488801568.134,-37.598,-34.180,-96.191,-48.828,21.484,0
1488801568.138,-67.383,-49.316,-106.445,-68.848,15.137,0
1488801568.142,-89.844,-61.035,-100.098,-83.008,22.949,0
1488801568.146,-78.613,-58.594,-91.797,-79.102,41.992,0
1488801568.150,-53.223,-53.223,-83.008,-73.730,22.949,0
1488801568.154,-53.711,-62.500,-95.703,-77.148,5.859,0
1488801568.158,-49.805,-61.035,-99.609,-63.477,24.902,0
1488801568.162,-41.016,-49.805,-87.891,-47.852,-6.836,0
1488801568.166,-36.133,-48.828,-86.914,-48.340,-0.977,0
1488801568.170,-28.809,-46.875,-90.820,-47.852,0.488,0
1488801568.173,-28.809,-50.293,-91.797,-42.969,-8.301,0
1488801568.177,-35.156,-54.199,-76.660,-42.480,18.555,0
1488801568.181,-34.180,-45.898,-59.082,-43.945,21.484,0
1488801568.185,-29.785,-46.387,-61.523,-43.945,32.227,0
1488801568.189,-24.414,-44.434,-59.570,-33.203,25.879,0
1488801568.193,-20.020,-39.551,-46.875,-14.648,-9.766,0
1488801568.197,-11.719,-34.668,-40.527,-9.277,-0.488,0
1488801568.201,0.977,-38.086,-42.969,-5.859,19.043,0
1488801568.205,9.277,-34.180,-40.527,4.883,14.160,0
1488801568.209,13.184,-17.090,-29.297,11.719,-8.301,0
1488801568.213,11.719,-18.555,-32.715,16.113,-11.719,0
1488801568.216,0.000,-36.621,-48.340,11.230,10.254,0
1488801568.220,-10.254,-44.434,-43.457,3.906,14.160,0
1488801568.224,-0.488,-35.156,-29.297,0.488,-7.812,0
1488801568.228,-0.488,-35.645,-23.926,-7.324,20.508,0
1488801568.232,-5.859,-40.527,-14.648,-0.488,57.129,0
1488801568.236,9.277,-27.344,-9.277,16.602,-1.465,0
1488801568.240,11.230,-25.879,-23.438,22.949,-33.691,0
1488801568.244,8.789,-25.391,-38.574,29.785,-22.949,0
1488801568.248,17.090,-22.461,-31.738,26.367,11.719,0
1488801568.252,32.227,-20.996,-10.254,34.668,39.062,0
1488801568.255,41.016,-10.254,6.348,49.316,25.879,0
1488801568.259,20.020,-9.277,2.930,40.039,37.109,0
1488801568.263,10.742,-12.207,-4.883,32.715,50.781,5
1488801568.267,29.785,-4.395,6.348,39.551,27.344,0
1488801568.271,30.762,-0.488,0.488,41.504,17.090,0
1488801568.275,15.137,-9.277,-21.484,34.668,15.137,0
1488801568.279,23.438,-11.230,-29.297,32.715,4.883,0
1488801568.283,38.574,-3.906,-20.508,39.062,20.996,0
1488801568.287,40.039,-4.395,0.488,44.922,48.340,0
1488801568.291,30.762,-4.883,11.230,45.410,45.898,0
1488801568.295,44.922,9.277,17.090,48.340,18.066,0
1488801568.298,63.477,24.902,25.391,58.105,11.719,0
1488801568.302,69.336,30.762,28.320,66.406,41.992,0
1488801568.306,76.172,33.691,24.902,71.289,27.832,0
1488801568.310,78.613,40.039,31.250,73.242,6.348,0
1488801568.314,79.102,49.805,44.922,76.660,-12.695,0
1488801568.318,67.871,50.781,34.180,73.242,-16.602,0
1488801568.322,59.082,47.363,16.113,59.082,33.203,0
1488801568.326,62.500,54.199,26.367,57.129,19.531,0
1488801568.330,47.363,45.410,26.367,42.969,6.836,0
1488801568.334,42.480,38.574,19.531,30.273,11.230,0
1488801568.338,62.500,45.410,21.973,37.598,24.902,0
1488801568.341,76.660,55.176,30.762,51.270,29.785,0
1488801568.345,62.988,53.223,38.574,55.664,18.555,0
1488801568.349,62.988,49.316,29.785,49.316,21.973,0
1488801568.353,77.637,50.781,19.531,49.316,27.832,0
1488801568.357,72.266,51.270,24.902,50.293,13.184,0
1488801568.361,66.895,52.734,24.414,45.410,-3.906,0
1488801568.365,58.594,43.457,14.648,33.691,28.809,0
1488801568.369,56.641,46.387,12.207,34.180,43.457,0
1488801568.373,68.359,62.500,20.996,38.086,28.809,0
1488801568.377,74.707,74.707,22.461,40.527,10.254,0
1488801568.380,78.125,80.566,18.066,54.199,22.949,0
1488801568.384,93.750,86.914,28.320,68.359,61.035,0
1488801568.388,107.422,96.680,44.922,70.312,31.738,0
1488801568.392,96.191,88.867,37.109,66.406,-10.742,0
1488801568.396,82.031,75.684,35.156,68.848,29.785,0
1488801568.400,92.773,80.078,58.594,77.637,44.434,0
1488801568.404,103.516,79.102,60.547,75.195,6.836,0
1488801568.408,103.516,75.195,44.922,73.242,-1.953,0
1488801568.412,107.910,79.102,48.828,84.961,9.766,0
1488801568.416,109.375,82.520,61.523,102.051,20.996,0
1488801568.420,125.488,104.980,83.008,117.188,-17.578,0
1488801568.423,127.441,111.328,89.355,118.652,-7.812,0
1488801568.427,124.512,104.980,87.891,119.141,41.992,0
1488801568.431,143.066,116.699,99.121,127.930,21.484,0
1488801568.435,148.438,120.117,108.887,139.160,21.484,0
1488801568.439,141.113,121.582,122.559,152.344,31.738,0
1488801568.443,134.277,125.000,125.977,157.227,41.992,0
1488801568.447,140.625,122.559,126.465,159.668,32.227,0
1488801568.451,145.996,119.141,123.535,156.250,12.695,0
1488801568.455,132.324,112.305,112.793,140.625,36.621,0
1488801568.459,129.395,107.910,112.305,146.484,36.621,0
1488801568.463,129.883,113.770,123.047,152.832,22.461,0
1488801568.466,116.211,112.305,113.281,142.578,37.109,0
1488801568.470,105.957,104.492,99.609,140.137,36.133,0
1488801568.474,114.258,118.164,113.770,147.949,0.000,0
1488801568.478,115.723,122.070,125.488,144.043,-19.043,0
1488801568.482,102.539,108.398,114.746,134.277,1.465,0
1488801568.486,108.887,111.816,114.746,138.672,44.434,0
1488801568.490,129.395,128.906,134.277,146.973,41.016,0
1488801568.494,125.488,132.812,146.484,149.902,10.742,0
1488801568.498,124.023,130.859,137.695,155.273,5.371,0
1488801568.502,131.348,131.836,113.281,154.785,29.297,0
1488801568.505,141.113,140.625,119.141,153.809,48.340,0
1488801568.509,145.996,141.602,142.090,149.902,35.645,0
1488801568.513,143.555,140.137,141.602,147.949,5.859,0
1488801568.517,152.832,137.695,127.441,145.020,16.113,0
1488801568.521,145.996,128.418,118.652,139.160,38.086,0
1488801568.525,127.930,127.930,116.211,143.066,16.113,0
1488801568.529,125.488,120.605,112.305,136.230,6.348,0
1488801568.533,141.602,115.723,127.441,124.023,33.691,0
1488801568.537,154.785,126.465,135.742,127.441,25.879,0
1488801568.541,145.020,133.789,120.605,137.695,-2.930,0
1488801568.545,131.348,126.465,113.281,127.930,-1.465,0
1488801568.548,129.883,113.281,112.305,117.188,20.020,0
1488801568.552,138.672,123.535,119.629,131.836,-9.766,0
1488801568.556,138.672,124.023,113.281,131.836,-27.344,0
1488801568.560,127.441,108.887,97.168,115.234,-2.930,0
1488801568.564,131.348,114.258,104.492,117.676,15.625,0
1488801568.568,141.113,118.652,114.258,119.141,11.230,0
1488801568.572,143.555,113.770,101.074,115.723,17.090,0
1488801568.576,137.207,104.004,81.055,111.328,33.203,0
1488801568.580,126.465,98.633,77.637,106.445,20.508,0
1488801568.584,119.141,99.609,77.637,108.887,25.879,0
1488801568.588,107.422,93.750,79.102,100.098,19.043,0
1488801568.591,95.703,87.402,86.426,87.891,0.488,0
1488801568.595,93.262,81.055,87.402,83.984,26.367,0
1488801568.599,100.098,92.773,84.473,84.473,-8.301,0
1488801568.603,89.355,89.844,67.871,75.195,-22.461,0
1488801568.607,71.777,75.195,62.012,69.336,3.906,0
1488801568.611,63.477,74.707,72.754,83.008,10.742,0
1488801568.615,64.453,74.707,66.895,64.941,26.367,0
1488801568.619,66.895,73.730,52.246,38.574,35.645,0
1488801568.623,76.660,73.242,64.453,51.758,51.758,0
1488801568.627,90.820,79.590,80.078,63.965,34.180,0
1488801568.630,87.891,84.961,83.984,63.965,14.648,0
1488801568.634,82.520,89.355,83.984,66.895,27.344,0
1488801568.638,83.984,91.309,81.543,77.148,36.133,0
1488801568.642,75.684,94.727,84.473,84.473,5.859,0
1488801568.646,80.078,109.375,89.355,82.031,-24.902,0
1488801568.650,91.309,103.027,80.078,71.777,7.812,0
1488801568.654,93.262,98.633,67.383,68.359,22.949,0
1488801568.658,84.961,111.328,75.684,81.543,17.090,0
1488801568.662,87.891,113.770,89.355,90.332,1.465,0
1488801568.666,90.332,105.469,85.449,74.707,20.020,0
1488801568.670,89.355,107.422,83.496,76.660,41.504,0
1488801568.673,96.191,113.281,88.867,85.449,19.531,0
1488801568.677,103.027,121.094,98.633,82.031,39.062,0
1488801568.681,97.168,125.000,95.215,87.891,52.734,0
1488801568.685,96.680,121.582,79.102,87.402,27.344,0
1488801568.689,97.168,117.188,69.336,91.797,18.066,0
1488801568.693,85.938,113.770,62.012,93.750,31.250,0
1488801568.697,75.195,109.375,59.082,79.590,41.992,0
1488801568.701,81.055,111.328,81.543,76.172,44.434,0
1488801568.705,95.215,122.559,106.934,91.309,3.418,0
1488801568.709,81.055,110.352,96.680,90.820,-18.066,0
1488801568.713,71.777,88.867,78.125,80.078,24.902,0
1488801568.716,90.332,95.215,78.125,90.820,25.391,0
1488801568.720,114.258,106.934,82.520,108.398,3.418,0
1488801568.724,118.652,102.539,99.121,114.746,19.043,0
1488801568.728,109.375,95.703,104.004,110.352,33.691,0
1488801568.732,119.629,101.074,98.633,114.746,9.277,0
1488801568.736,112.305,93.750,100.586,122.070,10.254,0
1488801568.740,86.914,75.684,98.633,111.328,37.109,0
1488801568.744,88.379,83.008,93.750,112.793,32.715,0
1488801568.748,99.609,96.191,88.867,121.094,27.832,0
1488801568.752,101.074,93.750,89.355,118.164,33.691,0
1488801568.755,103.027,92.285,92.773,112.305,27.832,0
1488801568.759,101.562,93.750,98.145,108.887,37.598,0
1488801568.763,105.469,94.727,96.191,116.211,57.617,0
1488801568.767,118.652,96.680,94.727,121.582,33.203,0
1488801568.771,118.652,94.238,94.727,122.070,2.441,0
1488801568.775,122.559,93.750,94.238,127.930,11.719,0
1488801568.779,128.418,94.238,94.727,129.395,11.719,0
1488801568.783,127.441,89.355,88.867,119.629,30.762,0
1488801568.787,123.047,85.449,84.961,121.094,47.363,0
1488801568.791,117.676,101.562,94.727,134.277,39.062,0
1488801568.795,111.816,112.793,89.355,139.648,40.527,0
1488801568.798,120.117,113.281,82.520,134.277,39.551,0
1488801568.802,126.953,113.770,79.590,122.070,53.711,0
1488801568.806,123.047,123.535,76.660,126.953,76.172,0
1488801568.810,116.699,128.418,86.914,121.094,40.527,0
1488801568.814,108.398,120.117,80.078,100.098,35.645,0
1488801568.818,116.211,122.070,65.918,99.121,40.527,0
1488801568.822,122.070,126.465,74.219,103.027,24.902,0
1488801568.826,118.164,129.395,79.590,96.191,0.000,0
1488801568.830,103.516,117.676,52.246,72.266,11.719,0
1488801568.834,98.633,106.445,43.457,61.035,75.684,0
1488801568.838,106.934,123.535,62.500,89.844,72.266,0
1488801568.841,98.145,132.812,71.777,101.562,45.898,0
1488801568.845,83.984,113.281,64.453,83.008,60.059,0
1488801568.849,81.055,104.492,57.129,88.867,67.383,0
1488801568.853,90.820,104.980,53.711,97.168,54.199,0
1488801568.857,96.680,97.168,57.129,93.262,33.691,0
1488801568.861,85.449,82.520,63.477,95.703,51.758,0
1488801568.865,85.449,74.707,68.848,100.586,62.500,0
1488801568.869,94.727,72.266,71.777,99.121,25.879,0
1488801568.873,90.332,64.453,67.383,94.238,14.648,0
1488801568.877,74.707,43.945,56.641,78.125,60.547,0
1488801568.880,87.891,37.109,60.547,80.078,63.477,0
1488801568.884,104.980,40.039,69.824,90.332,38.086,0
1488801568.888,108.887,41.016,73.730,97.656,42.969,0
1488801568.892,98.633,41.016,64.453,104.980,48.340,0
1488801568.896,89.355,41.504,54.688,107.422,36.621,0
1488801568.900,99.609,39.551,47.852,99.609,38.086,0
1488801568.904,93.262,26.855,44.922,82.520,52.246,0
1488801568.908,79.590,27.344,51.270,87.891,50.293,0
1488801568.912,77.637,33.691,66.406,104.980,47.363,0
1488801568.916,75.684,32.227,81.055,111.328,31.738,0
1488801568.920,58.594,20.020,66.895,92.285,28.809,0
1488801568.923,53.711,17.578,48.340,72.266,32.227,0
1488801568.927,67.871,31.250,35.645,81.543,20.508,0
1488801568.931,69.824,40.039,21.484,88.379,21.973,0
1488801568.935,57.617,34.180,8.301,84.961,48.340,0
1488801568.939,41.992,24.902,-8.789,68.848,54.688,0
1488801568.943,29.785,21.973,-13.184,46.387,45.410,0
1488801568.947,18.555,13.672,-10.742,31.738,46.875,0
1488801568.951,7.324,6.348,-7.324,25.391,55.176,0
1488801568.955,-0.488,10.742,-14.160,27.832,39.551,0
1488801568.959,-13.672,11.230,-20.996,25.879,15.137,0
1488801568.963,-23.438,-10.742,-19.531,8.301,47.852,0
1488801568.966,-24.902,-26.367,-32.227,-2.930,79.102,0
1488801568.970,-20.996,-19.531,-37.598,0.000,56.152,0
1488801568.974,-30.762,-22.461,-43.945,-6.348,33.203,0
1488801568.978,-38.574,-32.715,-51.758,-20.996,27.344,0
1488801568.982,-40.039,-45.410,-46.875,-38.086,25.879,0
1488801568.986,-33.203,-48.828,-43.457,-45.410,-2.441,0
1488801568.990,-28.809,-43.945,-47.363,-39.062,-15.625,0
1488801568.994,-35.645,-54.199,-57.129,-42.480,6.836,0
1488801568.998,-39.062,-62.988,-68.848,-52.246,30.762,0
1488801569.002,-30.273,-55.664,-67.383,-48.340,22.461,0
1488801569.005,-28.320,-50.293,-51.758,-36.133,-1.465,0
1488801569.009,-40.039,-56.152,-54.199,-38.574,-3.906,0
1488801569.013,-42.480,-57.129,-61.035,-42.480,6.348,0
1488801569.017,-30.762,-48.828,-49.805,-30.762,31.250,0
1488801569.021,-33.203,-53.223,-46.387,-31.738,46.875,0
1488801569.025,-45.410,-62.012,-52.246,-42.480,16.602,0
1488801569.029,-36.133,-55.176,-38.574,-40.527,-10.254,0
1488801569.033,-20.508,-50.781,-19.043,-33.203,25.391,0
1488801569.037,-13.184,-48.828,-17.578,-23.438,60.547,0
1488801569.041,-7.324,-45.410,-27.344,-26.855,68.848,0
1488801569.045,2.930,-42.480,-17.090,-19.531,39.062,0
1488801569.048,2.441,-39.062,-13.672,-8.789,32.227,0
1488801569.052,-0.977,-41.016,-30.273,-12.695,35.645,0
1488801569.056,-8.301,-43.457,-25.391,-6.836,13.672,0
1488801569.060,-29.785,-50.781,-19.043,-13.672,30.273,0
1488801569.064,-34.668,-48.828,-12.695,-14.648,24.902,0
1488801569.068,-21.484,-44.434,-2.930,-7.812,-1.465,0
1488801569.072,-19.531,-50.781,-13.672,-16.113,13.672,0
1488801569.076,-9.766,-42.480,-21.973,-5.371,30.762,0
1488801569.080,2.441,-34.180,-24.902,3.418,32.227,0
1488801569.084,6.836,-33.203,-28.320,-0.488,45.898,0
1488801569.088,10.742,-31.250,-23.438,5.859,30.762,0
1488801569.091,6.836,-26.855,-18.555,14.160,1.953,0
1488801569.095,8.301,-24.414,-22.949,15.137,9.277,0
1488801569.099,17.090,-32.227,-19.043,10.254,17.090,0
1488801569.103,31.738,-32.715,-18.555,10.254,11.719,0
1488801569.107,35.645,-17.090,-17.578,21.973,-4.395,0
1488801569.111,22.461,-7.812,-8.789,27.832,-12.207,0
1488801569.115,17.090,-14.160,-21.973,15.137,21.484,0
1488801569.119,26.855,-14.160,-17.578,10.254,29.297,0
1488801569.123,33.691,-8.301,-7.812,24.902,14.160,0
1488801569.127,22.949,-7.324,-18.555,37.598,6.348,0
1488801569.130,3.906,-12.695,-20.020,29.297,27.344,0
1488801569.134,7.324,-14.160,-11.230,28.320,45.898,0
1488801569.138,25.391,-12.695,-10.742,29.297,36.621,0
1488801569.142,32.715,-7.324,-1.953,36.621,22.949,0
1488801569.146,27.832,-1.465,10.742,51.270,6.836,0
1488801569.150,16.602,-12.207,3.418,44.434,45.410,0
1488801569.154,23.438,-12.695,-1.465,51.758,44.922,0
1488801569.158,19.043,-13.672,-20.508,61.035,-12.207,0
1488801569.162,0.488,-27.832,-34.180,46.875,27.832,0
1488801569.166,15.137,-18.066,-9.277,52.734,41.016,0
1488801569.170,35.156,-9.277,7.812,65.918,35.156,0
1488801569.173,39.551,-9.766,13.672,67.871,51.270,0
1488801569.177,41.504,-3.418,14.648,71.777,19.531,0
1488801569.181,43.945,-1.953,15.625,77.637,5.371,0
1488801569.185,48.340,-5.859,6.348,75.684,9.277,0
1488801569.189,42.969,-1.953,-1.465,60.547,21.484,0
1488801569.193,26.855,4.883,7.324,50.781,26.855,0
1488801569.197,8.301,-5.859,8.789,40.527,24.414,0
1488801569.201,18.066,-3.418,16.113,45.898,6.348,0
1488801569.205,38.574,10.742,27.344,59.082,26.855,0
1488801569.209,45.410,27.832,38.086,73.730,41.504,0
1488801569.213,50.781,46.387,46.875,78.613,16.602,0
1488801569.216,54.688,50.293,49.316,63.477,24.902,0
1488801569.220,62.012,50.781,54.688,68.848,50.293,0
1488801569.224,77.637,62.012,67.383,80.566,32.715,0
1488801569.228,79.102,69.824,69.336,77.148,21.484,0
1488801569.232,75.195,75.195,75.684,73.242,32.715,0
1488801569.236,88.867,85.938,85.938,78.125,46.875,0
1488801569.240,97.656,94.238,80.078,85.449,23.438,0
1488801569.244,83.008,95.703,74.219,75.195,-3.906,0
1488801569.248,66.895,88.379,82.031,64.453,15.137,0
1488801569.252,62.988,79.590,87.891,64.453,35.645,0
1488801569.255,65.918,80.078,91.309,64.941,55.664,0
1488801569.259,75.684,96.680,106.934,73.242,14.648,0
1488801569.263,83.984,97.656,102.051,70.801,-18.555,0
1488801569.267,88.379,84.961,83.008,62.500,3.906,0
1488801569.271,94.238,87.402,84.961,71.289,52.734,0
1488801569.275,100.098,97.656,90.820,89.844,49.316,0
1488801569.279,99.609,101.074,92.285,98.633,18.555,0
1488801569.283,105.469,105.469,94.238,106.934,11.719,0
1488801569.287,125.000,120.117,115.234,117.676,-7.324,0
1488801569.291,120.605,122.070,127.441,109.863,4.395,0
1488801569.295,105.957,109.863,102.051,95.703,17.090,0
1488801569.298,104.980,103.027,80.566,84.473,29.785,0
1488801569.302,113.770,106.445,78.125,91.309,20.996,0
1488801569.306,116.699,112.305,84.961,104.980,3.418,0
1488801569.310,109.375,113.281,96.680,111.328,27.344,0
1488801569.314,118.652,115.723,104.004,124.023,37.109,0
1488801569.318,128.906,117.188,100.098,124.512,49.805,0
1488801569.322,139.648,116.699,90.332,128.906,48.340,0
1488801569.326,143.555,107.910,79.102,134.766,14.160,0
1488801569.330,140.625,104.492,80.566,134.277,29.785,0
1488801569.334,145.020,118.164,111.328,138.672,34.668,0
1488801569.338,141.113,116.699,112.793,127.441,16.602,0
1488801569.341,125.977,100.586,78.125,108.887,46.875,0
1488801569.345,130.371,96.191,72.754,107.422,63.965,0
1488801569.349,144.043,93.750,82.520,113.770,71.289,0
1488801569.353,151.855,93.750,83.496,119.141,61.035,0
1488801569.357,140.625,95.703,89.844,122.559,37.109,0
1488801569.361,123.047,90.332,99.121,126.465,64.453,0
1488801569.365,112.305,86.426,98.145,126.953,52.734,0
1488801569.369,104.004,80.078,77.148,117.188,31.738,0
1488801569.373,117.188,84.961,77.148,117.676,52.246,0
1488801569.377,134.277,100.098,90.820,128.418,33.203,0
1488801569.380,132.812,97.656,84.473,127.930,40.527,0
1488801569.384,125.488,91.309,83.496,124.023,42.969,0
1488801569.388,115.234,90.820,89.844,115.723,22.949,0
1488801569.392,111.816,93.262,104.980,114.746,27.832,0
1488801569.396,114.258,87.891,103.516,112.305,13.672,0
1488801569.400,106.445,73.242,78.613,98.633,41.016,0
1488801569.404,114.746,80.566,84.473,102.539,61.523,0
1488801569.408,112.305,93.750,102.051,107.422,21.484,0
1488801569.412,90.820,90.332,99.121,104.492,32.715,0
1488801569.416,83.984,78.613,89.355,96.191,41.992,0
1488801569.420,89.844,74.707,86.426,93.750,22.949,0
1488801569.423,98.633,83.984,86.914,104.980,28.320,0
1488801569.427,98.145,79.102,71.777,97.168,29.785,0
1488801569.431,102.051,68.359,59.082,83.008,39.551,0
1488801569.435,114.746,75.684,61.035,88.867,62.500,0
1488801569.439,116.699,93.262,85.938,102.051,24.902,0
1488801569.443,103.027,88.867,103.027,100.098,-21.484,0
1488801569.447,92.285,69.336,93.262,87.891,29.785,0
1488801569.451,102.051,74.219,88.867,90.332,43.945,0
1488801569.455,108.398,80.566,77.148,94.238,-3.906,0
1488801569.459,93.262,74.219,63.477,82.031,12.207,0
1488801569.463,82.031,76.660,68.359,75.684,22.461,0
1488801569.466,85.449,84.473,66.895,74.219,3.906,0
1488801569.470,86.914,83.496,64.941,76.172,4.395,0
1488801569.474,71.289,75.195,67.871,74.219,21.484,0
1488801569.478,61.523,68.359,54.199,61.035,34.180,0
1488801569.482,55.176,66.406,29.785,37.598,12.207,0
1488801569.486,36.621,64.941,23.926,20.508,-25.391,0
1488801569.490,28.320,63.477,34.180,20.020,11.230,0
1488801569.494,34.180,71.289,41.992,21.973,36.133,0
1488801569.498,44.434,77.148,47.363,29.297,-2.441,0
1488801569.502,50.293,72.754,45.410,36.621,5.859,0
1488801569.505,51.270,59.570,35.156,26.855,28.809,0
1488801569.509,57.129,61.523,29.785,25.391,28.320,0
1488801569.513,67.871,70.312,24.414,49.805,9.766,0
1488801569.517,72.754,70.801,24.902,55.664,14.160,0
1488801569.521,62.988,70.312,32.715,42.480,14.160,0
1488801569.525,56.641,69.336,30.273,47.363,-2.441,0
1488801569.529,58.594,69.336,26.855,55.176,3.906,0
1488801569.533,66.406,69.824,31.738,43.945,19.531,0
1488801569.537,68.848,64.941,29.785,42.480,22.949,0
1488801569.541,71.289,65.430,28.809,52.246,30.273,0
1488801569.545,83.496,72.754,41.016,59.570,27.832,0
1488801569.548,82.520,68.848,48.828,57.617,27.344,0
1488801569.552,73.730,65.430,48.828,52.734,53.711,0
1488801569.556,79.590,73.242,53.223,61.523,46.387,0
1488801569.560,78.125,69.824,59.082,62.500,17.090,0
1488801569.564,72.266,59.570,56.152,55.664,35.645,0
1488801569.568,83.496,66.406,56.641,67.383,43.457,0
1488801569.572,98.633,75.195,64.941,80.566,41.992,0
1488801569.576,97.656,73.242,59.570,88.867,-1.465,0
1488801569.580,78.613,56.641,44.434,84.961,25.391,0
1488801569.584,83.496,54.199,46.875,87.402,62.988,0
1488801569.588,102.539,58.594,55.664,100.586,22.949,0
1488801569.591,111.328,61.523,62.988,113.281,6.836,0
1488801569.595,104.492,63.965,67.871,116.211,23.438,0
1488801569.599,100.098,59.082,72.754,113.770,66.895,0
1488801569.603,117.188,58.594,78.613,116.211,32.227,0
1488801569.607,118.164,51.270,69.824,110.840,16.113,0
1488801569.611,98.633,42.480,60.059,104.980,27.344,0
1488801569.615,104.004,48.340,71.777,98.145,0.977,0
1488801569.619,112.793,59.082,78.125,104.492,-6.348,0
1488801569.623,99.609,56.641,65.918,106.445,-29.297,0
1488801569.627,90.332,47.852,62.500,92.773,-0.488,0
1488801569.630,97.656,51.758,66.406,95.703,37.598,0
1488801569.634,92.285,52.246,61.523,92.773,28.320,0
1488801569.638,79.102,50.293,50.781,78.613,5.371,0
1488801569.642,73.242,42.969,43.945,73.730,30.762,0
1488801569.646,69.336,33.691,39.551,67.383,44.922,0
1488801569.650,78.613,33.203,26.367,67.871,6.836,0
1488801569.654,79.590,27.344,24.902,78.613,7.324,0
1488801569.658,69.824,25.879,32.227,80.078,31.250,0
1488801569.662,62.988,36.133,23.438,75.195,39.062,0
1488801569.666,57.617,30.762,21.484,71.289,22.461,0
1488801569.670,50.781,10.254,22.949,56.152,24.902,0
1488801569.673,45.410,4.395,19.531,45.898,40.039,0
1488801569.677,47.852,20.996,33.691,58.105,26.855,0
1488801569.681,43.945,26.367,30.762,52.734,21.973,0
1488801569.685,40.039,16.113,6.836,38.574,51.270,0
1488801569.689,39.551,12.207,6.348,40.039,62.500,0
1488801569.693,43.457,19.043,10.742,46.387,53.711,0
1488801569.697,50.293,26.367,6.836,54.688,57.129,0
1488801569.701,57.129,26.855,12.207,51.758,56.152,0
1488801569.705,67.871,36.621,25.391,56.641,48.828,0
1488801569.709,84.961,52.246,46.875,70.312,30.273,0
1488801569.713,79.102,49.805,55.176,70.312,-0.488,0
1488801569.716,67.871,31.738,40.039,50.781,11.719,0
1488801569.720,71.289,28.320,24.902,41.992,43.457,0
1488801569.724,74.219,51.758,32.715,55.664,15.625,0
1488801569.728,59.570,47.363,21.484,49.316,0.000,0
1488801569.732,44.922,26.367,4.883,33.203,35.645,0
1488801569.736,57.129,39.551,20.020,37.109,51.270,0
1488801569.740,70.312,56.641,35.156,46.387,28.809,0
1488801569.744,59.570,46.875,18.066,39.062,26.855,0
1488801569.748,46.875,28.809,-3.418,27.832,74.219,0
1488801569.752,60.547,26.855,6.348,36.621,66.406,0
1488801569.755,59.570,27.832,14.160,32.227,29.785,0
1488801569.759,39.062,18.555,8.301,13.672,24.414,0
1488801569.763,31.738,6.836,-7.812,6.348,41.992,0
1488801569.767,28.809,8.789,-10.742,10.254,50.293,0
1488801569.771,28.809,13.672,-9.766,17.090,14.648,0
1488801569.775,8.301,-3.906,-25.391,0.000,24.902,0
1488801569.779,-8.301,-10.254,-28.809,-7.324,53.223,0
1488801569.783,-6.836,-8.789,-25.879,5.859,18.066,0
1488801569.787,-3.418,-15.137,-33.203,13.184,15.625,0
1488801569.791,-3.418,-28.809,-42.969,3.906,62.012,0
1488801569.795,-8.301,-32.227,-34.668,-3.906,34.668,0
1488801569.798,-20.508,-35.156,-33.203,-5.859,17.578,0
1488801569.802,-30.762,-50.781,-49.316,-6.348,13.672,0
1488801569.806,-40.039,-61.035,-72.266,-14.160,36.621,0
1488801569.810,-50.781,-66.895,-83.496,-33.691,49.805,0
1488801569.814,-52.246,-72.266,-79.102,-39.551,17.578,0
1488801569.818,-52.734,-71.777,-83.984,-45.898,6.836,0
1488801569.822,-65.918,-80.078,-91.309,-64.941,8.789,0
1488801569.826,-80.078,-93.750,-95.703,-79.590,43.945,0
1488801569.830,-87.891,-107.422,-116.699,-91.797,38.574,0
1488801569.834,-92.773,-118.652,-130.371,-95.703,20.508,0
1488801569.838,-93.750,-123.047,-134.277,-103.027,39.551,0
1488801569.841,-96.191,-123.535,-136.719,-115.723,31.250,0
1488801569.845,-110.352,-136.719,-146.484,-127.930,14.648,0
1488801569.849,-134.766,-160.645,-162.598,-142.090,16.602,0
1488801569.853,-150.391,-172.852,-183.105,-163.086,4.883,0
1488801569.857,-159.180,-185.059,-197.266,-181.152,6.836,0
1488801569.861,-172.852,-195.312,-200.195,-192.383,-4.883,0
1488801569.865,-201.172,-215.332,-218.262,-215.332,28.320,0
1488801569.869,-212.402,-222.168,-234.375,-224.121,51.758,0
1488801569.873,-204.590,-210.938,-231.934,-216.797,17.578,0
1488801569.877,-216.797,-222.168,-229.980,-229.980,2.930,0
1488801569.880,-232.422,-238.281,-239.258,-250.488,20.508,0
1488801569.884,-224.121,-228.516,-242.676,-253.418,17.090,0
1488801569.888,-215.332,-209.473,-230.957,-239.746,26.367,0
1488801569.892,-213.379,-189.453,-208.008,-222.168,20.996,0
1488801569.896,-205.078,-174.316,-192.871,-208.984,-11.230,0
1488801569.900,-194.824,-169.922,-191.895,-199.707,-2.441,0
1488801569.904,-187.988,-154.297,-185.547,-190.430,1.465,0
1488801569.908,-191.895,-146.484,-180.176,-192.871,27.344,0
1488801569.912,-194.336,-150.879,-187.012,-200.684,33.203,0
1488801569.916,-187.012,-154.785,-196.777,-201.660,20.508,0
1488801569.920,-184.570,-148.438,-187.988,-187.988,18.066,0
1488801569.923,-201.660,-149.902,-192.383,-192.383,-31.738,0
1488801569.927,-216.797,-169.434,-223.145,-218.262,-7.812,0
1488801569.931,-211.914,-180.176,-222.168,-221.680,51.270,0
1488801569.935,-214.844,-180.664,-216.309,-225.098,29.785,0
1488801569.939,-232.422,-193.359,-235.352,-241.211,18.555,0
1488801569.943,-237.793,-189.941,-232.422,-232.422,19.531,0
1488801569.947,-219.238,-170.410,-213.867,-211.914,7.812,0
1488801569.951,-205.078,-169.434,-210.938,-204.590,0.977,0
1488801569.955,-210.938,-181.152,-221.191,-210.449,14.160,0
1488801569.959,-209.961,-175.781,-209.473,-210.449,13.672,0
1488801569.963,-198.242,-161.133,-198.242,-191.406,17.090,0
1488801569.966,-179.688,-159.180,-209.473,-182.617,9.277,0
1488801569.970,-166.992,-167.969,-197.266,-188.965,25.879,0
1488801569.974,-174.316,-178.711,-185.059,-190.918,33.203,0
1488801569.978,-203.125,-198.730,-201.172,-201.172,13.184,0
1488801569.982,-222.656,-223.145,-221.680,-221.191,15.137,0
1488801569.986,-227.051,-229.004,-217.773,-233.398,21.973,0
1488801569.990,-241.699,-234.863,-208.008,-229.492,36.621,0
1488801569.994,-246.582,-246.582,-212.402,-230.469,3.418,0
1488801569.998,-243.652,-266.113,-229.004,-241.211,6.836,0
1488801570.002,-240.234,-279.785,-238.281,-239.258,74.219,0
1488801570.005,-217.285,-257.812,-225.586,-229.980,55.664,0
1488801570.009,-229.492,-254.883,-217.773,-225.098,28.320,0
1488801570.013,-261.230,-272.461,-220.215,-225.098,21.484,0
1488801570.017,-260.742,-283.203,-232.422,-245.117,41.992,0
1488801570.021,-250.488,-273.438,-225.098,-234.863,32.227,0
1488801570.025,-244.629,-261.719,-220.215,-218.262,9.766,0
1488801570.029,-244.629,-270.020,-234.375,-228.027,23.926,0
1488801570.033,-236.816,-268.555,-228.027,-228.027,36.621,0
1488801570.037,-211.426,-252.441,-200.195,-213.867,43.945,0
1488801570.041,-204.590,-249.512,-181.641,-209.473,31.738,0
1488801570.045,-214.355,-256.348,-183.105,-210.449,13.184,0
1488801570.048,-207.031,-253.906,-192.383,-207.520,26.367,0
1488801570.052,-187.500,-237.793,-203.125,-195.801,41.504,0
1488801570.056,-171.875,-224.609,-204.590,-187.988,-9.277,0
1488801570.060,-182.129,-229.004,-203.125,-199.707,-23.926,0
1488801570.064,-191.895,-217.773,-184.082,-178.711,19.043,0
1488801570.068,-182.617,-196.777,-161.133,-156.738,17.090,0
1488801570.072,-168.945,-188.965,-145.508,-159.668,16.602,0
1488801570.076,-158.203,-188.477,-138.184,-164.062,33.691,0
1488801570.080,-140.625,-174.316,-136.719,-158.203,29.297,0
1488801570.084,-115.234,-152.344,-117.188,-132.812,-2.441,0
1488801570.088,-114.258,-151.367,-119.629,-124.023,-19.043,0
1488801570.091,-117.188,-149.414,-135.254,-133.301,23.438,0
1488801570.095,-109.375,-135.254,-129.883,-128.418,30.273,0
1488801570.099,-109.863,-138.672,-136.719,-134.277,17.090,0
1488801570.103,-108.887,-143.555,-141.602,-140.137,0.000,0
1488801570.107,-112.793,-148.438,-146.484,-140.137,39.062,0
1488801570.111,-116.211,-142.090,-138.184,-124.512,65.430,0
1488801570.115,-110.840,-133.301,-125.000,-109.375,30.273,0
1488801570.119,-103.027,-141.113,-126.953,-117.676,52.246,0
1488801570.123,-89.844,-133.789,-117.676,-105.957,38.086,0
1488801570.127,-78.125,-122.070,-101.074,-97.168,-7.812,0
1488801570.130,-80.566,-121.582,-101.562,-94.727,-6.348,0
1488801570.134,-79.590,-114.746,-107.910,-88.379,13.184,0
1488801570.138,-79.590,-110.352,-109.863,-79.590,26.367,0
1488801570.142,-82.520,-102.539,-97.168,-59.082,29.297,0
1488801570.146,-79.102,-94.238,-84.473,-52.734,8.301,0
1488801570.150,-65.430,-102.051,-85.449,-58.594,20.996,0
1488801570.154,-55.176,-104.980,-70.312,-59.570,49.316,0
1488801570.158,-51.270,-91.309,-44.434,-35.645,30.762,0
1488801570.162,-55.176,-85.938,-39.062,-24.414,-0.488,0
1488801570.166,-58.594,-96.191,-50.293,-32.715,11.719,0
1488801570.170,-46.387,-98.145,-62.012,-32.715,22.949,0
1488801570.173,-37.109,-88.379,-63.965,-31.250,5.371,0
1488801570.177,-44.434,-87.891,-53.711,-36.621,19.043,0
1488801570.181,-50.781,-97.168,-53.223,-40.527,42.969,0
1488801570.185,-40.039,-90.332,-57.617,-32.227,17.578,0
1488801570.189,-18.555,-72.266,-35.156,-16.602,-32.715,0
1488801570.193,-24.902,-67.871,-18.066,-3.906,-37.598,0
1488801570.197,-29.785,-74.707,-29.785,-5.371,13.672,0
1488801570.201,-9.766,-70.312,-31.738,-3.418,34.668,0
1488801570.205,0.977,-49.316,-14.160,21.484,0.488,0
1488801570.209,5.859,-36.133,-3.418,35.645,9.277,0
1488801570.213,8.301,-37.109,-4.883,28.320,32.227,0
1488801570.216,17.090,-37.109,-2.441,25.391,14.160,0
1488801570.220,30.273,-31.738,-6.836,29.297,50.781,0
1488801570.224,32.715,-28.809,-6.348,30.273,60.059,0
1488801570.228,26.367,-38.574,-6.836,28.320,69.336,0
1488801570.232,32.227,-33.691,-4.395,33.691,49.805,0
1488801570.236,43.457,-17.578,15.625,40.527,-3.906,0
1488801570.240,30.762,-18.555,19.043,33.203,12.207,0
1488801570.244,14.160,-25.391,4.883,25.879,48.828,0
1488801570.248,23.926,-20.996,2.930,34.668,44.434,0
1488801570.252,35.156,-14.648,-4.395,42.480,10.742,0
1488801570.255,30.273,-14.160,-11.719,39.551,35.645,0
1488801570.259,15.137,-17.090,3.418,30.762,49.316,0
1488801570.263,-9.277,-31.738,8.301,18.555,8.301,0
1488801570.267,-16.113,-41.016,-2.441,9.277,22.461,0
1488801570.271,-11.719,-38.574,-17.578,-1.465,45.898,0
1488801570.275,-16.113,-44.434,-31.738,-8.301,-2.441,0
1488801570.279,-12.207,-43.457,-40.039,-14.160,20.020,0
1488801570.283,-6.348,-35.645,-38.574,-25.391,41.504,0
1488801570.287,-19.043,-41.992,-34.668,-30.273,16.113,0
1488801570.291,-20.020,-38.574,-22.949,-21.973,20.508,0
1488801570.295,-23.926,-37.109,-20.508,-21.484,14.648,0
1488801570.298,-31.738,-46.387,-29.785,-31.250,28.809,0
1488801570.302,-24.414,-46.387,-37.109,-44.922,18.066,0
1488801570.306,-17.090,-37.109,-36.621,-46.875,1.953,0
1488801570.310,-24.414,-35.156,-34.668,-44.922,1.953,0
1488801570.314,-38.086,-47.852,-39.551,-46.875,10.742,0
1488801570.318,-29.297,-38.574,-35.645,-38.086,45.410,0
1488801570.322,-19.043,-27.344,-20.996,-39.551,28.809,0
1488801570.326,-17.090,-23.438,-6.836,-31.250,-21.484,0
1488801570.330,-33.203,-28.320,-28.320,-33.691,-3.906,0
1488801570.334,-37.109,-35.156,-52.246,-41.016,27.832,0
1488801570.338,-20.508,-21.484,-43.457,-21.484,11.719,0
1488801570.341,-19.531,-18.066,-33.203,-28.320,12.207,0
1488801570.345,-31.738,-26.367,-32.227,-41.504,10.742,0
1488801570.349,-37.598,-28.809,-36.133,-31.738,42.969,0
1488801570.353,-36.621,-31.250,-41.992,-38.086,54.199,0
1488801570.357,-44.922,-40.039,-44.922,-50.781,30.762,0
1488801570.361,-54.688,-47.363,-50.781,-60.059,11.230,0
1488801570.365,-59.082,-51.758,-63.965,-68.359,-9.277,0
1488801570.369,-60.547,-55.176,-64.941,-69.824,-6.836,0
1488801570.373,-72.754,-77.148,-78.613,-86.914,-4.395,0
1488801570.377,-89.355,-103.516,-100.098,-110.352,16.113,0
1488801570.380,-100.098,-100.586,-112.305,-113.281,25.391,0
1488801570.384,-100.098,-95.215,-106.445,-104.980,5.371,0
1488801570.388,-89.844,-96.680,-84.473,-91.309,3.906,0
1488801570.392,-78.613,-85.938,-69.336,-78.125,15.625,0
1488801570.396,-66.895,-72.754,-61.035,-73.242,17.090,0
1488801570.400,-59.082,-74.707,-69.336,-77.637,20.508,0
1488801570.404,-53.223,-79.102,-84.473,-79.102,19.531,0
1488801570.408,-48.340,-70.312,-82.520,-72.266,18.066,0
1488801570.412,-41.016,-49.316,-66.406,-48.340,10.254,0
1488801570.416,-32.227,-48.340,-59.082,-35.645,-3.418,0
1488801570.420,-22.461,-55.664,-70.801,-39.062,-1.465,0
1488801570.423,-18.066,-47.852,-85.938,-35.645,38.086,0
1488801570.427,-13.184,-26.855,-80.566,-15.137,22.461,0
1488801570.431,-2.930,-20.508,-68.359,-3.418,-27.832,0
1488801570.435,3.418,-33.203,-73.242,-12.695,0.000,0
1488801570.439,10.742,-23.438,-68.848,-13.184,29.297,0
1488801570.443,16.602,-8.789,-49.805,0.488,10.742,0
1488801570.447,11.230,-15.625,-50.781,1.465,5.371,0
1488801570.451,-2.441,-22.949,-63.965,-11.230,47.363,0
1488801570.455,-15.137,-27.832,-63.477,-14.648,73.730,0
1488801570.459,-16.602,-27.344,-56.641,-23.926,28.809,0
1488801570.463,-15.137,-25.391,-58.105,-34.668,12.695,0
1488801570.466,-10.254,-24.414,-60.547,-24.414,22.949,0
1488801570.470,-4.883,-15.625,-51.270,-19.043,26.855,0
1488801570.474,-6.836,-2.441,-41.504,-21.973,17.090,0
1488801570.478,-17.578,-7.324,-51.758,-26.855,28.809,0
1488801570.482,-13.184,-17.090,-61.035,-25.879,48.828,0
1488801570.486,6.836,-7.812,-47.852,-14.648,41.016,0
1488801570.490,16.602,0.488,-45.410,-7.324,6.836,0
1488801570.494,6.836,1.465,-49.805,-8.789,-17.578,0
1488801570.498,3.418,1.953,-39.062,-17.578,6.836,0
1488801570.502,18.555,2.441,-37.598,-16.602,37.109,0
1488801570.505,21.973,0.977,-41.504,-6.348,31.738,0
1488801570.509,-1.465,-7.324,-45.410,-11.719,23.438,0
1488801570.513,-21.973,-18.555,-50.293,-26.855,42.969,0
1488801570.517,-8.789,-10.254,-38.574,-23.438,41.504,0
1488801570.521,1.953,-0.488,-29.297,-17.578,-5.859,0
1488801570.525,-12.207,-13.672,-34.668,-27.344,-38.574,0
1488801570.529,-24.902,-15.137,-31.250,-23.926,-14.160,0
1488801570.533,-22.949,-12.207,-32.227,-17.578,30.762,0
1488801570.537,-16.113,-17.578,-39.551,-17.090,41.992,0
1488801570.541,-17.578,-22.461,-42.480,-32.715,73.730,0
1488801570.545,-19.531,-21.973,-42.969,-40.039,76.660,0
1488801570.548,-15.625,-17.578,-38.574,-25.391,27.344,0
1488801570.552,-11.719,-14.160,-32.227,-22.949,3.418,0
1488801570.556,-19.043,-15.625,-24.414,-30.273,3.418,0
1488801570.560,-20.996,-15.625,-23.438,-29.297,7.324,0
1488801570.564,-8.789,-5.371,-18.066,-20.020,-3.906,0
1488801570.568,-5.371,-4.395,-20.996,-15.137,-9.277,0
1488801570.572,-16.113,-9.766,-34.180,-20.996,25.391,0
1488801570.576,-19.043,-4.883,-25.879,-24.414,6.348,0
1488801570.580,-11.719,-1.953,-16.602,-19.043,-4.395,0
1488801570.584,-1.465,-2.441,-21.973,-8.301,53.223,0
1488801570.588,8.301,0.488,-22.949,-4.395,66.406,0
1488801570.591,22.461,6.836,-22.461,-2.930,35.645,0
1488801570.595,32.715,15.625,-25.391,9.766,27.344,0
1488801570.599,33.203,18.066,-19.531,23.926,31.738,0
1488801570.603,33.691,9.277,-8.789,22.949,36.133,0
1488801570.607,38.574,8.301,0.488,18.555,9.277,0
1488801570.611,37.598,0.977,-6.836,20.996,-10.254,0
1488801570.615,26.855,-9.277,-21.973,21.973,15.137,0
1488801570.619,27.344,-9.766,-23.926,14.648,49.316,0
1488801570.623,42.969,5.371,-0.977,31.738,44.434,0
1488801570.627,58.105,19.043,19.043,49.805,38.086,0
1488801570.630,50.781,6.348,3.906,45.898,38.574,0
1488801570.634,31.250,-3.418,-5.859,47.852,51.758,0
1488801570.638,18.555,-8.301,-5.859,38.574,41.992,0
1488801570.642,20.020,-12.207,-3.418,28.809,19.043,0
1488801570.646,28.809,-5.859,14.160,35.156,26.367,0
1488801570.650,27.344,-7.812,23.438,39.551,41.016,0
1488801570.654,32.715,-7.324,32.227,56.641,37.109,0
1488801570.658,38.574,-5.371,29.297,67.871,30.273,0
1488801570.662,42.480,-14.648,21.973,68.848,38.086,0
1488801570.666,58.594,-9.766,33.691,78.125,31.250,0
1488801570.670,61.523,-6.836,25.879,67.383,37.109,0
1488801570.673,53.711,-9.277,17.090,59.570,52.734,0
1488801570.677,55.176,-8.301,28.809,65.430,45.898,0
1488801570.681,62.500,0.488,29.785,74.219,46.387,0
1488801570.685,64.941,3.418,24.902,74.707,26.855,0
1488801570.689,62.500,-5.859,24.414,62.012,26.367,0
1488801570.693,62.012,-6.348,16.602,62.988,37.598,0
1488801570.697,55.176,-3.418,14.648,76.660,28.320,0
1488801570.701,57.617,-4.883,23.438,71.777,31.250,0
1488801570.705,64.941,-5.859,28.809,56.641,23.926,0
1488801570.709,56.641,-7.812,28.809,58.105,21.484,0
1488801570.713,62.988,2.441,26.367,60.059,29.785,0
1488801570.716,70.801,8.301,23.926,52.246,13.184,0
1488801570.720,57.129,-15.137,16.602,32.715,18.555,0
1488801570.724,37.109,-30.762,6.348,20.508,25.879,0
1488801570.728,27.832,-24.902,5.859,25.391,6.836,0
1488801570.732,20.508,-22.949,1.465,19.531,28.320,0
1488801570.736,15.625,-26.855,-5.371,5.859,38.574,0
1488801570.740,21.973,-18.066,6.836,2.930,-9.277,0
1488801570.744,0.488,-27.832,0.000,-13.184,-8.301,0
1488801570.748,-26.367,-37.109,-10.742,-24.414,31.738,0
1488801570.752,-22.949,-32.227,-9.766,-24.902,29.297,0
1488801570.755,-14.648,-35.645,-11.719,-28.809,12.695,0
1488801570.759,-14.648,-26.367,-2.441,-20.996,-13.672,0
1488801570.763,-20.020,-22.949,-9.277,-21.484,-8.789,0
1488801570.767,-26.367,-35.156,-28.320,-30.273,27.344,0
1488801570.771,-32.227,-34.180,-25.879,-33.203,20.020,0
1488801570.775,-28.809,-20.020,-15.625,-32.715,-12.207,0
1488801570.779,-19.531,-14.160,-23.438,-26.367,-25.391,0
1488801570.783,-7.812,-10.742,-31.738,-18.555,-13.672,0
1488801570.787,-4.395,-3.418,-20.508,-5.371,25.879,0
1488801570.791,-5.859,2.441,-11.719,4.883,15.137,0
1488801570.795,-1.465,-0.488,-18.555,0.977,-36.621,0
1488801570.798,6.836,-7.812,-12.695,-4.883,-16.113,0
1488801570.802,22.461,0.000,7.324,4.395,-4.883,0
1488801570.806,18.066,3.906,7.324,10.742,-34.180,0
1488801570.810,7.812,-1.953,-7.812,1.465,-16.113,0
1488801570.814,18.555,2.441,-10.742,8.301,23.438,0
1488801570.818,25.879,13.184,-3.418,25.391,14.160,0
1488801570.822,29.297,17.578,12.207,29.785,-12.695,0
1488801570.826,23.926,15.625,12.207,26.855,7.324,0
1488801570.830,13.672,18.066,4.883,40.039,3.418,0
1488801570.834,27.832,19.043,26.855,57.129,-7.324,0
1488801570.838,44.922,16.113,46.875,54.688,-5.859,0
1488801570.841,39.062,18.066,38.574,45.410,-14.160,0
1488801570.845,24.902,7.812,15.625,36.133,1.953,0
1488801570.849,35.645,7.812,20.020,44.434,7.812,0
1488801570.853,53.711,12.695,31.250,56.641,5.371,0
1488801570.857,59.082,11.230,26.855,53.711,16.113,0
1488801570.861,56.152,19.531,35.156,58.594,10.742,0
1488801570.865,45.410,19.531,28.320,64.941,8.301,0
1488801570.869,38.574,7.324,9.766,53.711,-3.418,0
1488801570.873,40.527,4.883,14.160,44.434,3.418,0
1488801570.877,44.434,9.277,21.484,56.641,14.160,0
1488801570.880,39.062,8.301,17.578,60.547,41.016,0
1488801570.884,42.480,14.160,18.066,53.711,22.949,0
1488801570.888,51.270,9.277,17.578,53.223,-2.930,0
1488801570.892,53.711,19.043,23.438,64.941,23.926,0
1488801570.896,52.734,30.762,24.902,65.918,15.625,0
1488801570.900,42.969,5.859,12.695,43.457,14.648,0
1488801570.904,41.504,2.441,17.090,36.621,20.508,0
1488801570.908,47.363,21.484,20.020,47.363,35.156,0
1488801570.912,40.527,23.438,8.789,51.270,45.410,0
1488801570.916,36.621,15.625,-2.930,40.527,36.133,0
1488801570.920,39.551,12.695,-4.883,32.227,45.410,0
1488801570.923,40.527,18.555,2.930,44.922,38.086,0
1488801570.927,40.527,21.973,13.184,52.246,14.160,0
1488801570.931,47.852,21.973,24.414,52.246,27.344,0
1488801570.935,52.246,21.973,29.785,58.594,38.086,0
1488801570.939,47.852,29.785,28.809,62.500,3.906,0
1488801570.943,48.828,24.902,8.789,50.781,-30.762,0
1488801570.947,40.527,7.324,-16.602,29.297,-4.395,0
1488801570.951,42.480,9.277,-15.625,22.949,39.062,0
1488801570.955,41.992,9.766,-12.207,19.043,50.293,0
1488801570.959,24.414,5.859,-6.348,23.926,28.320,0
1488801570.963,6.348,8.301,12.207,29.297,21.484,0
1488801570.966,6.348,13.672,16.113,27.832,20.020,0
1488801570.970,20.020,11.230,2.441,18.066,2.930,0
1488801570.974,12.207,1.953,-13.184,3.418,5.371,0
1488801570.978,-3.906,1.953,-24.414,-0.488,18.555,0
1488801570.982,-0.488,7.324,-28.809,3.418,28.320,0
1488801570.986,6.836,16.113,-25.879,11.230,18.555,0
1488801570.990,18.555,17.090,-16.113,12.695,10.742,0
1488801570.994,16.602,10.742,-15.625,12.207,19.531,0
1488801570.998,9.277,10.254,-13.672,17.578,16.602,0
1488801571.002,16.602,11.230,-12.695,20.020,-0.488,0
1488801571.005,20.020,5.859,-27.832,9.277,21.973,0
1488801571.009,28.809,11.230,-20.020,20.996,37.109,0
1488801571.013,27.344,14.160,-6.348,30.273,27.344,0
1488801571.017,18.555,6.836,-7.324,13.184,23.438,0
1488801571.021,18.555,14.648,-3.906,17.578,19.043,0
1488801571.025,21.484,21.973,-11.230,26.367,33.691,0
1488801571.029,21.484,19.531,-14.160,11.230,30.273,0
1488801571.033,15.137,10.254,-8.301,-4.395,25.879,0
1488801571.037,9.277,6.348,5.859,7.324,58.594,0
1488801571.041,17.090,16.113,23.926,33.203,53.711,0
1488801571.045,20.020,12.695,17.090,33.203,52.734,0
1488801571.048,22.461,8.301,12.695,27.832,54.688,0
1488801571.052,27.344,6.348,17.090,30.273,61.523,0
1488801571.056,34.180,11.719,18.066,34.668,56.152,0
1488801571.060,34.180,14.160,14.160,35.645,30.273,0
1488801571.064,23.926,5.371,6.836,30.273,33.203,0
1488801571.068,21.484,3.906,0.488,30.273,36.133,0
1488801571.072,27.832,9.277,9.766,40.039,34.668,0
1488801571.076,27.344,13.184,26.367,43.457,-28.809,0
1488801571.080,17.090,3.906,21.973,28.320,-22.949,0
1488801571.084,13.184,-0.977,16.602,25.391,20.020,0
1488801571.088,22.949,11.719,16.602,31.738,28.809,0
1488801571.091,34.668,18.555,14.648,24.414,2.441,0
1488801571.095,22.949,11.230,9.766,21.484,8.789,0
1488801571.099,19.043,18.066,14.648,31.738,28.320,0
1488801571.103,24.414,20.020,13.672,31.250,-1.953,0
1488801571.107,20.508,10.254,-0.977,19.531,28.809,0
1488801571.111,21.973,14.160,-4.883,17.578,21.973,0
1488801571.115,31.738,22.461,-4.883,21.973,-12.207,0
1488801571.119,38.574,32.227,-1.465,34.180,-15.625,0
1488801571.123,27.832,30.273,4.883,35.156,-41.992,0
1488801571.127,10.742,13.184,2.930,12.695,-7.324,0
1488801571.130,11.719,18.066,0.488,5.859,15.625,0
1488801571.134,20.508,24.902,-7.324,2.441,-2.930,0
1488801571.138,25.879,19.531,-21.484,0.000,-9.277,0
1488801571.142,22.461,19.531,-18.555,0.488,-14.648,0
1488801571.146,15.137,23.926,-5.371,2.930,12.695,0
1488801571.150,7.324,21.484,-0.977,8.301,36.621,0
1488801571.154,7.812,20.996,-0.977,8.301,18.555,0
1488801571.158,21.484,29.297,8.301,10.742,13.672,0
1488801571.162,32.715,37.109,20.020,15.625,9.766,0
1488801571.166,30.762,36.133,16.113,22.461,-11.230,0
1488801571.170,31.738,27.344,6.348,26.855,-20.996,0
1488801571.173,36.133,27.344,5.859,21.973,10.254,0
1488801571.177,42.480,38.086,20.508,29.297,9.277,0
1488801571.181,36.133,29.785,22.461,27.832,-0.488,0
1488801571.185,33.691,18.066,13.184,25.879,62.012,0
1488801571.189,39.551,22.949,13.672,41.992,46.387,0
1488801571.193,32.227,26.367,14.648,50.781,6.348,0
1488801571.197,37.598,24.414,18.555,47.852,0.000,0
1488801571.201,46.387,17.578,20.020,37.109,35.645,0
1488801571.205,47.852,19.043,21.973,36.621,67.383,0
1488801571.209,44.434,25.391,33.691,47.852,27.344,0
1488801571.213,22.461,17.578,33.691,46.387,28.320,0
1488801571.216,8.789,2.441,9.766,35.645,25.391,0
1488801571.220,15.137,0.000,2.930,41.016,-4.883,0
1488801571.224,10.742,4.395,-3.906,36.133,-12.207,0
1488801571.228,1.465,0.977,-10.742,19.043,10.254,0
1488801571.232,8.789,1.465,-1.465,12.207,42.969,0
1488801571.236,25.879,11.719,15.625,20.996,21.973,0
1488801571.240,24.414,16.602,27.832,17.578,9.277,0
1488801571.244,12.695,13.672,25.879,10.742,22.461,0
1488801571.248,16.113,11.230,20.020,12.695,19.043,0
1488801571.252,17.578,5.371,9.277,14.648,7.812,0
1488801571.255,22.461,7.324,7.812,23.926,-16.602,0
1488801571.259,27.344,11.719,6.836,26.855,4.883,0
1488801571.263,35.156,7.324,0.000,25.391,40.527,0
1488801571.267,44.434,10.742,0.977,26.855,2.930,0
1488801571.271,47.363,16.113,0.488,26.855,-22.949,0
1488801571.275,40.527,12.695,-13.672,22.461,19.531,0
1488801571.279,29.297,13.672,-18.555,29.785,38.574,0
1488801571.283,42.969,23.926,-1.953,46.387,25.391,0
1488801571.287,52.734,24.902,0.488,50.293,20.996,0
1488801571.291,44.434,14.648,-6.348,37.598,11.719,0
1488801571.295,42.969,18.066,9.277,37.109,12.695,0
1488801571.298,47.852,21.973,9.277,39.062,26.855,0
1488801571.302,44.434,14.648,-4.395,27.832,10.254,0
1488801571.306,39.062,12.695,6.836,34.180,38.574,0
1488801571.310,45.410,22.949,20.020,44.434,40.039,0
1488801571.314,52.734,31.738,22.461,47.363,5.371,0
1488801571.318,46.387,32.227,20.508,54.199,-20.020,0
1488801571.322,37.109,20.508,14.160,46.875,-4.883,0
1488801571.326,48.340,21.973,20.996,48.828,-2.441,0
1488801571.330,50.781,30.273,20.508,51.270,-9.766,0
1488801571.334,48.340,25.391,16.602,48.828,26.855,0
1488801571.338,57.617,26.855,13.672,55.176,40.527,0
1488801571.341,62.012,33.203,20.020,58.594,-11.230,0
1488801571.345,59.082,36.133,33.691,54.199,-27.832,0
1488801571.349,51.758,36.133,26.367,48.828,10.742,0
1488801571.353,47.852,31.738,20.996,39.062,13.184,0
1488801571.357,41.504,27.832,15.137,32.715,26.855,0
1488801571.361,35.156,25.391,9.277,35.645,16.602,0
1488801571.365,22.949,12.695,6.836,26.367,26.855,0
1488801571.369,15.625,5.371,14.160,24.414,62.500,0
1488801571.373,13.184,19.531,15.625,36.133,29.297,0
1488801571.377,9.277,23.926,-0.488,27.344,-6.836,0
1488801571.380,5.859,7.812,-16.113,3.418,26.367,0
1488801571.384,20.508,9.277,-5.371,14.160,52.734,0
1488801571.388,29.297,15.137,13.672,31.250,47.852,0
1488801571.392,21.973,16.602,11.230,28.809,10.742,0
1488801571.396,15.137,18.555,4.883,20.508,10.742,0
1488801571.400,20.508,13.184,1.465,10.742,29.297,0
1488801571.404,32.715,10.254,-2.441,18.066,-8.789,0
1488801571.408,17.090,4.883,-10.254,21.484,-35.645,0
1488801571.412,5.859,-2.441,-11.719,14.648,5.371,0
1488801571.416,22.949,8.301,2.441,25.879,32.227,0
1488801571.420,34.180,18.555,7.812,34.180,36.621,0
1488801571.423,38.086,16.602,8.789,28.809,43.945,0
1488801571.427,45.410,14.160,11.719,29.785,15.137,0
1488801571.431,41.504,7.812,9.277,27.832,9.277,0
1488801571.435,34.668,0.000,5.371,25.879,26.367,0
1488801571.439,43.457,5.859,5.371,28.809,7.324,0
1488801571.443,63.965,16.113,6.836,26.367,3.418,0
1488801571.447,57.617,16.602,4.883,20.020,18.066,0
1488801571.451,42.480,17.578,18.066,29.297,18.555,0
1488801571.455,46.387,12.207,23.438,23.926,11.719,0
1488801571.459,34.180,2.930,2.441,5.371,20.508,0
1488801571.463,25.391,7.324,-1.953,7.324,15.625,0
1488801571.466,36.621,13.672,1.953,3.906,9.277,0
1488801571.470,37.109,16.602,1.953,3.418,23.926,0
1488801571.474,27.832,23.438,11.719,16.113,23.926,0
1488801571.478,24.902,25.391,20.020,15.625,26.367,0
1488801571.482,22.949,18.555,10.742,6.836,22.461,0
1488801571.486,18.066,13.184,-9.766,-2.441,17.578,0
1488801571.490,20.020,12.207,-11.230,-13.184,32.715,0
1488801571.494,23.926,20.508,11.230,-0.488,5.371,0
1488801571.498,9.766,19.043,18.066,0.977,-9.766,0
1488801571.502,-14.648,-1.465,2.930,-24.414,47.363,0
1488801571.505,-28.809,-6.348,0.977,-35.156,59.570,0
1488801571.509,-34.180,1.465,-2.930,-37.109,-3.906,0
1488801571.513,-36.621,-0.977,-20.508,-52.246,-1.465,0
1488801571.517,-32.227,1.953,-23.438,-54.688,38.086,0
1488801571.521,-28.320,15.625,-16.602,-41.016,26.367,0
1488801571.525,-34.180,19.043,-16.113,-39.062,17.090,0
1488801571.529,-31.250,15.625,-11.719,-54.199,20.508,0
1488801571.533,-32.227,8.301,-3.418,-53.223,29.297,0
1488801571.537,-33.691,9.277,3.418,-35.645,19.531,0
1488801571.541,-28.320,17.090,1.465,-33.203,-12.207,0
1488801571.545,-26.367,8.789,-13.184,-41.504,-13.184,0
1488801571.548,-17.090,6.836,-14.648,-36.133,1.465,0
1488801571.552,-3.906,17.578,-8.301,-17.578,-4.395,0
1488801571.556,-9.277,17.090,-8.789,-9.766,-13.672,0
1488801571.560,-13.672,11.230,-12.695,-19.531,21.484,0
1488801571.564,-1.465,11.230,-5.859,-24.902,35.156,0
1488801571.568,5.371,9.766,10.254,-17.090,2.930,0
1488801571.572,14.648,8.789,18.555,-10.742,-6.836,0
1488801571.576,11.719,8.301,16.113,-6.348,-16.113,0
1488801571.580,1.465,3.906,6.836,-2.930,-1.953,0
1488801571.584,0.977,-0.977,-0.488,-1.465,1.465,0
1488801571.588,9.766,-4.883,-1.465,8.301,-5.859,0
1488801571.591,24.902,-2.930,13.184,18.066,-1.953,0
1488801571.595,28.320,7.324,28.809,24.902,13.184,0
1488801571.599,33.691,18.555,30.273,41.016,1.953,0
1488801571.603,36.133,14.160,14.648,41.992,25.879,0
1488801571.607,36.133,6.836,-0.977,23.438,28.809,0
1488801571.611,39.551,12.207,6.348,25.879,28.809,0
1488801571.615,36.621,12.207,8.789,26.855,34.668,0
1488801571.619,36.621,9.766,5.859,22.461,8.301,0
1488801571.623,50.293,14.648,10.742,29.297,21.973,0
1488801571.627,60.547,26.855,14.160,37.109,28.809,0
1488801571.630,59.082,37.598,11.719,41.016,26.855,0
1488801571.634,57.617,45.410,7.812,33.691,-6.836,0
1488801571.638,42.480,35.645,-7.812,19.043,7.812,0
1488801571.642,34.668,35.156,-13.184,20.996,23.438,0
1488801571.646,37.109,47.852,-2.930,22.949,-20.020,0
1488801571.650,26.367,36.133,-21.973,1.953,4.883,0
1488801571.654,17.090,34.180,-26.367,-8.301,12.207,0
1488801571.658,11.230,41.504,-6.836,-5.859,-7.812,0
1488801571.662,13.672,40.527,1.465,-0.977,8.301,0
1488801571.666,17.090,36.621,-1.953,-3.418,-4.883,0
1488801571.670,13.184,27.344,-13.672,-13.672,-15.625,0
1488801571.673,15.625,32.227,-9.766,-6.836,13.184,0
1488801571.677,14.160,37.598,-9.277,-1.953,14.648,0
1488801571.681,17.090,35.645,-16.602,-8.789,-3.418,0
1488801571.685,22.461,29.785,-12.207,-9.277,22.461,0
1488801571.689,32.227,33.203,-2.441,3.906,17.090,0
1488801571.693,26.855,31.250,-2.441,11.230,4.883,0
1488801571.697,1.953,13.184,-7.324,1.953,27.832,0
1488801571.701,6.348,12.207,8.301,6.836,38.574,0
1488801571.705,32.227,22.461,21.484,18.066,44.434,0
1488801571.709,31.738,17.578,18.066,26.855,36.133,0
1488801571.713,30.762,14.648,19.531,34.668,34.180,0
1488801571.716,51.758,26.855,28.320,41.504,31.250,0
1488801571.720,60.547,26.367,32.715,45.898,12.695,0
1488801571.724,45.898,10.742,35.156,40.039,19.043,0
1488801571.728,32.715,4.883,29.297,37.598,-2.930,0
1488801571.732,50.781,16.602,29.785,59.082,-1.953,0
1488801571.736,70.312,20.508,45.410,72.754,1.465,0
1488801571.740,54.199,3.906,47.363,65.430,15.137,0
1488801571.744,46.387,-0.488,49.805,71.289,44.434,0
1488801571.748,64.941,5.371,56.641,81.055,53.223,0
1488801571.752,83.008,8.301,62.012,89.355,36.621,0
1488801571.755,87.402,3.906,64.453,100.586,32.227,0
1488801571.759,84.961,5.859,62.988,112.793,27.344,0
1488801571.763,76.660,0.977,56.641,102.051,33.691,0
1488801571.767,80.566,-1.953,53.711,87.402,44.434,0
1488801571.771,92.773,4.395,40.039,94.727,48.340,0
1488801571.775,81.543,10.742,37.598,110.352,48.828,0
1488801571.779,69.336,16.113,53.711,106.934,16.113,0
1488801571.783,64.453,7.324,47.363,79.590,17.578,0
1488801571.787,54.199,-3.418,38.086,67.871,37.109,0
1488801571.791,43.945,-4.395,31.738,73.242,41.504,0
1488801571.795,45.410,9.277,20.508,73.242,17.090,0
1488801571.798,58.105,15.137,15.625,66.895,1.953,0
1488801571.802,66.406,16.113,16.602,67.871,41.016,0
1488801571.806,74.219,31.738,26.367,83.496,18.066,0
1488801571.810,75.684,29.785,27.832,88.867,-14.160,0
1488801571.814,73.242,20.996,14.648,72.754,16.113,0
1488801571.818,62.012,21.484,-4.395,60.059,23.926,0
1488801571.822,47.363,24.902,-12.695,59.570,15.137,0
1488801571.826,52.734,25.879,-11.230,55.176,-13.672,0
1488801571.830,43.945,13.184,-18.555,39.551,-15.625,0
1488801571.834,29.297,10.254,-18.066,32.715,46.875,0
1488801571.838,47.363,23.926,0.000,38.086,50.781,0
1488801571.841,60.059,32.715,5.859,44.434,26.367,0
1488801571.845,50.293,32.227,0.000,49.316,51.270,0
1488801571.849,56.641,34.180,-10.254,50.293,43.457,0
1488801571.853,68.848,37.598,-15.137,51.758,8.301,0
1488801571.857,68.848,37.109,-5.859,44.434,-7.324,0
1488801571.861,56.152,39.062,4.395,38.086,20.996,0
1488801571.865,45.898,41.992,11.719,48.828,30.762,0
1488801571.869,52.246,43.457,17.578,58.105,-3.418,0
1488801571.873,50.293,39.551,19.043,51.758,5.859,0
1488801571.877,40.039,26.367,8.789,32.227,38.086,0
1488801571.880,37.109,16.113,5.859,29.297,45.410,0
1488801571.884,32.227,8.789,-1.465,33.691,56.641,0
1488801571.888,27.344,19.043,-7.812,36.133,13.184,0
1488801571.892,17.578,22.949,3.418,34.668,17.578,0
1488801571.896,15.137,20.996,21.973,32.715,51.270,0
1488801571.900,27.344,20.996,26.855,33.203,54.199,0
1488801571.904,33.203,17.090,20.508,35.156,49.316,0
1488801571.908,30.762,18.555,20.508,40.527,35.645,0
1488801571.912,32.227,29.785,20.020,53.711,60.547,0
1488801571.916,48.828,36.133,23.438,65.918,41.992,0
1488801571.920,49.316,24.414,17.090,49.316,13.184,0
1488801571.923,43.457,18.066,13.184,44.434,37.109,0
1488801571.927,48.340,28.320,23.438,68.359,10.254,0
1488801571.931,50.293,29.297,30.273,65.430,2.930,0
1488801571.935,54.199,18.066,30.273,49.316,48.828,0
1488801571.939,52.734,9.766,28.320,60.547,64.453,0
1488801571.943,43.457,13.672,39.551,76.172,73.242,0
1488801571.947,39.551,18.066,55.664,73.730,55.176,0
1488801571.951,41.016,7.812,49.805,66.895,19.043,0
1488801571.955,32.715,6.348,30.762,66.895,29.297,0
1488801571.959,31.738,15.625,20.508,60.547,61.523,0
1488801571.963,50.293,22.461,21.973,58.105,33.203,0
1488801571.966,62.500,21.973,23.438,69.824,17.578,0
1488801571.970,73.730,26.367,26.367,84.473,41.504,0
1488801571.974,83.008,47.363,38.086,89.355,23.438,0
1488801571.978,64.941,42.969,29.785,71.777,-9.766,0
1488801571.982,50.293,20.996,2.441,50.293,13.672,0
1488801571.986,73.730,25.879,-0.977,55.664,50.293,0
1488801571.990,99.121,45.898,11.230,63.477,32.715,0
1488801571.994,99.121,50.293,10.254,55.176,29.785,0
1488801571.998,82.520,42.480,9.277,54.199,37.598,0
1488801572.002,68.848,46.875,11.719,59.570,23.926,0
1488801572.005,80.566,62.988,14.648,63.477,15.137,0
1488801572.009,89.355,62.988,15.625,62.012,16.602,0
1488801572.013,71.289,41.992,8.301,55.664,52.734,0
1488801572.017,66.895,46.875,14.160,56.152,64.941,0
1488801572.021,79.102,62.012,19.531,56.152,-5.859,0
1488801572.025,66.406,42.969,2.441,41.992,-6.836,0
1488801572.029,47.363,25.879,-4.883,32.227,65.918,0
1488801572.033,58.594,37.109,6.348,32.227,34.180,0
1488801572.037,62.988,42.969,3.418,33.203,-4.883,0
1488801572.041,47.852,31.738,-13.184,30.762,20.508,0
1488801572.045,48.340,31.738,-1.465,34.668,55.176,0
1488801572.048,51.270,30.273,12.207,34.668,61.523,0
1488801572.052,36.621,25.879,-0.488,31.250,30.273,0
1488801572.056,20.508,18.555,-5.371,17.090,20.508,0
1488801572.060,12.207,12.695,8.301,12.695,18.066,0
1488801572.064,18.066,23.438,20.996,29.785,4.883,0
1488801572.068,19.531,19.043,12.695,25.879,5.859,0
1488801572.072,8.789,0.488,-0.977,14.648,59.570,0
1488801572.076,10.254,1.953,12.207,28.320,38.574,0
1488801572.080,10.742,0.488,8.789,27.832,32.227,0
1488801572.084,19.531,-4.395,3.906,16.113,54.688,0
1488801572.088,18.555,-11.230,4.395,19.043,46.875,0
1488801572.091,2.930,-9.766,-4.395,35.156,57.617,0
1488801572.095,9.766,10.742,-2.441,45.898,38.086,0
1488801572.099,12.207,16.602,6.836,40.039,19.043,0
1488801572.103,6.836,12.207,11.719,39.062,24.902,0
1488801572.107,14.160,17.578,10.254,42.969,28.809,0
1488801572.111,24.902,26.855,9.277,40.527,13.672,0
1488801572.115,18.066,24.414,-1.953,35.156,25.391,0
1488801572.119,9.766,16.602,-3.906,39.551,54.199,0
1488801572.123,9.277,18.555,1.465,40.527,40.039,0
1488801572.127,7.324,21.484,-5.859,27.344,27.832,0
1488801572.130,6.836,24.414,-1.465,25.391,54.688,0
1488801572.134,14.160,34.180,15.625,40.039,49.316,0
1488801572.138,28.320,39.062,18.066,55.664,1.465,0
1488801572.142,30.762,31.738,6.836,43.945,-11.230,0
1488801572.146,29.785,21.973,4.883,29.785,1.953,0
1488801572.150,19.531,16.113,2.441,32.715,35.156,0
1488801572.154,20.996,28.320,7.324,40.527,25.391,0
1488801572.158,28.809,37.598,22.461,51.270,-11.719,0
1488801572.162,21.484,24.902,17.090,40.527,13.672,0
1488801572.166,31.250,21.973,10.742,35.645,43.945,0
1488801572.170,41.992,25.879,14.160,50.293,37.598,0
1488801572.173,36.133,27.832,15.137,53.711,18.066,0
1488801572.177,23.926,24.902,15.137,41.992,15.625,0
1488801572.181,23.438,23.926,19.043,46.875,25.391,0
1488801572.185,27.344,24.902,22.461,55.176,20.508,0
1488801572.189,29.785,21.973,24.902,54.199,-0.977,0
1488801572.193,35.645,23.926,32.227,54.688,-9.766,0
1488801572.197,51.270,34.180,41.992,56.152,-12.207,0
1488801572.201,58.105,37.109,25.879,55.176,-22.461,0
1488801572.205,36.133,17.578,-0.977,41.504,21.484,0
1488801572.209,32.715,14.648,6.836,52.734,62.988,0
1488801572.213,45.410,27.832,25.879,65.430,28.809,0
1488801572.216,40.039,19.531,27.344,51.270,17.090,0
1488801572.220,39.551,9.277,22.461,44.434,17.090,0
1488801572.224,40.527,17.578,21.484,45.410,35.156,0
1488801572.228,29.297,23.438,20.508,42.480,58.105,0
1488801572.232,29.297,20.508,30.273,46.875,38.086,0
1488801572.236,26.367,17.578,25.879,42.969,44.922,0
1488801572.240,12.695,16.113,13.672,34.180,35.645,0
1488801572.244,15.625,19.043,27.832,37.598,12.695,0
1488801572.248,20.996,11.230,31.738,45.898,28.320,0
1488801572.252,24.414,-0.488,21.973,46.387,35.156,0
1488801572.255,33.691,1.953,24.902,54.199,24.902,0
1488801572.259,27.344,5.859,27.832,50.293,1.465,0
1488801572.263,15.137,4.395,23.438,40.039,-28.320,0
1488801572.267,19.043,5.859,22.949,55.664,19.531,0
1488801572.271,25.879,13.184,39.551,65.918,29.297,0
1488801572.275,16.602,13.672,44.922,58.594,-13.184,0
1488801572.279,23.438,16.113,35.156,55.664,-11.719,0
1488801572.283,40.527,16.602,28.809,50.781,5.859,0
1488801572.287,46.875,25.391,24.902,55.664,27.344,0
1488801572.291,42.969,30.273,26.855,64.941,5.859,0
1488801572.295,15.137,15.625,16.602,47.852,-1.953,0
1488801572.298,12.695,13.672,4.395,28.809,50.781,0
1488801572.302,35.645,22.949,5.859,25.391,52.246,0
1488801572.306,22.949,12.695,-13.184,11.230,12.207,0
1488801572.310,0.488,4.883,-37.598,2.441,12.207,0
1488801572.314,2.441,13.672,-30.762,4.395,23.926,0
1488801572.318,7.324,16.113,-15.625,5.859,21.973,0
1488801572.322,-1.465,14.648,-14.160,8.789,-4.883,0
1488801572.326,-16.602,15.137,-18.066,3.906,6.348,0
1488801572.330,-17.578,16.602,-5.859,4.395,31.738,0
1488801572.334,-15.625,11.719,4.883,2.441,23.438,0
1488801572.338,-14.160,12.207,-5.859,-4.883,15.137,0
1488801572.341,-6.836,19.043,-20.996,-2.930,15.625,0
1488801572.345,-4.395,20.508,-38.086,2.930,31.738,0
1488801572.349,4.395,24.902,-32.715,1.953,1.953,0
1488801572.353,7.812,20.020,-19.531,-4.883,-17.578,0
1488801572.357,5.859,13.184,-21.973,-7.324,18.066,0
1488801572.361,12.695,21.484,-15.625,1.953,28.320,0
1488801572.365,15.625,20.020,-17.578,1.953,22.949,0
1488801572.369,27.344,22.461,-16.113,4.395,31.738,0
1488801572.373,29.785,25.879,-1.953,9.766,33.691,0
1488801572.377,25.391,23.438,6.348,14.160,43.457,0
1488801572.380,27.832,26.855,4.395,25.391,22.461,0
1488801572.384,22.949,22.461,1.465,19.043,26.367,0
1488801572.388,19.043,16.602,0.000,9.766,55.176,0
1488801572.392,19.043,25.391,0.977,18.066,32.715,0
1488801572.396,22.949,32.227,19.043,29.297,16.602,0
1488801572.400,30.762,23.438,30.273,25.391,28.320,0
1488801572.404,29.785,18.066,28.809,28.809,30.762,0
1488801572.408,25.391,19.531,29.297,41.016,21.484,0
1488801572.412,28.320,19.043,27.344,33.691,4.395,0
1488801572.416,32.227,15.137,28.320,18.066,29.785,0
1488801572.420,46.875,17.090,45.898,26.855,31.250,0
1488801572.423,52.734,18.066,55.176,37.598,6.348,0
1488801572.427,47.852,20.020,47.852,38.574,24.902,0
1488801572.431,43.457,15.137,31.250,29.297,20.020,0
1488801572.435,25.879,1.465,19.531,22.949,20.020,0
1488801572.439,25.391,9.277,15.625,31.738,5.371,0
1488801572.443,27.344,17.090,10.742,30.762,-5.371,0
1488801572.447,19.531,9.277,10.254,15.625,48.340,0
1488801572.451,23.926,14.160,12.695,8.301,72.754,0
1488801572.455,38.086,34.668,21.973,16.602,17.090,0
1488801572.459,46.387,44.434,30.273,28.320,-15.137,0
1488801572.463,50.293,38.574,25.879,33.691,49.316,0
1488801572.466,57.129,43.945,26.367,41.016,82.520,0
1488801572.470,54.199,50.781,24.902,35.156,55.664,0
1488801572.474,44.922,39.551,22.949,22.949,20.996,0
1488801572.478,40.039,30.273,14.160,16.113,36.621,0
1488801572.482,45.410,33.691,10.254,15.625,33.203,0
1488801572.486,40.039,37.109,19.531,14.160,1.953,0
1488801572.490,23.926,32.227,13.672,4.395,15.137,0
1488801572.494,17.578,22.949,-1.953,-0.977,31.738,0
1488801572.498,28.809,30.762,5.859,12.207,11.230,0
1488801572.502,38.574,37.598,16.113,26.855,1.465,0
1488801572.505,42.480,33.691,12.207,28.809,56.152,0
1488801572.509,57.129,42.969,10.742,40.039,46.875,0
1488801572.513,56.641,39.551,13.672,41.992,14.160,0
1488801572.517,44.922,31.250,25.391,43.457,21.484,0
1488801572.521,44.434,40.039,30.273,48.828,34.668,0
1488801572.525,38.086,43.457,29.297,44.922,44.922,0
1488801572.529,34.180,45.898,32.715,52.734,19.531,0
1488801572.533,41.504,51.270,41.504,59.570,-13.672,0
1488801572.537,43.945,43.457,41.992,56.152,20.996,0
1488801572.541,46.875,45.410,42.969,64.453,45.898,0
1488801572.545,39.551,45.410,36.133,67.383,40.039,0
1488801572.548,30.273,36.133,18.066,68.359,40.039,0
1488801572.552,30.273,28.320,-5.371,62.988,33.203,0
1488801572.556,41.992,23.926,1.953,57.129,20.996,0
1488801572.560,47.363,27.344,17.578,51.270,10.254,0
1488801572.564,36.621,22.949,16.113,38.574,29.297,0
1488801572.568,32.227,21.973,18.555,47.363,26.367,0
1488801572.572,34.180,23.438,13.184,46.387,24.902,0
1488801572.576,30.762,18.066,3.418,35.645,23.926,0
1488801572.580,21.484,5.371,0.488,27.344,38.574,0
1488801572.584,22.461,5.859,5.371,31.250,54.688,0
1488801572.588,21.484,14.160,1.465,40.039,20.020,0
1488801572.591,12.207,10.742,-2.930,35.645,4.883,0
1488801572.595,2.930,0.977,3.418,25.879,32.715,0
1488801572.599,9.766,0.977,8.789,18.066,27.344,0
1488801572.603,21.973,3.418,6.836,21.484,37.109,0
1488801572.607,37.598,13.184,7.324,36.133,36.621,0
1488801572.611,44.922,18.555,14.160,41.504,21.484,0
1488801572.615,43.945,14.648,22.461,37.109,20.508,0
1488801572.619,46.387,15.625,31.250,40.039,5.859,0
1488801572.623,37.109,6.836,26.367,33.203,-4.395,0
1488801572.627,21.973,-8.789,10.742,13.184,-4.395,0
1488801572.630,24.414,-5.859,8.789,20.020,13.672,0
1488801572.634,38.574,3.418,8.301,36.133,21.973,0
1488801572.638,45.410,4.883,7.812,40.039,8.301,0
1488801572.642,46.387,-1.465,14.160,32.227,45.898,0
1488801572.646,45.410,-8.789,19.531,22.949,48.828,0
1488801572.650,44.922,-4.395,23.438,27.344,14.160,0
1488801572.654,51.758,7.812,27.344,27.832,18.066,0
1488801572.658,47.852,11.230,26.367,26.855,18.066,0
1488801572.662,36.621,10.742,18.555,33.691,10.254,0
1488801572.666,41.504,20.020,16.113,44.434,-6.836,0
1488801572.670,46.387,26.367,12.695,34.668,-14.160,0
1488801572.673,54.688,30.762,18.066,21.973,28.320,0
1488801572.677,65.430,39.551,30.762,31.738,33.691,0
1488801572.681,58.105,40.039,26.367,40.039,5.859,0
1488801572.685,61.523,39.062,25.879,33.203,45.410,0
1488801572.689,62.012,42.480,31.250,38.574,70.312,0
1488801572.693,37.598,34.180,17.090,37.598,33.691,0
1488801572.697,36.621,30.273,9.766,31.738,24.902,0
1488801572.701,44.922,27.344,9.766,36.133,40.039,0
1488801572.705,43.945,26.367,22.949,50.293,57.129,0
1488801572.709,42.480,38.574,41.016,67.383,-1.953,0
1488801572.713,19.043,27.344,28.809,64.941,-24.414,0
1488801572.716,12.207,14.160,14.648,60.059,35.645,0
1488801572.720,34.668,25.879,23.926,64.941,39.551,0
1488801572.724,32.715,33.691,28.320,65.918,18.555,0
1488801572.728,24.902,31.250,20.996,58.594,24.414,0
1488801572.732,25.879,26.855,19.043,51.270,33.691,0
1488801572.736,33.203,33.203,19.531,55.176,36.621,0
1488801572.740,49.316,39.551,19.531,54.688,27.344,0
1488801572.744,54.199,37.598,29.785,56.641,17.578,0
1488801572.748,50.293,41.016,29.785,49.316,27.344,0
1488801572.752,37.598,34.180,9.277,30.273,37.598,0
1488801572.755,28.320,31.738,0.488,29.785,30.273,0
1488801572.759,34.180,42.969,8.301,25.879,8.789,0
1488801572.763,39.062,49.316,17.090,16.113,31.250,0
1488801572.767,49.316,56.152,18.066,23.438,11.230,0
1488801572.771,56.152,54.199,14.160,26.367,-0.488,0
1488801572.775,51.758,37.598,10.254,17.090,55.176,0
1488801572.779,49.805,35.645,12.695,20.020,69.336,0
1488801572.783,48.340,42.969,13.672,26.367,47.852,0
1488801572.787,41.504,30.762,5.371,20.020,28.320,0
1488801572.791,29.785,17.578,3.418,19.043,24.902,0
1488801572.795,33.203,14.160,9.277,28.809,36.133,0
1488801572.798,39.062,11.719,24.414,42.969,14.648,0
1488801572.802,42.969,8.301,33.203,44.922,18.066,0
1488801572.806,42.969,1.465,20.508,38.086,40.527,0
1488801572.810,38.086,-4.395,13.184,35.156,24.414,0
1488801572.814,37.109,-6.348,22.949,49.805,-0.977,0
1488801572.818,21.484,-14.648,28.809,53.223,-1.953,0
1488801572.822,5.859,-20.508,31.738,38.574,39.062,0
1488801572.826,15.625,-10.254,46.387,42.969,31.250,0
1488801572.830,15.137,-12.695,41.992,32.227,22.461,0
1488801572.834,-1.465,-19.043,28.809,17.578,38.086,0
1488801572.838,-13.672,-26.367,18.066,15.137,48.828,0
1488801572.841,-16.602,-24.902,14.648,17.578,53.223,0
1488801572.845,-13.184,-11.230,7.324,14.160,36.133,0
1488801572.849,-9.277,-8.789,-6.836,12.207,11.719,0
1488801572.853,-17.578,-22.461,-11.230,0.977,19.043,0
1488801572.857,-14.160,-24.414,-1.465,-0.977,27.832,0
1488801572.861,2.930,-6.836,17.090,15.137,3.906,0
1488801572.865,9.277,-2.441,13.672,17.578,4.395,0
1488801572.869,18.555,0.977,-0.488,20.020,32.227,0
1488801572.873,33.203,17.578,0.488,30.762,9.766,0
1488801572.877,35.645,25.391,-1.465,20.996,4.883,0
1488801572.880,25.391,12.695,-19.043,0.488,55.664,0
1488801572.884,27.832,12.695,-12.695,-2.930,79.102,0
1488801572.888,30.762,26.367,2.930,-0.977,48.828,0
1488801572.892,36.133,38.086,1.953,4.395,17.090,0
1488801572.896,43.945,41.992,-3.906,6.836,17.090,0
1488801572.900,36.621,33.203,-18.555,-0.977,41.504,0
1488801572.904,33.203,36.621,-21.484,-4.395,8.789,0
1488801572.908,28.320,35.645,-16.602,-4.883,1.953,0
1488801572.912,17.090,23.438,-30.273,-12.207,19.531,0
1488801572.916,28.320,28.320,-35.645,-2.930,20.020,0
1488801572.920,36.133,36.133,-20.020,17.090,-11.719,0
1488801572.923,23.438,26.367,-15.625,17.090,-0.488,0
1488801572.927,20.020,14.160,-15.625,22.949,40.527,0
1488801572.931,30.762,18.066,-9.766,32.227,24.902,0
1488801572.935,42.969,20.996,-10.254,28.320,-11.719,0
1488801572.939,57.617,22.949,-9.766,40.039,4.883,0
1488801572.943,70.312,25.879,-7.324,54.688,44.922,0
1488801572.947,56.641,19.531,-2.930,60.059,13.184,0
1488801572.951,43.457,19.531,6.836,65.918,-20.020,0
1488801572.955,56.641,23.926,7.324,70.312,35.156,0
1488801572.959,74.707,29.297,12.695,78.125,66.406,0
1488801572.963,84.473,31.738,27.832,86.914,23.438,0
1488801572.966,77.637,20.996,28.320,87.402,25.879,0
1488801572.970,72.266,14.160,20.020,75.684,37.109,0
1488801572.974,75.195,20.020,20.996,71.777,36.621,0
1488801572.978,80.078,24.414,31.250,87.402,22.461,0
1488801572.982,67.383,10.742,23.926,85.938,7.324,0
1488801572.986,55.664,0.488,18.066,70.312,13.672,0
1488801572.990,66.895,15.625,32.715,85.449,33.691,0
1488801572.994,75.195,30.273,44.922,108.887,29.785,0
1488801572.998,69.336,23.926,41.504,103.027,20.020,0
1488801573.002,62.988,6.348,24.902,91.309,41.016,0
1488801573.005,64.453,12.695,27.832,90.332,15.137,0
1488801573.009,61.035,15.137,41.992,88.867,-2.930,0
1488801573.013,56.641,6.836,40.039,95.703,29.297,0
1488801573.017,56.641,6.348,26.855,90.332,46.387,0
1488801573.021,58.105,9.277,23.926,87.891,31.250,0
1488801573.025,50.781,11.230,33.691,85.938,7.812,0
1488801573.029,49.316,10.254,34.668,80.078,1.953,0
1488801573.033,68.359,14.648,33.203,92.773,29.297,0
1488801573.037,82.031,23.438,37.598,103.516,42.480,0
1488801573.041,78.125,28.320,50.293,109.375,14.160,0
1488801573.045,59.570,18.555,44.922,98.145,18.066,0
1488801573.048,42.480,-1.953,20.996,72.266,39.551,0
1488801573.052,50.293,2.441,17.090,70.801,4.395,0
1488801573.056,52.734,6.836,24.902,77.637,-12.695,0
1488801573.060,45.898,7.324,30.273,84.961,3.906,0
1488801573.064,43.945,13.672,28.809,86.426,14.648,0
1488801573.068,42.480,11.230,31.738,75.684,1.953,0
1488801573.072,38.574,6.836,30.273,62.012,6.836,0
1488801573.076,27.344,1.953,25.391,54.688,30.273,0
1488801573.080,27.832,9.766,27.344,62.500,17.578,0
1488801573.084,37.598,17.090,23.438,58.594,3.418,0
1488801573.088,26.367,6.836,13.184,38.086,-4.395,0
1488801573.091,19.531,-3.906,5.371,27.344,15.137,0
1488801573.095,31.250,4.883,8.789,41.016,30.273,0
1488801573.099,42.969,6.836,12.207,44.922,20.996,0
1488801573.103,48.828,1.465,16.602,34.668,26.855,0
1488801573.107,41.992,5.859,16.602,29.785,53.711,0
1488801573.111,43.457,10.742,13.184,36.133,53.223,0
1488801573.115,48.828,17.090,9.277,37.109,16.113,0
1488801573.119,30.762,11.230,-1.465,25.391,30.273,0
1488801573.123,22.949,12.695,0.000,24.414,38.086,0
1488801573.127,32.227,20.508,16.113,33.691,27.832,0
1488801573.130,35.645,22.949,26.855,42.480,9.277,0
1488801573.134,34.668,17.578,24.902,47.852,19.043,0
1488801573.138,37.598,11.719,11.719,45.410,30.273,0
1488801573.142,39.062,15.137,0.000,46.875,-11.230,0
1488801573.146,33.203,14.160,6.836,48.340,-29.785,0
1488801573.150,25.391,1.465,0.000,24.414,1.953,0
1488801573.154,27.344,-0.977,-4.395,20.508,30.762,0
1488801573.158,39.551,14.648,17.090,39.062,23.438,0
1488801573.162,36.621,17.090,22.949,37.598,8.301,0
1488801573.166,22.461,5.859,6.836,31.250,30.762,0
1488801573.170,9.766,6.348,-0.977,34.180,50.781,0
1488801573.173,-3.906,5.859,-4.395,31.738,34.668,0
1488801573.177,-10.742,7.812,-7.812,30.762,10.742,0
1488801573.181,-3.418,10.254,-3.906,26.855,16.113,0
1488801573.185,11.230,3.906,12.207,17.578,45.410,0
1488801573.189,20.508,9.277,26.855,21.484,10.254,0
1488801573.193,14.648,13.672,22.461,16.602,-35.645,0
1488801573.197,5.371,12.695,10.254,6.836,18.066,0
1488801573.201,17.090,15.625,12.695,15.625,41.992,0
1488801573.205,29.297,16.602,14.160,23.438,-0.488,0
1488801573.209,19.043,13.672,4.395,19.531,11.230,0
1488801573.213,2.441,12.207,4.395,12.695,59.570,0
1488801573.216,5.371,19.043,17.090,20.508,75.195,0
1488801573.220,12.207,22.949,21.484,24.414,40.039,0
1488801573.224,14.648,20.020,12.695,8.301,6.348,0
1488801573.228,11.719,13.672,2.930,-2.441,14.160,0
1488801573.232,8.789,17.090,8.789,8.789,30.273,0
1488801573.236,16.113,27.344,18.555,23.438,14.160,0
1488801573.240,9.277,20.508,6.836,12.207,11.230,0
1488801573.244,5.371,17.578,3.906,6.348,25.391,0
1488801573.248,12.695,22.949,11.719,6.348,5.859,0
1488801573.252,12.695,16.113,1.465,-1.465,0.000,0
1488801573.255,3.906,7.812,-16.113,3.906,15.625,0
1488801573.259,3.906,13.672,-19.531,1.465,14.648,0
1488801573.263,8.789,20.020,-4.395,2.930,6.836,0
1488801573.267,13.672,21.484,-0.488,11.719,22.949,0
1488801573.271,8.789,16.113,-2.930,0.000,41.016,0
1488801573.275,-6.348,5.371,9.277,-9.277,14.160,0
1488801573.279,-0.977,12.695,15.137,-4.883,3.418,0
1488801573.283,4.395,11.719,-8.789,-1.953,15.625,0
1488801573.287,3.418,-1.953,-33.203,-15.625,33.691,0
1488801573.291,10.254,6.348,-22.949,-12.207,34.668,0
1488801573.295,-0.488,11.230,-8.789,-1.953,12.695,0
1488801573.298,-6.836,6.836,-8.301,-5.859,6.836,0
1488801573.302,-3.906,-4.395,-9.766,-2.930,38.574,0
1488801573.306,10.742,0.000,-0.977,12.207,70.312,0
1488801573.310,21.973,21.973,8.301,16.602,37.109,0
1488801573.314,16.113,23.926,6.836,3.906,-1.953,0
1488801573.318,10.742,11.719,4.883,-0.977,22.461,0
1488801573.322,8.789,5.371,-0.488,2.930,31.250,0
1488801573.326,14.160,15.625,-4.883,18.555,-20.996,0
1488801573.330,11.719,16.113,-13.184,10.254,-14.160,0
1488801573.334,16.602,3.906,-23.438,-11.719,49.805,0
1488801573.338,22.461,12.695,-9.277,5.371,39.062,0
1488801573.341,11.719,17.090,6.348,10.742,-5.371,0
1488801573.345,-1.953,8.301,1.465,-15.625,27.344,0
1488801573.349,-1.465,16.113,4.883,-14.160,47.363,0
1488801573.353,6.348,27.344,-0.977,-0.977,34.180,0
1488801573.357,4.395,23.926,-17.090,-8.301,40.039,0
1488801573.361,3.906,18.555,-12.695,-9.766,26.367,0
1488801573.365,16.113,30.273,-5.371,1.953,22.461,0
1488801573.369,20.508,40.039,-2.930,-0.977,15.625,0
1488801573.373,21.484,38.574,3.418,-10.742,-4.395,0
1488801573.377,13.184,28.320,-6.348,-20.996,-11.230,0
1488801573.380,0.488,17.578,-17.090,-26.367,23.438,0
1488801573.384,6.836,25.391,-8.301,-18.066,36.133,0
1488801573.388,13.184,25.879,-14.160,-13.672,35.645,0
1488801573.392,11.230,22.949,-22.949,-10.254,34.180,0
1488801573.396,14.160,29.785,-3.418,8.301,30.762,0
1488801573.400,20.508,25.879,13.184,9.277,22.461,0
1488801573.404,19.531,18.066,5.859,-0.488,44.434,0
1488801573.408,20.020,19.531,-11.230,7.324,46.875,0
1488801573.412,24.414,31.250,-7.812,16.602,36.621,0
1488801573.416,33.203,34.668,7.812,35.156,40.039,0
1488801573.420,35.156,23.438,8.301,43.457,35.645,0
1488801573.423,34.180,23.438,18.066,34.668,25.391,0
1488801573.427,34.180,31.250,20.996,39.062,32.715,0
1488801573.431,26.367,26.367,10.742,44.922,62.500,0
1488801573.435,32.715,26.855,19.531,43.457,54.688,0
1488801573.439,39.062,35.645,18.066,39.062,62.988,0
1488801573.443,32.227,41.016,9.277,46.875,54.199,0
1488801573.447,22.949,43.457,10.254,54.199,52.246,0
1488801573.451,18.066,42.480,4.883,44.922,69.336,0
1488801573.455,24.902,47.852,12.207,50.781,78.613,0
1488801573.459,25.879,55.176,28.320,62.012,21.484,0
1488801573.463,14.648,46.875,17.578,53.223,-8.301,0
1488801573.466,9.277,28.320,6.836,38.086,44.922,0
1488801573.470,18.555,25.879,13.672,24.902,34.180,0
1488801573.474,26.855,28.809,17.578,24.902,20.020,0
1488801573.478,26.855,29.297,24.414,40.527,48.828,0
1488801573.482,25.391,26.855,29.785,50.293,63.965,0
1488801573.486,30.762,24.414,28.809,51.758,60.059,0
1488801573.490,37.598,16.602,25.391,50.781,33.691,0
1488801573.494,41.992,11.230,18.066,52.246,9.277,0
1488801573.498,43.457,9.277,5.859,46.387,33.203,0
1488801573.502,46.387,7.324,2.441,50.293,43.945,0
1488801573.505,55.664,11.719,16.602,62.500,19.531,0
1488801573.509,54.199,9.277,25.879,56.641,7.812,0
1488801573.513,51.758,7.324,29.297,52.246,7.812,0
1488801573.517,49.805,6.348,31.250,52.246,4.883,0
1488801573.521,42.480,7.812,28.809,39.062,-4.883,0
1488801573.525,39.551,9.766,26.855,29.785,13.184,0
1488801573.529,51.270,13.672,30.762,36.133,23.926,0
1488801573.533,57.129,16.113,32.715,30.273,1.953,0
1488801573.537,50.781,15.137,17.090,25.391,1.465,0
1488801573.541,38.086,16.602,-7.324,21.484,22.949,0
1488801573.545,21.973,23.438,-13.672,10.254,33.691,0
1488801573.548,21.973,26.855,0.977,6.348,31.250,0
1488801573.552,30.273,31.250,11.719,7.324,18.555,0
1488801573.556,28.809,38.574,10.742,11.719,14.648,0
1488801573.560,11.230,33.691,-3.906,0.488,15.625,0
1488801573.564,2.930,28.320,-8.789,-6.348,16.113,0
1488801573.568,4.883,23.438,-8.301,-6.836,-22.461,0
1488801573.572,8.789,16.113,-9.766,-14.648,-12.207,0
1488801573.576,22.461,27.344,-2.930,2.441,12.695,0
1488801573.580,34.180,40.039,-2.441,20.508,9.277,0
1488801573.584,42.969,40.039,-3.418,9.766,14.160,0
1488801573.588,56.152,31.250,5.371,7.812,28.809,0
1488801573.591,61.035,24.902,7.324,17.090,36.133,0
1488801573.595,49.316,25.879,-6.836,17.578,27.832,0
1488801573.599,44.922,29.785,-19.043,17.578,17.090,0
1488801573.603,59.082,36.621,-3.418,21.484,8.789,0
1488801573.607,74.707,41.992,22.461,19.531,1.465,0
1488801573.611,69.824,41.016,14.160,23.438,-12.207,0
1488801573.615,62.500,24.414,-4.395,22.949,4.395,0
1488801573.619,61.523,12.207,0.000,13.184,41.016,0
1488801573.623,62.012,15.137,18.555,18.066,33.203,0
1488801573.627,59.082,17.090,25.879,26.855,-20.996,0
1488801573.630,40.039,2.441,15.625,22.949,-4.883,0
1488801573.634,30.273,-4.883,1.953,20.508,49.316,0
1488801573.638,36.133,4.395,4.395,37.598,28.320,0
1488801573.642,36.133,5.371,17.578,44.922,23.438,0
1488801573.646,34.180,-4.883,21.973,41.992,21.484,0
1488801573.650,37.109,-16.113,20.996,44.922,33.691,0
1488801573.654,41.504,-14.160,29.297,49.316,35.156,0
1488801573.658,34.668,-18.555,26.855,50.293,-7.812,0
1488801573.662,22.461,-31.738,14.160,30.762,12.695,0
1488801573.666,31.738,-24.902,17.578,35.645,55.176,0
1488801573.670,41.992,-17.090,23.438,50.781,73.242,0
1488801573.673,42.480,-15.137,19.531,55.176,31.250,0
1488801573.677,42.969,-8.789,14.648,62.988,9.277,0
1488801573.681,47.852,-1.465,34.180,76.172,37.598,0
1488801573.685,51.758,-2.930,50.293,77.637,36.133,0
1488801573.689,52.734,-3.418,44.922,68.359,42.480,0
1488801573.693,62.988,1.465,39.551,72.266,47.363,0
1488801573.697,74.707,8.789,62.500,83.008,14.648,0
1488801573.701,76.660,9.766,70.312,84.473,-11.719,0
1488801573.705,63.477,-5.859,44.434,68.848,-23.438,0
1488801573.709,61.035,-8.301,37.598,69.824,26.367,0
1488801573.713,65.918,5.371,53.711,83.496,45.898,0
1488801573.716,61.523,8.789,52.246,72.754,11.719,0
1488801573.720,56.641,2.930,41.992,57.129,18.066,0
1488801573.724,55.664,6.348,47.363,60.059,50.293,0
1488801573.728,57.617,14.648,53.223,64.453,30.273,0
1488801573.732,53.223,12.207,41.992,46.875,12.207,0
1488801573.736,54.688,4.395,31.250,36.621,37.598,0
1488801573.740,53.223,6.348,30.762,49.805,32.715,0
1488801573.744,43.457,16.113,38.574,57.129,5.859,0
1488801573.748,41.016,18.066,34.668,41.016,-24.414,0
1488801573.752,37.109,9.277,18.066,22.461,12.207,0
1488801573.755,35.645,11.230,17.578,22.949,18.555,0
1488801573.759,27.344,14.648,20.996,22.461,4.395,0
1488801573.763,14.160,10.742,14.160,15.137,19.531,0
1488801573.767,11.230,6.836,-0.488,4.883,40.527,0
1488801573.771,22.949,17.578,2.441,5.371,43.945,0
1488801573.775,19.043,22.461,0.977,6.836,54.688,0
1488801573.779,6.348,18.066,-1.465,7.324,56.641,0
1488801573.783,2.930,15.137,0.000,6.836,34.668,0
1488801573.787,1.465,17.090,0.488,3.418,50.781,0
1488801573.791,10.742,22.461,6.836,0.977,23.926,0
1488801573.795,10.742,18.555,-2.441,-3.418,4.395,0
1488801573.798,12.207,17.578,-9.277,-6.836,44.434,0
1488801573.802,21.973,32.227,-1.465,-7.812,54.688,0
1488801573.806,16.113,36.621,0.977,1.953,31.738,0
1488801573.810,15.625,36.621,-9.766,4.883,36.621,0
1488801573.814,25.879,41.992,-9.766,-2.930,12.695,0
1488801573.818,28.809,41.504,6.836,0.977,-1.465,0
1488801573.822,29.297,41.992,5.371,0.488,19.531,0
1488801573.826,18.555,40.527,-13.184,-0.977,12.695,0
1488801573.830,6.836,38.086,-13.672,-3.418,-3.906,0
1488801573.834,10.254,43.457,-2.441,-9.277,-11.230,0
1488801573.838,10.254,38.086,-1.465,-9.766,-1.465,0
1488801573.841,2.930,23.926,-9.277,-11.719,18.066,0
1488801573.845,4.395,24.902,-10.254,-11.230,15.137,0
1488801573.849,15.625,30.273,-11.230,-7.812,0.000,0
1488801573.853,20.996,27.832,-20.020,-13.184,-12.207,0
1488801573.857,16.113,27.344,-24.414,-17.090,7.812,0
1488801573.861,11.719,36.133,-16.113,-6.348,18.555,0
1488801573.865,15.625,39.551,-11.719,4.395,-11.230,0
1488801573.869,20.508,31.738,-10.254,2.441,9.277,0
1488801573.873,21.973,26.855,-9.277,1.465,23.926,0
1488801573.877,26.855,32.715,-0.488,21.973,3.906,0
1488801573.880,34.668,30.273,9.277,36.621,23.438,0
1488801573.884,43.945,28.320,5.371,37.598,7.812,0
1488801573.888,42.480,28.320,-4.883,36.621,-0.488,0
1488801573.892,26.367,29.785,3.906,46.387,18.555,0
1488801573.896,22.461,33.691,15.137,57.617,4.883,0
1488801573.900,28.809,22.461,12.207,48.828,-0.977,0
1488801573.904,41.504,20.996,12.695,49.316,45.898,0
1488801573.908,52.734,45.410,27.832,68.359,38.574,0
1488801573.912,50.781,51.270,37.598,77.637,14.160,0
1488801573.916,50.781,38.086,25.391,64.941,-0.488,0
1488801573.920,57.129,38.086,20.020,61.523,3.418,0
1488801573.923,65.430,49.316,23.926,77.148,14.160,0
1488801573.927,67.383,53.223,27.832,88.379,0.000,0
1488801573.931,62.500,41.992,20.996,75.195,2.930,0
1488801573.935,61.523,38.086,16.113,65.918,23.438,0
1488801573.939,70.801,52.734,26.855,76.172,0.977,0
1488801573.943,57.129,47.852,20.020,73.730,-34.668,0
1488801573.947,32.715,27.832,8.301,42.969,-5.371,0
1488801573.951,40.527,32.227,8.301,28.320,25.391,0
1488801573.955,54.199,41.016,0.488,36.621,-3.906,0
1488801573.959,52.734,40.527,-7.324,31.738,-30.762,0
1488801573.963,43.457,32.715,-14.648,10.742,-2.930,0
1488801573.966,35.645,33.203,-19.043,-0.488,-4.395,0
1488801573.970,29.297,36.621,-19.531,4.395,-13.184,0
1488801573.974,28.320,35.645,-19.043,8.789,4.395,0
1488801573.978,26.367,36.621,-15.137,5.859,14.648,0
1488801573.982,22.949,37.598,-16.113,0.977,40.039,0
1488801573.986,30.762,39.062,-14.648,1.953,1.953,0
1488801573.990,26.367,26.855,-18.066,0.977,-2.441,0
1488801573.994,17.578,16.602,-15.137,8.301,29.785,0
1488801573.998,24.902,29.297,-3.418,17.578,3.906,0
1488801574.002,26.855,34.668,3.418,21.484,2.441,0
1488801574.005,15.137,19.043,4.395,24.902,38.574,0
1488801574.009,11.230,15.625,10.254,28.809,24.414,0
1488801574.013,9.766,20.996,9.277,28.809,-16.113,0
1488801574.017,4.883,5.371,-3.418,19.043,18.066,0
1488801574.021,7.812,-3.418,-0.977,15.137,20.020,0
1488801574.025,8.789,-1.465,5.371,28.320,-7.812,0
1488801574.029,19.531,7.324,17.578,48.340,-23.438,0
1488801574.033,28.809,7.812,26.367,51.270,-40.039,0
1488801574.037,31.738,-2.930,11.230,39.551,-7.812,0
1488801574.041,40.039,-1.953,11.230,36.133,34.180,0
1488801574.045,40.039,6.836,22.461,36.621,14.160,0
1488801574.048,40.527,9.766,20.996,34.668,-2.930,0
1488801574.052,49.316,6.836,15.625,33.691,22.461,0
1488801574.056,58.594,14.160,16.113,46.387,27.832,0
1488801574.060,49.805,18.555,23.438,59.570,20.996,0
1488801574.064,49.316,14.160,17.578,50.781,6.348,0
1488801574.068,58.105,10.254,15.625,46.387,-11.719,0
1488801574.072,51.270,13.184,19.043,53.223,-11.719,0
1488801574.076,54.688,20.508,26.367,62.988,-25.391,0
1488801574.080,57.617,6.836,22.949,58.594,-16.113,0
1488801574.084,63.477,-3.418,14.160,46.387,12.207,0
1488801574.088,76.660,13.672,24.902,62.500,7.812,0
1488801574.091,67.871,15.625,30.273,65.430,-3.906,0
1488801574.095,49.805,4.395,18.066,39.062,13.184,0
1488801574.099,38.574,-5.859,5.859,31.250,53.711,0
1488801574.103,48.828,0.977,11.719,40.527,38.086,0
1488801574.107,47.363,2.930,18.555,39.062,-8.301,0
1488801574.111,34.180,-11.230,13.184,34.668,4.395,0
1488801574.115,45.898,-6.836,19.531,44.922,-13.184,0
1488801574.119,56.641,9.766,30.762,70.312,-26.367,0
1488801574.123,40.527,4.883,18.066,69.824,-2.930,0
1488801574.127,27.832,-5.859,18.066,53.711,15.137,0
1488801574.130,41.016,-0.977,38.086,58.105,23.926,0
1488801574.134,49.316,-0.977,34.180,62.012,6.348,0
1488801574.138,50.781,4.395,32.715,71.777,-12.695,0
1488801574.142,47.852,10.742,33.691,80.566,14.160,0
1488801574.146,45.898,6.836,36.621,78.125,21.484,0
