timestamps,TP9,AF7,AF8,TP10,Right AUX,Marker0
1488709412.271,33.203,42.480,-9.766,15.625,36.621,0
1488709412.275,19.043,61.523,-11.719,13.672,4.395,0
1488709412.279,3.418,53.223,26.855,7.812,12.207,0
1488709412.283,0.488,33.691,-51.270,19.043,24.902,0
1488709412.286,41.992,62.988,-20.996,49.316,13.672,0
1488709412.290,59.082,61.523,67.383,51.758,8.789,0
1488709412.294,28.320,-7.324,-9.766,49.805,-17.578,0
1488709412.298,9.766,33.203,-20.996,59.570,12.207,0
1488709412.302,-24.414,90.820,48.828,22.949,64.941,0
1488709412.306,4.883,77.148,52.734,24.902,28.320,0
1488709412.310,28.320,39.551,16.602,53.223,16.113,0
1488709412.314,22.461,55.664,33.203,54.199,51.270,0
1488709412.318,15.625,41.992,47.852,34.180,33.203,0
1488709412.322,14.160,18.555,13.672,29.785,26.855,0
1488709412.326,45.410,34.180,-10.254,48.340,52.246,0
1488709412.329,58.105,23.438,-58.105,48.340,71.777,0
1488709412.333,95.215,61.523,-104.492,92.285,50.781,0
1488709412.337,106.934,97.656,-19.043,104.004,26.367,0
1488709412.341,66.895,70.801,84.473,48.828,47.363,0
1488709412.345,49.316,55.176,77.637,14.160,38.574,0
1488709412.349,60.059,52.734,54.688,43.945,-2.930,0
1488709412.353,71.777,43.945,20.508,58.594,-29.297,0
1488709412.357,67.383,60.059,-1.465,44.922,-12.695,0
1488709412.361,74.707,79.102,-1.953,68.848,46.875,0
1488709412.365,64.453,59.082,-11.719,54.199,56.641,0
1488709412.369,22.949,21.484,-25.879,3.418,16.113,0
1488709412.372,43.945,45.898,-40.527,28.320,29.297,0
1488709412.376,100.098,98.633,-53.223,64.941,41.016,0
1488709412.380,98.145,67.871,-40.039,65.430,22.461,0
1488709412.384,81.543,35.156,20.020,78.613,35.156,0
1488709412.388,72.754,61.523,81.055,63.477,27.832,0
1488709412.392,76.660,112.305,93.750,42.480,29.297,0
1488709412.396,81.543,103.027,31.250,41.992,21.484,0
1488709412.400,40.039,36.133,10.742,20.996,34.180,0
1488709412.404,28.320,22.461,-28.320,11.719,29.297,0
1488709412.408,23.438,10.742,-137.695,7.324,30.273,0
1488709412.411,17.578,29.297,-45.410,9.766,23.438,0
1488709412.415,15.625,57.617,71.777,5.371,-18.066,0
1488709412.419,54.688,115.234,76.660,51.270,20.996,0
1488709412.423,64.941,122.559,61.035,45.898,31.250,0
1488709412.427,23.438,39.062,-24.414,7.812,29.785,0
1488709412.431,26.855,51.270,-72.754,54.199,31.250,0
1488709412.435,1.953,37.598,-62.012,34.180,8.789,0
1488709412.439,-27.344,-25.391,-27.832,-7.324,22.949,0
1488709412.443,-20.020,0.000,23.926,-4.883,40.527,0
1488709412.447,5.859,74.707,49.316,20.020,44.922,0
1488709412.451,6.348,25.391,3.418,21.484,41.504,0
1488709412.454,60.059,34.668,-17.578,58.594,16.113,0
1488709412.458,88.379,107.910,34.668,83.496,10.254,0
1488709412.462,6.348,43.945,-11.230,7.324,23.926,0
1488709412.466,-20.996,4.883,-62.012,1.465,11.719,0
1488709412.470,2.930,21.973,-10.742,34.668,3.418,0
1488709412.474,-11.719,14.160,11.719,-4.395,0.000,0
1488709412.478,-20.020,-1.465,-2.441,-19.043,19.531,0
1488709412.482,13.184,20.020,2.930,16.602,22.949,0
1488709412.486,36.133,31.738,0.000,43.945,3.906,0
1488709412.490,94.238,64.941,17.578,119.629,21.973,0
1488709412.494,102.051,59.082,-7.812,126.953,39.551,0
1488709412.497,30.762,-12.695,-53.223,41.992,40.527,0
1488709412.501,-0.977,-9.766,-25.391,22.949,57.617,0
1488709412.505,-2.441,25.879,67.871,63.965,55.176,0
1488709412.509,-23.438,12.695,108.398,72.754,50.781,0
1488709412.513,15.625,-7.812,61.035,98.633,39.551,0
1488709412.517,62.500,16.113,-17.090,104.980,33.203,0
1488709412.521,24.902,3.906,-10.254,56.152,49.805,0
1488709412.525,65.430,25.879,80.078,96.191,50.781,0
1488709412.529,131.348,82.520,121.582,175.781,59.082,0
1488709412.533,70.312,-3.906,22.461,126.465,6.836,0
1488709412.536,17.090,-43.945,-59.570,52.246,13.184,0
1488709412.540,44.434,-20.996,-22.461,58.594,69.336,0
1488709412.544,66.406,15.137,42.480,83.984,52.734,0
1488709412.548,43.457,62.012,78.125,93.750,30.762,0
1488709412.552,30.273,30.762,66.895,91.797,65.918,0
1488709412.556,71.777,18.555,101.562,102.539,100.098,0
1488709412.560,125.488,77.637,154.297,161.133,50.781,0
1488709412.564,53.711,41.016,83.008,99.121,16.602,0
1488709412.568,-35.645,-18.555,-12.695,-11.230,52.246,0
1488709412.572,-43.457,-7.812,-16.602,-16.113,49.805,0
1488709412.576,-5.371,14.648,-48.340,13.672,49.805,0
1488709412.579,-11.230,15.137,-93.750,-4.395,49.316,0
1488709412.583,-14.160,-5.371,-45.898,3.418,19.531,0
1488709412.587,65.430,48.340,73.730,94.238,26.855,0
1488709412.591,45.410,86.914,94.727,69.824,38.086,0
1488709412.595,-44.922,38.574,-49.805,-50.293,53.711,0
1488709412.599,-41.504,16.602,-68.848,-41.016,81.543,0
1488709412.603,-20.020,2.930,-1.465,12.695,81.055,0
1488709412.607,-20.996,41.504,-1.953,0.488,83.008,0
1488709412.611,-23.438,70.312,-4.883,-29.297,66.895,0
1488709412.615,-38.574,66.406,32.227,-49.805,67.383,0
1488709412.619,-24.902,48.828,69.336,-33.203,63.965,0
1488709412.622,3.418,30.762,56.152,-4.395,35.156,0
1488709412.626,22.461,62.988,32.715,19.043,34.180,0
1488709412.630,26.367,27.344,-34.668,19.531,70.312,0
1488709412.634,21.484,8.789,-38.574,23.438,77.148,0
1488709412.638,28.320,75.684,16.113,29.297,58.594,0
1488709412.642,-7.812,62.012,29.297,-15.625,45.898,0
1488709412.646,-30.762,37.109,28.320,-15.137,45.898,0
1488709412.650,-0.488,54.688,10.254,36.133,40.039,0
1488709412.654,19.043,28.809,34.180,49.805,37.109,0
1488709412.658,83.984,26.855,83.496,113.281,61.523,0
1488709412.661,94.727,45.410,48.828,103.027,82.520,0
1488709412.665,34.180,46.875,4.395,13.184,62.012,0
1488709412.669,-21.484,25.879,20.996,-36.621,48.340,0
1488709412.673,0.000,13.184,5.371,-3.906,56.152,0
1488709412.677,83.496,60.547,-22.461,66.406,43.457,0
1488709412.681,77.637,67.383,24.902,45.410,38.574,0
1488709412.685,30.762,44.434,89.844,35.156,41.992,0
1488709412.689,48.828,50.293,69.336,72.266,45.410,0
1488709412.693,88.867,83.984,-7.324,76.172,32.227,0
1488709412.697,20.996,38.574,-24.902,7.324,15.625,0
1488709412.701,-36.133,-3.906,23.438,-13.672,9.766,0
1488709412.704,-7.812,26.367,76.660,28.320,43.945,0
1488709412.708,6.836,54.688,88.379,37.598,36.621,0
1488709412.712,47.852,60.059,53.711,71.777,-15.137,0
1488709412.716,71.289,73.730,19.043,88.379,12.695,0
1488709412.720,42.969,97.168,-14.160,42.969,71.289,0
1488709412.724,60.547,73.242,-23.926,64.453,41.504,0
1488709412.728,19.043,0.000,-18.555,71.289,0.488,0
1488709412.732,-52.734,-1.465,23.926,20.020,14.648,0
1488709412.736,-26.855,44.434,35.156,20.996,17.578,0
1488709412.740,39.062,48.828,58.594,57.617,-4.395,0
1488709412.744,104.004,66.895,107.910,111.328,-6.836,0
1488709412.747,102.051,73.730,129.883,124.023,1.465,0
1488709412.751,25.391,34.180,81.055,52.246,10.742,0
1488709412.755,-1.465,-9.766,-7.812,-1.465,25.879,0
1488709412.759,63.965,22.461,-12.695,49.316,16.602,0
1488709412.763,118.652,47.363,20.020,97.656,11.230,0
1488709412.767,100.586,29.297,32.227,115.234,18.555,0
1488709412.771,62.988,47.363,12.695,95.703,-0.488,0
1488709412.775,28.320,38.574,31.738,36.621,9.766,0
1488709412.779,-3.418,20.996,22.949,10.254,40.039,0
1488709412.783,51.758,44.434,47.852,57.617,29.785,1
1488709412.786,107.910,73.242,82.031,111.816,-7.812,0
1488709412.790,58.105,45.898,10.742,61.523,-21.973,0
1488709412.794,39.551,43.457,2.441,20.996,37.109,0
1488709412.798,9.766,47.852,22.461,0.000,41.504,0
1488709412.802,-6.836,14.160,-1.953,-12.695,-2.441,0
1488709412.806,23.438,-28.320,-18.066,27.832,-7.324,0
1488709412.810,22.461,-11.719,12.207,45.410,3.906,0
1488709412.814,21.973,40.527,14.648,23.926,27.832,0
1488709412.818,36.133,54.199,6.836,31.250,11.719,0
1488709412.822,65.430,104.980,27.832,74.707,-24.902,0
1488709412.826,62.988,95.215,41.504,79.102,18.066,0
1488709412.829,11.719,1.465,0.488,17.578,21.973,0
1488709412.833,-23.926,-33.203,-18.555,-22.461,11.719,0
1488709412.837,-6.348,-14.160,15.625,-0.488,30.762,0
1488709412.841,26.855,52.246,29.297,32.715,43.457,0
1488709412.845,-12.207,63.477,5.371,17.090,44.434,0
1488709412.849,-36.133,29.785,16.113,-0.977,49.316,0
1488709412.853,38.574,84.961,86.426,62.500,53.223,0
1488709412.857,40.039,81.055,67.871,63.965,25.879,0
1488709412.861,41.016,41.504,-30.273,56.641,-9.277,0
1488709412.865,81.055,48.828,-6.836,86.914,-6.836,0
1488709412.869,40.039,13.672,6.348,46.387,30.762,0
1488709412.872,54.199,28.809,10.742,38.574,17.090,0
1488709412.876,76.660,68.359,23.438,44.922,7.812,0
1488709412.880,52.246,85.938,14.648,26.367,20.508,0
1488709412.884,70.801,101.562,17.578,58.594,15.625,0
1488709412.888,77.148,88.379,4.883,58.594,16.113,0
1488709412.892,38.086,79.590,-30.273,19.531,13.184,0
1488709412.896,-12.695,48.340,-28.809,-2.441,0.488,0
1488709412.900,27.344,40.527,32.227,26.367,2.441,0
1488709412.904,71.289,52.246,17.090,64.941,13.184,0
1488709412.908,28.320,42.969,-8.301,39.551,-2.930,0
1488709412.911,-38.086,17.578,6.348,-20.020,-11.719,0
1488709412.915,-28.320,14.160,-30.762,-9.277,2.930,0
1488709412.919,45.898,61.523,-19.531,61.523,-13.672,0
1488709412.923,0.488,29.297,15.625,20.996,-26.855,0
1488709412.927,-49.805,-9.277,36.621,-23.926,9.277,0
1488709412.931,-6.348,33.691,23.438,-3.418,28.320,0
1488709412.935,44.434,67.871,-9.766,23.926,11.230,0
1488709412.939,77.637,61.035,30.273,58.594,-0.977,0
1488709412.943,61.035,27.344,33.691,37.598,16.602,0
1488709412.947,63.965,25.391,43.945,52.246,43.457,0
1488709412.951,85.449,47.852,28.320,99.609,13.672,0
1488709412.954,70.801,47.852,-42.480,90.820,-12.207,0
1488709412.958,30.273,32.715,-48.340,42.480,12.207,0
1488709412.962,23.438,47.852,1.953,43.945,24.902,0
1488709412.966,0.488,51.758,16.113,40.527,18.555,0
1488709412.970,-35.156,35.156,21.973,4.883,-5.859,0
1488709412.974,-3.906,18.555,60.059,39.062,-4.395,0
1488709412.978,54.199,36.621,114.258,96.680,14.648,0
1488709412.982,32.227,40.527,73.242,49.805,1.465,0
1488709412.986,-25.879,-1.953,-0.977,-19.531,-11.230,0
1488709412.990,-8.301,-0.977,-17.090,28.809,-1.465,0
1488709412.994,2.441,26.367,10.742,62.012,-16.113,0
1488709412.997,-20.996,34.668,53.711,49.316,-18.066,0
1488709413.001,7.812,28.809,32.227,42.969,7.324,0
1488709413.005,25.879,18.066,-41.504,30.762,24.902,0
1488709413.009,26.855,49.316,-54.688,51.758,25.879,0
1488709413.013,6.348,57.617,20.020,39.062,6.348,0
1488709413.017,-34.180,19.043,35.156,-12.207,-3.418,0
1488709413.021,24.414,59.082,56.152,30.273,30.273,0
1488709413.025,90.820,112.793,51.758,98.145,35.156,0
1488709413.029,76.172,86.914,9.766,76.660,30.273,0
1488709413.033,36.133,33.691,30.273,31.250,51.758,0
1488709413.036,53.223,13.672,-4.883,50.781,13.184,0
1488709413.040,56.641,9.766,-35.156,60.059,-20.020,0
1488709413.044,0.977,58.105,-11.230,9.277,-19.531,0
1488709413.048,-13.184,114.258,-2.930,-2.930,-5.371,0
1488709413.052,17.578,119.629,27.344,31.250,2.441,0
1488709413.056,55.664,93.262,46.875,74.707,-45.410,0
1488709413.060,33.691,55.176,22.461,44.434,-74.707,0
1488709413.064,16.602,68.359,47.363,24.902,-62.988,0
1488709413.068,-5.371,62.012,-10.254,22.461,-23.926,0
1488709413.072,14.160,39.551,-49.316,36.621,-8.789,0
1488709413.076,37.109,13.672,21.484,29.785,-13.672,0
1488709413.079,-6.836,-13.672,12.207,-2.441,-0.488,0
1488709413.083,-24.414,4.883,-13.184,-4.395,-20.020,0
1488709413.087,-6.836,-14.648,21.484,0.488,-20.508,0
1488709413.091,46.875,7.812,62.012,63.477,-19.043,0
1488709413.095,43.945,66.406,37.109,85.449,-6.836,0
1488709413.099,55.664,83.984,50.293,88.379,-2.930,0
1488709413.103,56.152,88.867,94.238,85.938,-38.086,0
1488709413.107,-14.160,42.480,0.488,15.625,-19.043,0
1488709413.111,-18.555,29.297,-78.125,3.906,13.184,0
1488709413.115,9.277,36.621,-1.953,28.809,-30.762,0
1488709413.119,54.199,37.598,93.750,54.688,-43.945,0
1488709413.122,31.250,10.254,48.340,50.293,-25.879,0
1488709413.126,17.090,15.137,-12.695,48.340,-14.160,0
1488709413.130,8.789,33.203,-20.996,41.504,-30.762,0
1488709413.134,9.277,-2.441,-20.020,38.574,-44.922,0
1488709413.138,91.309,60.547,80.566,106.934,-31.738,0
1488709413.142,87.402,82.031,144.043,94.238,-56.152,0
1488709413.146,-11.719,1.953,83.984,4.395,-69.824,0
1488709413.150,-63.477,-7.812,-30.762,-24.414,-67.383,0
1488709413.154,-15.137,28.809,-62.988,12.207,-40.527,0
1488709413.158,-4.395,22.949,-8.301,-3.906,-53.223,0
1488709413.161,8.789,25.879,28.809,-3.418,-56.152,0
1488709413.165,54.199,18.066,20.508,42.480,-37.598,0
1488709413.169,50.781,41.504,-20.020,31.250,-21.484,0
1488709413.173,20.020,93.262,8.789,22.949,-23.926,0
1488709413.177,7.812,71.777,36.133,14.160,-29.785,0
1488709413.181,54.688,70.312,40.039,28.809,-19.531,0
1488709413.185,66.895,86.914,39.062,47.852,-7.812,0
1488709413.189,5.371,25.879,-1.465,0.977,-12.695,0
1488709413.193,2.930,-18.555,-8.789,-9.766,-19.043,0
1488709413.197,18.555,7.812,42.480,21.973,-10.742,0
1488709413.201,-5.371,47.852,50.293,30.273,-13.672,0
1488709413.204,6.348,62.012,21.973,13.184,-35.156,0
1488709413.208,17.578,21.484,14.160,12.207,-54.688,0
1488709413.212,53.223,69.824,66.895,52.734,-52.246,0
1488709413.216,91.797,99.121,20.508,94.727,-12.695,0
1488709413.220,55.176,43.457,-21.973,61.523,-19.531,0
1488709413.224,-8.301,-1.465,33.203,0.000,-62.988,0
1488709413.228,-2.930,6.348,40.039,3.906,-22.461,0
1488709413.232,32.715,69.336,42.969,25.391,-2.930,0
1488709413.236,10.254,38.086,38.574,19.531,-31.250,0
1488709413.240,14.160,11.230,42.480,39.551,-41.016,0
1488709413.244,30.762,28.809,2.930,62.988,-16.602,0
1488709413.247,23.438,35.645,-13.672,43.945,21.484,0
1488709413.251,48.828,39.062,63.965,45.410,-10.742,0
1488709413.255,79.102,57.617,52.734,59.570,-41.992,0
1488709413.259,36.621,56.641,3.906,50.293,-15.137,0
1488709413.263,-21.484,19.043,30.273,34.180,-40.039,0
1488709413.267,-52.734,-0.488,48.340,3.418,-65.918,0
1488709413.271,6.348,13.672,73.730,28.809,-33.203,0
1488709413.275,66.406,41.992,4.883,43.945,-16.113,0
1488709413.279,50.781,45.898,-41.504,46.387,-27.344,0
1488709413.283,48.340,39.062,34.668,88.867,-23.926,0
1488709413.286,28.320,47.852,11.230,83.496,-6.348,0
1488709413.290,23.438,38.574,0.977,49.316,15.625,0
1488709413.294,26.855,8.301,33.203,13.184,-19.043,0
1488709413.298,89.355,62.012,49.805,66.406,-12.695,0
1488709413.302,115.723,74.707,27.832,93.262,-11.719,0
1488709413.306,60.547,32.715,23.438,39.062,-4.395,0
1488709413.310,73.730,61.523,82.031,57.129,-15.625,0
1488709413.314,37.109,47.363,60.547,40.527,-32.227,0
1488709413.318,10.742,17.090,44.434,29.785,-2.441,0
1488709413.322,71.777,54.199,39.062,80.566,-19.531,0
1488709413.326,75.684,62.012,-17.090,69.336,-24.414,0
1488709413.329,46.387,21.973,-31.738,35.645,-35.156,0
1488709413.333,51.270,2.441,19.531,30.273,-2.441,0
1488709413.337,89.355,57.617,59.570,74.707,44.434,0
1488709413.341,80.078,104.004,84.961,82.520,34.668,0
1488709413.345,28.320,68.848,93.262,42.480,12.207,0
1488709413.349,27.832,8.301,94.727,37.598,25.879,0
1488709413.353,26.855,-16.113,56.152,47.852,23.438,0
1488709413.357,18.066,27.344,46.387,34.668,8.301,0
1488709413.361,3.418,42.969,41.992,-8.789,43.945,0
1488709413.365,30.273,37.109,14.648,13.672,56.641,0
1488709413.369,45.410,31.250,-12.207,49.316,17.578,0
1488709413.372,9.277,32.715,-5.371,38.086,-26.855,0
1488709413.376,9.766,50.293,54.199,42.480,-43.457,0
1488709413.380,62.012,39.551,47.363,89.844,-8.301,0
1488709413.384,86.426,16.113,-3.418,75.684,-9.277,0
1488709413.388,49.316,48.340,24.414,29.785,-30.762,0
1488709413.392,57.129,97.168,100.586,59.570,-15.137,0
1488709413.396,44.434,66.406,74.707,34.180,14.648,0
1488709413.400,20.020,16.602,7.324,-16.602,18.066,0
1488709413.404,55.664,14.160,-64.941,21.973,13.184,0
1488709413.408,68.359,-19.043,-103.516,55.176,-7.812,0
1488709413.411,26.855,-23.438,-10.742,39.551,2.930,0
1488709413.415,17.578,40.527,99.609,54.199,-1.953,0
1488709413.419,25.391,80.078,83.984,46.387,-13.184,0
1488709413.423,31.738,43.457,34.668,0.000,26.367,0
1488709413.427,53.711,22.949,40.039,9.277,38.574,0
1488709413.431,59.570,55.176,68.848,43.457,32.227,0
1488709413.435,44.434,64.941,24.414,37.598,23.926,0
1488709413.439,1.953,6.348,-37.109,2.930,52.734,0
1488709413.443,1.953,-9.277,-36.621,8.301,52.734,0
1488709413.447,20.996,44.434,3.418,18.555,32.227,0
1488709413.451,6.348,36.133,56.641,12.207,43.457,0
1488709413.454,6.836,11.719,34.668,34.668,57.129,0
1488709413.458,20.508,-10.254,13.184,45.898,52.246,0
1488709413.462,41.016,-4.883,-10.742,40.527,22.461,0
1488709413.466,66.406,44.922,-32.715,51.758,24.414,0
1488709413.470,35.645,13.184,10.254,44.434,43.457,0
1488709413.474,40.039,13.672,80.078,52.734,45.898,0
1488709413.478,57.617,72.754,85.449,78.613,-4.395,0
1488709413.482,23.438,41.504,37.598,57.617,6.836,0
1488709413.486,47.852,52.246,28.320,80.566,53.711,0
1488709413.490,56.641,65.430,9.277,73.730,21.973,0
1488709413.494,29.785,31.250,-11.719,36.133,-24.902,0
1488709413.497,59.082,18.066,-21.484,39.062,-14.648,0
1488709413.501,62.988,41.504,-27.832,54.688,23.438,0
1488709413.505,33.203,43.945,-37.598,55.176,13.672,0
1488709413.509,22.949,17.578,-8.301,54.199,14.648,0
1488709413.513,35.156,44.922,64.453,87.402,55.176,0
1488709413.517,36.133,35.156,92.285,77.637,56.152,0
1488709413.521,35.645,-16.602,32.715,24.414,15.137,0
1488709413.525,104.492,25.391,-35.645,69.336,-14.160,0
1488709413.529,120.117,86.426,-64.941,90.332,14.160,0
1488709413.533,41.504,108.398,-12.207,46.387,22.949,0
1488709413.536,20.020,78.613,55.176,57.129,33.691,0
1488709413.540,23.926,-4.883,49.805,45.410,78.125,0
1488709413.544,14.160,1.953,34.668,13.184,73.242,0
1488709413.548,71.777,75.195,50.781,35.645,36.621,0
1488709413.552,89.844,55.664,-31.250,27.832,34.180,0
1488709413.556,38.574,25.391,-73.242,1.465,56.152,0
1488709413.560,0.000,36.621,7.324,20.020,69.824,0
1488709413.564,38.574,51.270,31.738,85.449,49.805,0
1488709413.568,74.707,61.523,39.062,94.238,21.973,0
1488709413.572,39.062,41.504,36.133,21.973,69.336,0
1488709413.576,12.695,19.531,33.203,-11.230,99.609,0
1488709413.579,31.250,40.039,-24.414,25.879,89.355,0
1488709413.583,33.691,42.480,-65.918,55.176,73.730,0
1488709413.587,34.180,36.621,-33.691,29.297,100.586,0
1488709413.591,51.270,53.223,21.484,27.344,137.207,0
1488709413.595,-20.996,-23.926,53.711,11.719,119.141,0
1488709413.599,-62.988,-29.297,67.383,2.930,106.445,0
1488709413.603,-35.645,44.434,57.617,-14.160,105.469,0
1488709413.607,7.324,66.406,19.531,-0.977,117.188,0
1488709413.611,32.715,53.711,22.949,46.387,107.422,0
1488709413.615,47.852,42.969,19.043,56.152,103.027,0
1488709413.619,52.734,49.805,-37.598,59.570,114.258,0
1488709413.622,46.875,51.758,-34.180,58.594,125.000,0
1488709413.626,41.016,52.246,45.898,61.035,121.094,0
1488709413.630,35.645,46.875,73.242,66.895,104.004,0
1488709413.634,71.777,38.574,31.738,56.641,129.395,0
1488709413.638,107.422,67.383,-10.254,85.449,129.395,0
1488709413.642,51.758,44.434,-32.227,49.316,129.395,0
1488709413.646,-5.859,-9.766,-29.785,5.371,121.582,0
1488709413.650,-31.250,-9.277,-14.160,9.277,141.602,0
1488709413.654,-24.902,8.789,53.223,25.879,156.738,0
1488709413.658,30.762,25.879,85.449,53.711,119.629,0
1488709413.661,74.707,33.203,23.926,74.707,125.977,0
1488709413.665,81.055,69.336,8.789,82.520,159.668,0
1488709413.669,15.137,63.965,54.199,41.016,152.832,0
1488709413.673,-14.160,9.766,65.918,23.438,132.324,0
1488709413.677,17.090,-0.488,62.500,49.805,146.973,0
1488709413.681,25.391,-2.930,47.852,49.805,169.922,0
1488709413.685,41.504,-4.395,10.254,41.504,141.602,0
1488709413.689,34.180,11.719,19.043,33.691,109.863,0
1488709413.693,3.418,20.508,36.133,0.977,123.047,0
1488709413.697,22.461,48.828,-42.969,27.832,121.582,0
1488709413.701,49.316,70.312,-73.242,102.051,109.863,0
1488709413.704,-1.465,-5.859,8.301,94.727,112.305,0
1488709413.708,-19.043,-10.254,66.895,73.730,154.785,0
1488709413.712,-8.789,45.410,68.359,34.668,181.641,0
1488709413.716,3.906,67.383,45.898,-21.484,140.137,0
1488709413.720,58.105,100.586,66.406,12.207,143.555,0
1488709413.724,28.809,60.059,39.062,25.391,182.129,0
1488709413.728,-2.930,10.254,-10.254,-10.254,193.848,0
1488709413.732,11.230,19.531,-21.484,20.996,185.547,0
1488709413.736,1.953,18.066,-28.809,58.105,192.383,0
1488709413.740,20.508,8.789,-4.883,43.945,192.383,0
1488709413.744,41.504,39.551,32.715,27.832,194.336,0
1488709413.747,16.113,10.254,4.395,28.320,169.922,0
1488709413.751,27.832,33.691,23.438,119.629,141.113,0
1488709413.755,-7.324,38.086,46.875,83.008,181.152,0
1488709413.759,-20.996,18.555,10.742,1.953,217.773,0
1488709413.763,25.391,5.371,17.090,1.953,206.055,0
1488709413.767,2.441,-46.875,16.602,-30.762,197.266,0
1488709413.771,-0.488,7.324,14.648,-33.203,204.102,0
1488709413.775,-9.766,37.598,-17.090,-10.742,163.574,0
1488709413.779,-35.645,43.945,-60.547,20.508,158.691,0
1488709413.783,3.418,47.852,-44.434,23.438,201.660,0
1488709413.786,40.039,39.062,38.574,34.668,201.660,0
1488709413.790,22.461,35.645,54.688,59.570,169.434,0
1488709413.794,26.855,22.461,25.879,48.340,171.387,0
1488709413.798,-1.953,-3.418,-7.324,14.160,208.008,0
1488709413.802,30.762,30.273,-49.316,52.734,208.008,0
1488709413.806,105.469,84.473,-56.152,89.844,204.590,0
1488709413.810,20.508,37.109,-14.648,18.555,194.336,0
1488709413.814,-59.082,-6.348,51.758,-30.273,198.730,0
1488709413.818,-41.504,3.418,14.648,-14.160,253.418,0
1488709413.822,7.324,36.621,-36.133,15.137,272.949,0
1488709413.826,73.242,59.570,34.668,40.527,238.281,0
1488709413.829,27.344,39.551,69.824,32.227,264.648,0
1488709413.833,-44.922,38.086,-5.371,12.695,300.293,0
1488709413.837,-49.805,55.664,-97.168,28.809,288.574,0
1488709413.841,-21.973,79.590,10.254,59.570,306.152,0
1488709413.845,11.719,57.617,73.730,38.086,344.238,0
1488709413.849,7.812,27.832,7.324,-13.184,352.051,0
1488709413.853,-29.297,19.531,48.828,-17.090,304.199,0
1488709413.857,-110.352,-18.555,25.879,-8.789,306.641,0
1488709413.861,-56.641,-25.879,-48.340,1.465,357.422,0
1488709413.865,67.871,13.184,-66.406,66.895,370.605,0
1488709413.869,41.992,29.785,-50.293,88.379,380.859,0
1488709413.872,-15.625,36.621,23.926,38.574,368.164,0
1488709413.876,-33.691,46.387,59.570,6.836,375.977,0
1488709413.880,-33.691,89.844,131.348,52.734,411.133,0
1488709413.884,12.695,70.801,162.598,101.074,402.344,0
1488709413.888,-25.391,0.977,33.691,19.043,433.105,0
1488709413.892,-41.992,0.977,-14.160,-24.414,502.441,0
1488709413.896,11.230,-5.371,-39.551,10.742,492.188,0
1488709413.900,-16.602,-26.367,-54.199,3.906,461.426,0
1488709413.904,-153.809,-39.062,0.488,-29.297,500.977,0
1488709413.908,-142.578,-19.531,63.965,8.789,522.461,0
1488709413.911,35.645,48.828,90.820,56.641,506.348,0
1488709413.915,34.180,84.961,79.590,13.672,501.465,0
1488709413.919,-160.156,15.625,21.484,-38.086,507.812,0
1488709413.923,-120.605,-44.434,-10.254,14.648,501.953,0
1488709413.927,90.820,37.109,54.199,131.836,492.676,0
1488709413.931,-32.227,24.902,33.203,33.203,466.309,0
1488709413.935,-186.035,-81.543,-29.297,-20.508,479.004,0
1488709413.939,-136.230,-42.969,12.207,42.969,449.707,0
1488709413.943,-114.746,51.758,90.820,38.086,346.191,0
1488709413.947,-101.074,62.012,108.887,38.574,351.562,0
1488709413.951,-94.727,50.293,99.121,40.527,377.441,0
1488709413.954,-111.816,22.461,90.820,77.148,325.684,0
1488709413.958,-88.867,-6.348,-36.621,104.492,277.832,0
1488709413.962,3.906,-24.414,-109.375,76.172,255.859,0
1488709413.966,-22.461,-30.762,80.566,96.680,233.398,0
1488709413.970,-187.500,-40.039,116.699,115.234,198.242,0
1488709413.974,-98.633,-14.648,88.379,111.328,150.879,0
1488709413.978,25.879,-12.695,142.578,123.535,119.141,0
1488709413.982,-17.090,23.926,48.340,155.273,106.445,0
1488709413.986,-82.031,41.016,4.883,117.188,60.059,0
1488709413.990,-108.887,-23.438,62.988,58.105,-12.207,0
1488709413.994,-36.621,0.488,112.305,120.605,-5.859,0
1488709413.997,5.859,11.719,44.434,166.992,9.766,0
1488709414.001,-29.785,-21.484,-34.668,157.227,-28.809,0
1488709414.005,-54.199,5.371,25.879,175.293,-51.758,0
1488709414.009,-27.344,82.520,87.402,181.152,-85.449,0
1488709414.013,-29.297,22.949,40.039,175.293,-128.418,0
1488709414.017,-79.102,-7.812,-22.461,176.758,-172.363,0
1488709414.021,-98.633,27.832,-45.898,166.992,-216.309,0
1488709414.025,3.906,41.016,-42.480,198.242,-270.508,0
1488709414.029,62.988,70.801,84.473,240.234,-348.145,0
1488709414.033,-80.566,17.090,129.883,220.703,-310.059,0
1488709414.036,-119.141,41.016,45.898,227.051,-262.695,0
1488709414.040,82.520,78.613,79.102,266.602,-293.457,0
1488709414.044,79.590,-21.973,30.273,223.145,-283.203,0
1488709414.048,-147.461,-76.172,-139.648,150.391,-231.934,0
1488709414.052,-175.781,-21.484,-56.152,173.828,-204.590,0
1488709414.056,-69.824,27.832,41.016,206.543,-170.410,2
1488709414.060,-7.812,45.898,-29.297,189.453,-163.086,0
1488709414.064,55.664,4.395,26.855,202.148,-135.742,0
1488709414.068,47.363,35.645,121.582,257.812,-106.445,0
1488709414.072,-43.945,61.523,104.004,248.535,-106.445,0
1488709414.076,-62.012,2.930,45.410,166.504,-74.219,0
1488709414.079,14.160,4.883,-58.105,160.156,-87.402,0
1488709414.083,1.953,-12.695,-112.305,182.617,-47.363,0
1488709414.087,-30.273,-28.320,-51.758,217.773,-43.945,0
1488709414.091,8.301,-31.738,-11.230,255.371,-61.035,0
1488709414.095,3.906,3.906,39.062,251.465,-41.016,0
1488709414.099,0.488,56.152,68.848,213.379,-19.043,0
1488709414.103,62.012,43.945,69.824,195.312,-31.738,0
1488709414.107,121.582,21.973,32.227,205.566,-55.176,0
1488709414.111,135.254,20.508,4.395,279.785,-35.645,0
1488709414.115,18.066,16.602,37.598,270.996,9.277,0
1488709414.119,-21.484,29.297,33.691,166.504,25.391,0
1488709414.122,15.625,33.691,-84.473,144.531,45.898,0
1488709414.126,1.953,26.367,-106.934,162.598,100.098,0
1488709414.130,21.973,8.789,-14.648,136.230,87.402,0
1488709414.134,11.719,2.930,-3.418,143.066,50.293,0
1488709414.138,28.809,6.348,-26.855,187.012,34.180,0
1488709414.142,83.984,42.969,-2.441,146.484,66.406,0
1488709414.146,47.852,34.180,26.855,105.957,106.445,0
1488709414.150,0.977,0.000,-21.484,105.957,64.941,0
1488709414.154,-1.953,35.156,-45.410,105.469,48.828,0
1488709414.158,-8.301,-47.363,-41.504,67.871,88.867,0
1488709414.161,-9.766,-44.922,-34.180,74.707,83.984,0
1488709414.165,-35.156,48.340,-40.039,107.422,55.176,0
1488709414.169,-32.227,22.949,-84.473,86.914,22.461,0
1488709414.173,-19.531,-13.184,-69.336,69.336,49.805,0
1488709414.177,38.574,-18.066,-17.090,117.188,79.102,0
1488709414.181,88.379,41.992,20.996,168.457,59.570,0
1488709414.185,-24.902,57.129,12.695,149.414,47.363,0
1488709414.189,-92.773,21.484,-20.508,91.309,51.758,0
1488709414.193,-36.133,-20.020,-38.574,37.598,25.391,0
1488709414.197,-1.953,-20.996,-37.109,50.293,-25.391,0
1488709414.201,18.066,53.223,8.789,139.648,-38.574,0
1488709414.204,-37.598,12.207,5.371,124.023,-26.855,0
1488709414.208,-0.488,-35.156,1.953,93.262,-49.316,0
1488709414.212,58.594,-7.324,20.996,101.562,-12.695,0
1488709414.216,-21.484,26.367,-33.691,96.191,-2.930,0
1488709414.220,-45.410,41.504,-53.711,73.730,-24.902,0
1488709414.224,25.879,-30.762,-87.891,66.406,20.508,0
1488709414.228,59.570,-40.527,-106.934,125.488,-40.039,0
1488709414.232,-9.766,26.367,-25.879,83.496,-49.316,0
1488709414.236,-22.461,73.730,49.805,49.316,3.906,0
1488709414.240,-2.441,56.641,67.871,60.059,-50.781,0
1488709414.244,-28.320,-15.625,12.207,15.625,-40.527,0
1488709414.247,-59.570,-20.020,-29.297,25.391,-56.152,0
1488709414.251,-35.156,-2.930,-29.785,50.781,-98.145,0
1488709414.255,-51.758,-10.254,-45.410,28.320,-39.551,0
1488709414.259,-89.355,-16.602,-67.871,33.691,-29.297,0
1488709414.263,-33.203,0.000,-94.238,52.246,-96.680,0
1488709414.267,12.695,13.184,-65.430,57.617,-96.680,0
1488709414.271,50.781,33.203,30.762,60.059,-80.078,0
1488709414.275,63.965,55.664,71.777,53.711,-117.188,0
1488709414.279,-44.922,11.719,-3.906,21.973,-121.094,0
1488709414.283,-99.121,-18.555,-22.461,29.297,-54.688,0
1488709414.286,-33.203,-23.926,-9.766,43.945,-1.953,0
1488709414.290,51.758,-11.230,-16.113,55.664,-4.395,0
1488709414.294,59.082,18.066,-7.812,83.496,-40.039,0
1488709414.298,13.184,18.555,17.578,102.539,-65.430,0
1488709414.302,-20.996,-12.207,28.809,72.754,-24.902,0
1488709414.306,-41.992,3.906,22.461,47.363,-41.992,0
1488709414.310,-55.176,0.488,-10.742,54.199,-95.215,0
1488709414.314,7.324,0.000,-44.434,78.613,-87.891,0
1488709414.318,83.496,10.254,-35.156,119.141,-40.039,0
1488709414.322,0.977,-20.508,-40.527,95.703,-10.254,0
1488709414.326,-76.660,-28.320,-31.250,15.137,-59.082,0
1488709414.329,-40.527,12.207,30.273,0.977,-50.293,0
1488709414.333,-25.391,35.645,46.387,20.508,-5.371,0
1488709414.337,-17.578,49.316,-48.828,35.645,-10.742,0
1488709414.341,-19.043,62.988,-107.422,60.547,-30.273,0
1488709414.345,-27.344,20.996,-26.367,40.039,-66.406,0
1488709414.349,-11.719,-24.414,15.137,14.160,-87.402,0
1488709414.353,-14.648,-11.230,-23.926,29.297,-61.035,0
1488709414.357,-25.391,-2.441,-13.672,20.020,-21.484,0
1488709414.361,0.488,38.574,35.156,26.855,-5.371,0
1488709414.365,4.395,51.758,33.203,21.484,-18.066,0
1488709414.369,-0.488,18.555,-18.066,12.207,-49.805,0
1488709414.372,91.309,36.621,-8.789,54.199,-53.711,0
1488709414.376,46.387,-5.371,-21.973,50.781,-60.059,0
1488709414.380,-54.688,-27.344,-29.297,38.574,-84.473,0
1488709414.384,0.000,24.414,2.930,42.969,-100.098,0
1488709414.388,66.406,27.832,23.438,46.387,-101.074,0
1488709414.392,96.191,39.551,34.180,111.328,-128.906,0
1488709414.396,104.492,29.785,34.180,115.723,-106.445,0
1488709414.400,66.406,-20.508,38.574,52.246,-56.152,0
1488709414.404,61.035,30.762,62.012,71.289,-50.293,0
1488709414.408,77.148,81.055,28.809,82.031,-62.012,0
1488709414.411,77.148,58.594,-92.773,92.773,-68.359,0
1488709414.415,66.895,37.109,-31.738,92.773,-7.812,0
1488709414.419,45.410,17.578,105.469,57.617,-20.996,0
1488709414.423,34.180,-17.578,20.020,21.484,-101.562,0
1488709414.427,59.082,3.418,-24.902,26.855,-87.891,0
1488709414.431,36.621,39.062,22.461,27.832,-83.984,0
1488709414.435,17.090,30.762,49.805,-3.906,-80.078,0
1488709414.439,69.824,44.922,35.156,15.137,-37.109,0
1488709414.443,76.660,56.152,-57.617,35.156,-79.590,0
1488709414.447,36.621,48.340,-48.340,34.180,-123.047,0
1488709414.451,81.543,50.781,59.082,49.805,-66.406,0
1488709414.454,91.797,56.152,67.383,34.180,-64.941,0
1488709414.458,25.391,28.320,18.555,6.836,-85.449,0
1488709414.462,73.730,31.738,7.812,68.359,-59.570,0
1488709414.466,148.438,41.016,-22.461,118.164,-46.875,0
1488709414.470,83.984,-2.441,-44.434,47.852,-35.645,0
1488709414.474,20.508,13.672,-28.809,-41.016,-58.105,0
1488709414.478,46.875,45.410,-12.207,-54.688,-85.449,0
1488709414.482,87.891,34.180,21.973,-14.160,-76.172,0
1488709414.486,89.844,45.410,19.531,35.156,-38.086,0
1488709414.490,54.199,65.430,41.016,43.457,-31.738,0
1488709414.494,62.012,59.570,99.609,26.367,-30.762,0
1488709414.497,83.496,34.180,57.129,25.391,-66.895,0
1488709414.501,38.574,35.645,-25.391,35.156,-60.547,0
1488709414.505,40.039,45.410,-31.738,61.523,-22.949,0
1488709414.509,44.434,-24.414,9.766,66.895,-48.828,0
1488709414.513,17.578,-16.113,30.762,42.969,-70.312,0
1488709414.517,20.020,11.719,7.324,0.000,-61.035,0
1488709414.521,40.527,-13.184,15.137,5.859,-41.992,0
1488709414.525,33.691,-2.441,45.410,22.949,-62.012,0
1488709414.529,37.598,25.879,5.371,24.902,-66.406,0
1488709414.533,69.824,41.504,-39.062,35.645,-53.711,0
1488709414.536,66.406,35.645,-27.832,51.270,-63.477,0
1488709414.540,73.730,34.180,12.207,80.566,-33.203,0
1488709414.544,19.531,-13.672,43.945,43.457,-21.484,0
1488709414.548,3.418,17.090,66.406,27.832,-26.855,0
1488709414.552,23.438,39.062,65.918,31.738,-57.617,0
1488709414.556,50.781,55.176,39.062,53.223,-85.938,3
1488709414.560,69.336,45.898,-32.227,46.387,-72.266,0
1488709414.564,17.090,-7.324,-23.438,-17.090,-70.312,0
1488709414.568,6.348,27.344,32.715,0.977,-39.551,0
1488709414.572,29.785,7.812,-45.410,19.043,-37.109,0
1488709414.576,9.277,-6.348,-42.969,0.000,-62.988,0
1488709414.579,-40.039,40.527,-7.812,-18.555,-61.523,0
1488709414.583,29.297,67.871,13.672,18.555,-45.410,0
1488709414.587,43.945,28.809,70.312,23.926,-52.734,0
1488709414.591,-11.230,36.621,38.574,-24.414,-90.820,0
1488709414.595,-21.484,53.223,0.000,-49.316,-96.191,0
1488709414.599,-72.266,-7.324,7.324,-71.777,-37.598,0
1488709414.603,-85.449,-43.945,18.066,-41.016,-86.914,0
1488709414.607,-54.688,-44.922,25.391,-20.508,-130.859,0
1488709414.611,-7.324,3.906,71.289,3.418,-121.094,0
1488709414.615,-67.871,-37.598,86.426,-34.668,-108.398,0
1488709414.619,-108.398,-88.867,24.902,-82.520,-72.754,0
1488709414.622,-33.691,15.137,-16.602,-38.574,-84.473,0
1488709414.626,-31.250,60.547,-9.277,-40.039,-81.055,0
1488709414.630,-53.711,5.371,60.059,-41.016,-52.734,0
1488709414.634,-72.754,-27.832,54.688,-63.965,-73.242,0
1488709414.638,-68.359,21.973,47.363,-108.887,-66.406,0
1488709414.642,-40.039,47.363,54.199,-115.234,-93.750,0
1488709414.646,-40.039,45.410,41.504,-44.922,-111.816,0
1488709414.650,-70.801,23.926,1.465,-10.742,-74.707,0
1488709414.654,-48.340,-53.223,-62.988,-57.129,-101.562,0
1488709414.658,20.996,-34.668,31.250,-39.551,-118.164,0
1488709414.661,10.254,37.598,28.809,-24.902,-87.402,0
1488709414.665,-29.297,15.137,-47.852,-45.410,-50.781,0
1488709414.669,-81.055,9.766,34.180,-86.426,-35.156,0
1488709414.673,-107.910,13.184,63.965,-99.609,-75.684,0
1488709414.677,-46.387,27.832,23.926,-75.195,-118.164,0
1488709414.681,20.996,85.449,36.621,-31.250,-84.473,0
1488709414.685,5.859,49.805,42.969,-14.160,-46.875,0
1488709414.689,-10.254,3.906,15.137,-43.457,-79.102,0
1488709414.693,-4.883,12.695,-0.977,-71.777,-63.965,0
1488709414.697,5.371,6.836,-20.508,-48.340,-51.270,0
1488709414.701,48.340,71.289,-4.883,0.000,-45.410,0
1488709414.704,35.645,114.258,29.785,-12.207,-40.527,0
1488709414.708,-2.930,44.434,13.184,-45.410,-113.770,0
1488709414.712,15.137,4.395,-17.090,-10.742,-87.402,0
1488709414.716,-0.488,22.949,3.906,-6.348,-102.539,0
1488709414.720,-22.461,40.039,45.410,-30.762,-157.715,0
1488709414.724,20.020,-0.977,70.801,7.812,-122.070,0
1488709414.728,26.855,-11.719,58.105,25.391,-102.051,0
1488709414.732,-54.199,41.016,1.953,-65.430,-98.633,0
1488709414.736,-97.168,54.199,-36.133,-113.770,-92.285,0
1488709414.740,-47.852,39.551,-36.621,-52.734,-73.242,0
1488709414.744,66.895,37.598,20.508,31.250,-58.594,0
1488709414.747,65.430,46.875,-3.906,38.086,-100.098,0
1488709414.751,59.570,52.734,1.953,37.109,-64.453,0
1488709414.755,34.180,11.230,70.312,30.762,-57.129,0
1488709414.759,-20.508,31.738,50.293,35.156,-124.512,0
1488709414.763,19.043,87.402,-8.301,18.555,-67.383,0
1488709414.767,-20.020,9.277,-52.734,-64.453,-78.613,0
1488709414.771,-35.156,-23.438,-53.711,-46.387,-107.422,0
1488709414.775,-31.250,47.852,5.371,-31.738,-56.152,0
1488709414.779,20.508,92.773,53.711,-42.969,-53.711,0
1488709414.783,97.168,95.703,22.461,-41.992,-34.180,0
1488709414.786,72.754,73.730,-28.809,-21.973,-60.059,0
1488709414.790,61.035,66.895,-8.301,36.133,-77.148,0
1488709414.794,53.223,56.152,19.043,21.973,-70.801,0
1488709414.798,17.578,25.879,-25.391,-55.176,-62.500,0
1488709414.802,-22.949,17.578,-25.879,-62.988,-31.738,0
1488709414.806,-13.672,18.555,32.227,3.418,-32.715,0
1488709414.810,34.668,62.500,-36.621,27.344,-30.762,0
1488709414.814,34.668,90.820,-86.426,-25.391,-24.414,0
1488709414.818,101.562,74.219,95.215,18.066,-34.180,0
1488709414.822,121.094,57.617,157.715,73.730,-30.273,0
1488709414.826,13.184,37.109,-52.734,16.113,5.371,0
1488709414.829,-41.504,23.438,-101.074,-16.602,1.465,0
1488709414.833,6.836,12.695,26.855,23.926,17.090,0
1488709414.837,37.109,12.207,1.465,65.430,20.996,0
1488709414.841,52.734,62.988,-26.367,74.219,13.672,0
1488709414.845,91.309,100.586,28.320,42.480,64.453,0
1488709414.849,75.684,45.898,51.758,6.348,73.242,0
1488709414.853,47.363,-0.977,83.008,55.664,62.012,0
1488709414.857,26.367,27.344,38.574,72.266,58.105,0
1488709414.861,13.184,59.082,11.230,30.762,34.180,0
1488709414.865,16.602,47.363,32.715,18.555,49.316,0
1488709414.869,-19.531,30.273,16.113,-24.902,26.367,0
1488709414.872,2.930,74.707,41.016,-29.297,11.230,0
1488709414.876,49.805,59.082,14.160,7.812,54.688,0
1488709414.880,23.438,61.035,-40.039,20.508,105.957,0
1488709414.884,49.805,63.965,-34.180,45.410,108.887,0
1488709414.888,119.629,51.758,-52.246,46.387,80.078,0
1488709414.892,83.496,78.613,-20.508,28.320,97.168,0
1488709414.896,28.809,59.082,40.527,0.000,113.281,0
1488709414.900,-24.902,14.160,21.484,-35.645,90.332,0
1488709414.904,-55.664,-3.906,33.691,-18.066,62.012,0
1488709414.908,-14.160,-11.719,-4.395,-11.719,70.801,0
1488709414.911,34.668,9.277,-57.617,-19.043,136.230,0
1488709414.915,38.086,56.641,-9.277,-2.441,141.113,0
1488709414.919,27.832,83.984,41.016,8.301,70.312,0
1488709414.923,69.336,96.680,47.363,36.621,83.496,0
1488709414.927,48.828,31.250,-37.109,25.391,127.441,0
1488709414.931,-17.090,-15.137,-48.828,-30.762,129.395,0
1488709414.935,5.371,29.297,23.438,-38.574,128.418,0
1488709414.939,35.156,19.531,-4.395,-46.387,131.348,0
1488709414.943,43.457,14.648,2.441,-36.621,156.250,0
1488709414.947,17.090,56.641,37.598,7.812,160.645,0
1488709414.951,9.766,41.504,-20.508,12.695,128.418,0
1488709414.954,50.293,-2.930,-14.648,24.414,139.160,0
1488709414.958,89.355,27.344,74.219,67.383,150.391,0
1488709414.962,93.750,48.828,38.574,74.219,106.934,0
1488709414.966,75.195,26.367,-8.789,39.551,81.055,0
1488709414.970,13.672,12.695,16.113,-6.836,104.004,0
1488709414.974,-53.711,-9.766,5.371,-51.758,119.141,0
1488709414.978,-5.859,41.504,-6.348,4.883,98.145,0
1488709414.982,63.965,75.684,-0.977,67.383,101.562,0
1488709414.986,78.613,45.410,-36.133,20.996,111.816,0
1488709414.990,98.633,79.102,28.809,36.621,120.605,0
1488709414.994,103.027,125.000,77.148,112.305,111.328,0
1488709414.997,37.109,50.293,-39.551,61.523,88.379,0
1488709415.001,2.441,-20.020,-49.805,-4.395,84.473,0
1488709415.005,23.438,20.996,56.152,18.066,72.754,0
1488709415.009,6.348,36.133,16.602,16.113,48.340,0
1488709415.013,7.324,3.906,-50.781,0.977,59.570,0
1488709415.017,44.434,35.156,-13.184,10.742,83.496,0
1488709415.021,43.945,56.641,-32.227,14.648,53.223,0
1488709415.025,25.879,46.387,-46.387,31.738,27.344,0
1488709415.029,-28.320,47.363,12.695,30.762,79.102,0
1488709415.033,-24.902,53.223,42.480,21.484,92.773,0
1488709415.036,61.523,93.750,85.938,58.594,64.941,0
1488709415.040,78.125,73.242,53.223,64.941,83.984,0
1488709415.044,23.926,32.715,-9.766,27.832,75.684,0
1488709415.048,1.953,31.738,-18.066,1.953,48.828,0
1488709415.052,7.812,-7.324,-58.105,-28.809,47.852,0
1488709415.056,40.527,12.207,-33.691,-16.113,50.293,4
1488709415.060,38.086,58.594,-7.324,19.531,87.402,0
1488709415.064,19.043,50.781,35.645,51.270,66.895,0
1488709415.068,27.832,28.809,57.129,44.434,6.348,0
1488709415.072,10.742,32.715,9.277,25.391,19.531,0
1488709415.076,22.461,55.664,8.301,44.922,42.969,0
1488709415.079,106.445,72.266,0.000,66.406,58.594,0
1488709415.083,104.980,37.598,8.789,42.969,30.273,0
1488709415.087,29.297,60.547,50.293,2.930,17.578,0
1488709415.091,37.109,74.707,35.645,-6.348,25.879,0
1488709415.095,80.078,60.547,5.859,-1.465,-8.789,0
1488709415.099,82.031,62.500,-0.488,14.648,-7.324,0
1488709415.103,47.363,11.719,-41.504,9.766,-6.348,0
1488709415.107,0.977,0.000,-36.133,-7.812,-10.254,0
1488709415.111,55.176,90.820,43.457,65.430,5.371,0
1488709415.115,68.848,103.027,46.387,63.477,-24.902,0
1488709415.119,17.090,35.156,-23.926,-24.902,-6.348,0
1488709415.122,51.270,28.320,2.930,-1.953,43.457,0
1488709415.126,96.191,85.449,21.973,55.176,23.926,0
1488709415.130,119.629,124.023,-13.672,57.129,25.391,0
1488709415.134,95.703,79.102,-11.230,-4.395,47.852,0
1488709415.138,80.078,59.570,-41.504,-33.691,71.289,0
1488709415.142,33.203,35.156,-51.758,-37.109,69.336,0
1488709415.146,35.156,18.555,32.715,25.391,76.660,0
1488709415.150,83.496,42.969,89.844,73.730,85.449,0
1488709415.154,68.359,34.180,30.762,35.156,79.590,0
1488709415.158,57.129,88.379,1.953,7.812,57.129,0
1488709415.161,14.160,74.219,-1.953,-10.254,56.641,0
1488709415.165,-13.184,12.695,-47.363,-28.809,90.820,0
1488709415.169,8.301,48.828,-61.523,-28.809,66.406,0
1488709415.173,11.230,45.898,-16.113,-6.836,41.992,0
1488709415.177,8.789,37.598,0.977,14.648,73.730,0
1488709415.181,44.922,59.570,25.391,25.879,82.031,0
1488709415.185,97.656,70.801,124.023,84.473,52.734,0
1488709415.189,57.129,19.043,7.812,84.473,37.109,0
1488709415.193,42.969,26.855,-87.402,31.250,58.594,0
1488709415.197,64.941,53.711,36.621,20.020,33.203,0
1488709415.201,27.832,32.227,62.012,0.000,11.719,0
1488709415.204,-10.742,15.625,-12.207,-30.762,34.668,0
1488709415.208,-10.254,3.906,-17.578,-41.016,54.688,0
1488709415.212,40.039,56.152,-43.457,1.465,64.941,0
1488709415.216,77.148,114.746,-40.039,38.574,62.988,0
1488709415.220,42.480,96.680,42.480,12.695,62.012,0
1488709415.224,-27.344,38.574,52.734,-34.668,89.355,0
1488709415.228,-25.391,16.602,55.176,-33.691,105.957,0
1488709415.232,31.738,11.230,4.883,-18.555,89.355,0
1488709415.236,53.223,43.457,-37.109,-15.625,85.449,0
1488709415.240,37.598,69.824,-17.578,-11.230,74.707,0
1488709415.244,0.977,66.895,-16.113,5.859,61.523,0
1488709415.247,-22.461,59.570,15.625,8.301,40.527,0
1488709415.251,18.066,56.152,41.016,38.086,32.715,0
1488709415.255,45.898,70.801,24.414,39.551,89.844,0
1488709415.259,46.387,55.664,9.277,-25.391,82.031,0
1488709415.263,10.254,16.113,-52.734,-49.805,31.738,0
1488709415.267,-34.180,3.418,-25.391,-2.930,41.016,0
1488709415.271,-32.227,9.277,40.039,43.457,50.781,0
1488709415.275,38.574,62.012,69.824,74.219,43.945,0
1488709415.279,84.473,58.594,60.547,67.383,48.828,0
1488709415.283,46.387,35.156,11.719,28.320,35.645,0
1488709415.286,36.621,89.844,32.715,59.570,15.625,0
1488709415.290,18.555,82.520,9.766,54.688,9.766,0
1488709415.294,31.738,28.320,4.395,34.180,26.367,0
1488709415.298,62.988,25.879,27.832,41.504,13.184,0
1488709415.302,47.852,20.508,6.836,2.441,-8.301,0
1488709415.306,68.359,15.625,31.250,35.156,-5.371,0
1488709415.310,82.520,25.391,16.113,85.938,-25.879,0
1488709415.314,41.992,13.184,18.066,49.316,1.465,0
1488709415.318,1.465,14.160,17.090,14.648,24.902,0
1488709415.322,-7.324,16.602,-23.438,5.371,7.812,0
1488709415.326,66.895,37.109,34.668,43.945,19.531,0
1488709415.329,98.633,91.797,89.355,64.941,51.758,0
1488709415.333,30.273,85.938,64.941,20.020,45.898,0
1488709415.337,-19.531,35.156,11.230,16.113,10.254,0
1488709415.341,-13.672,33.691,-7.324,48.828,4.883,0
1488709415.345,7.324,33.203,12.207,23.438,0.000,0
1488709415.349,4.395,-0.488,-33.203,-11.230,-7.324,0
1488709415.353,13.184,5.859,-22.461,10.254,-7.324,0
1488709415.357,20.508,20.996,54.688,25.879,-7.812,0
1488709415.361,20.996,56.152,74.219,25.391,28.809,0
1488709415.365,75.684,103.027,68.359,70.312,38.574,0
1488709415.369,104.004,76.660,67.383,86.914,7.812,0
1488709415.372,-2.441,-1.465,44.434,7.812,30.273,0
1488709415.376,-85.938,-20.996,2.441,-21.484,43.457,0
1488709415.380,-66.406,6.836,-0.977,10.742,11.719,0
1488709415.384,-1.465,27.344,-14.160,34.180,-10.742,0
1488709415.388,34.180,-10.254,-32.227,33.203,1.465,0
1488709415.392,64.453,-13.184,1.953,76.172,6.348,0
1488709415.396,73.242,65.430,23.438,109.375,-4.883,0
1488709415.400,62.988,71.777,-15.625,80.078,-10.742,0
1488709415.404,81.055,67.383,40.527,93.750,29.297,0
1488709415.408,9.277,16.113,53.711,59.570,43.457,0
1488709415.411,-14.648,-7.324,-20.508,24.414,-1.465,0
1488709415.415,28.809,24.902,-23.926,18.555,-1.953,0
1488709415.419,46.875,57.617,-13.672,43.945,18.066,0
1488709415.423,49.805,13.184,2.930,54.199,12.207,0
1488709415.427,86.914,42.480,60.059,82.031,7.812,0
1488709415.431,58.594,101.562,70.312,82.520,-15.137,0
1488709415.435,7.324,10.742,6.348,18.066,4.883,0
1488709415.439,22.461,-7.324,-23.438,19.043,19.043,0
1488709415.443,-0.488,27.832,12.207,38.086,-1.465,0
1488709415.447,-22.461,20.020,-13.184,36.133,-8.301,0
1488709415.451,-26.855,-10.254,-40.527,-13.184,10.254,0
1488709415.454,-3.418,14.648,3.418,-22.949,27.344,0
1488709415.458,31.250,39.551,64.453,32.715,-20.508,0
1488709415.462,29.297,28.809,62.012,64.453,-38.574,0
1488709415.466,12.695,43.945,14.648,44.922,23.926,0
1488709415.470,11.719,64.941,24.902,46.387,23.438,0
1488709415.474,6.348,50.781,-12.207,41.504,-4.883,0
1488709415.478,-39.551,-36.133,-4.395,-10.254,13.672,0
1488709415.482,-38.574,-14.160,103.516,14.648,39.062,0
1488709415.486,-14.160,67.871,66.406,32.715,31.738,0
1488709415.490,-0.488,33.691,-94.238,1.953,24.414,0
1488709415.494,64.453,-17.578,-56.641,41.016,59.082,0
1488709415.497,59.570,11.719,60.547,49.805,39.551,0
1488709415.501,21.484,60.059,69.336,56.152,19.531,0
1488709415.505,21.484,37.598,45.410,61.523,30.762,0
1488709415.509,53.223,20.996,30.762,31.738,13.672,0
1488709415.513,129.883,76.172,110.352,77.148,16.113,0
1488709415.517,101.562,64.453,66.406,93.262,-12.695,0
1488709415.521,17.578,8.301,-49.805,43.457,-43.945,0
1488709415.525,54.688,22.949,31.250,92.773,-7.812,0
1488709415.529,18.555,-1.953,34.180,83.984,20.996,0
1488709415.533,-1.465,29.297,-34.180,50.293,-6.348,0
1488709415.536,61.035,80.566,-7.324,55.176,-10.742,0
1488709415.540,84.473,57.129,18.066,54.199,32.715,0
1488709415.544,101.074,63.965,33.691,85.449,1.953,0
1488709415.548,62.500,87.402,10.742,71.777,9.766,0
1488709415.552,12.695,55.176,-76.172,8.301,49.805,0
1488709415.556,52.734,18.555,-56.152,-15.625,59.570,5
1488709415.560,63.477,20.996,40.039,22.949,30.273,0
1488709415.564,34.668,63.477,71.777,63.477,-17.578,0
1488709415.568,-10.742,67.383,78.613,41.016,16.113,0
1488709415.572,-15.625,67.383,31.250,28.809,73.242,0
1488709415.576,58.594,68.848,-23.438,59.082,52.246,0
1488709415.579,17.090,16.113,-24.414,18.555,47.852,0
1488709415.583,4.883,-7.812,20.508,10.254,50.293,0
1488709415.587,97.168,24.902,59.082,39.062,29.785,0
1488709415.591,46.387,64.453,42.480,25.879,45.410,0
1488709415.595,7.812,85.449,57.617,73.730,28.320,0
1488709415.599,61.035,99.121,0.000,81.055,28.320,0
1488709415.603,29.785,37.109,-48.828,37.109,68.848,0
1488709415.607,21.973,4.883,20.508,33.691,36.621,0
1488709415.611,38.574,40.527,42.969,12.207,39.551,0
1488709415.615,24.414,64.941,19.531,14.160,51.270,0
1488709415.619,20.996,40.527,18.555,37.109,21.484,0
1488709415.622,55.176,41.016,56.641,75.195,-7.812,0
1488709415.626,94.238,77.637,15.625,100.586,0.977,0
1488709415.630,23.926,15.137,-88.867,17.090,51.758,0
1488709415.634,8.301,-0.977,-45.410,6.348,16.602,0
1488709415.638,56.152,49.805,47.852,42.969,13.184,0
1488709415.642,22.949,52.734,11.230,21.484,16.113,0
1488709415.646,-5.371,27.344,-39.551,22.949,8.789,0
1488709415.650,74.219,25.391,27.344,65.430,13.672,0
1488709415.654,86.426,55.176,32.715,43.945,-26.855,0
1488709415.658,55.176,73.730,8.301,30.273,-16.113,0
1488709415.661,67.871,58.105,57.617,62.012,17.578,0
1488709415.665,18.066,38.086,16.602,37.109,1.465,0
1488709415.669,9.277,66.406,-21.973,43.945,-20.508,0
1488709415.673,-43.457,25.391,-9.277,20.020,-12.207,0
1488709415.677,-62.500,-1.953,2.441,0.977,4.395,0
1488709415.681,8.301,12.695,-7.812,40.527,-44.434,0
1488709415.685,51.758,2.930,51.758,62.500,-52.246,0
1488709415.689,40.039,-0.488,84.961,63.477,-10.742,0
1488709415.693,4.395,10.742,-15.137,36.621,-22.949,0
1488709415.697,12.695,64.941,0.977,25.879,-32.715,0
1488709415.701,39.062,71.289,32.715,17.578,-34.668,0
1488709415.704,12.207,48.340,11.719,3.906,-64.941,0
1488709415.708,13.672,68.848,78.125,49.316,-41.016,0
1488709415.712,43.945,66.406,59.570,72.754,-26.855,0
1488709415.716,-25.879,28.320,-1.953,21.484,-70.801,0
1488709415.720,-66.895,-4.883,-6.836,-15.625,-64.453,0
1488709415.724,12.207,10.742,34.668,29.785,-55.176,0
1488709415.728,49.805,30.762,65.918,60.547,-81.543,0
1488709415.732,-7.812,19.043,-19.531,20.996,-77.148,0
1488709415.736,5.371,40.527,-9.277,14.160,-61.523,0
1488709415.740,27.344,49.316,77.148,48.828,-73.730,0
1488709415.744,-13.672,28.320,2.930,37.109,-115.234,0
1488709415.747,-22.949,25.879,-15.625,4.395,-107.910,0
1488709415.751,-20.020,27.344,35.156,15.625,-84.473,0
1488709415.755,-32.715,25.879,36.133,11.719,-93.750,0
1488709415.759,-12.207,-6.836,53.223,-23.438,-116.211,0
1488709415.763,29.297,10.254,75.195,17.578,-131.348,0
1488709415.767,24.414,21.973,77.637,64.453,-88.867,0
1488709415.771,-4.883,-10.742,51.270,41.992,-100.586,0
1488709415.775,51.758,47.363,88.379,60.059,-130.859,0
1488709415.779,55.176,20.020,-34.668,41.504,-98.145,0
1488709415.783,-59.082,-41.016,-98.633,-38.086,-87.402,0
1488709415.786,-117.188,-30.762,80.078,-59.570,-127.441,0
1488709415.790,-70.801,-4.395,152.832,-11.230,-148.438,0
1488709415.794,-63.965,10.254,98.633,10.742,-125.977,0
1488709415.798,-38.574,12.207,22.949,17.578,-140.625,0
1488709415.802,-5.859,-4.395,-17.578,0.000,-153.320,0
1488709415.806,-32.715,-22.949,29.785,-64.453,-149.414,0
1488709415.810,-58.105,-0.488,83.984,-91.797,-137.207,0
1488709415.814,-139.648,13.184,48.828,-87.402,-118.164,0
1488709415.818,-162.109,-21.484,8.789,-88.867,-145.020,0
1488709415.822,-70.312,-39.062,10.254,-37.598,-165.039,0
1488709415.826,9.766,25.391,73.242,39.062,-171.387,0
1488709415.829,-4.883,7.812,117.676,0.488,-182.617,0
1488709415.833,-30.762,-2.930,70.312,-27.832,-215.332,0
1488709415.837,-62.500,10.254,-46.875,-6.836,-202.637,0
1488709415.841,-67.383,-38.086,-45.898,-8.789,-168.457,0
1488709415.845,12.207,37.598,55.176,34.180,-169.434,0
1488709415.849,25.879,71.289,95.703,29.297,-178.711,0
1488709415.853,-4.883,-30.273,50.293,-21.484,-193.359,0
1488709415.857,-39.551,-13.184,23.438,-49.805,-169.922,0
1488709415.861,-55.176,60.059,59.570,-38.574,-185.547,0
1488709415.865,-18.066,66.406,7.324,-9.277,-184.570,0
1488709415.869,-11.719,44.922,-86.914,26.367,-152.344,0
1488709415.872,-44.434,28.809,-12.695,31.738,-166.992,0
1488709415.876,-20.508,27.344,92.285,9.766,-196.289,0
1488709415.880,61.523,30.273,65.918,48.340,-203.125,0
1488709415.884,79.590,41.992,-6.348,68.359,-172.852,0
1488709415.888,36.133,29.785,-38.086,2.441,-176.270,0
1488709415.892,2.441,-13.184,-18.555,-27.344,-219.238,0
1488709415.896,3.418,53.711,-22.461,50.293,-218.750,0
1488709415.900,11.719,66.895,-23.438,66.895,-181.152,0
1488709415.904,-7.812,39.062,-8.789,24.414,-199.707,0
1488709415.908,11.230,70.801,-47.363,33.203,-254.883,0
1488709415.911,22.949,46.387,-5.859,20.508,-239.746,0
1488709415.915,18.066,21.484,63.477,39.551,-190.918,0
1488709415.919,33.203,35.645,26.367,52.734,-181.152,0
1488709415.923,79.102,80.078,34.668,85.449,-233.398,0
1488709415.927,75.195,76.172,43.457,110.352,-223.145,0
1488709415.931,15.625,26.855,-10.742,44.922,-175.293,0
1488709415.935,-1.953,-39.062,-23.438,12.695,-178.711,0
1488709415.939,-12.695,-35.645,-15.137,15.137,-196.777,0
1488709415.943,2.930,59.570,23.926,24.414,-181.152,0
1488709415.947,42.969,98.145,-12.695,43.457,-161.621,0
1488709415.951,46.387,63.477,-99.121,36.133,-143.555,0
1488709415.954,41.016,29.297,-10.254,60.059,-97.656,0
1488709415.958,35.645,55.664,67.871,77.148,-75.195,0
1488709415.962,15.137,62.500,6.348,22.461,-82.520,0
1488709415.966,18.066,21.484,-4.883,-15.137,-113.281,0
1488709415.970,28.809,23.926,3.418,-11.719,-108.398,0
1488709415.974,33.691,48.340,20.508,19.043,-84.473,0
1488709415.978,17.090,34.668,32.715,31.250,-56.641,0
1488709415.982,25.879,48.340,-6.348,38.574,-83.496,0
1488709415.986,30.762,64.941,-64.453,44.922,-78.125,0
1488709415.990,36.621,52.734,-15.625,40.039,-74.219,0
1488709415.994,72.266,47.363,84.961,68.848,-101.562,0
1488709415.997,76.660,41.016,42.969,94.727,-69.336,0
1488709416.001,90.820,53.223,-16.602,124.023,-65.918,0
1488709416.005,109.863,55.664,3.906,108.887,-32.227,0
1488709416.009,75.684,52.734,-43.945,50.293,-9.766,0
1488709416.013,31.738,41.016,-67.383,54.688,-19.531,0
1488709416.017,42.969,37.598,-14.160,61.035,12.207,0
1488709416.021,37.109,14.160,22.949,36.133,41.992,0
1488709416.025,56.152,30.762,55.664,57.129,34.668,0
1488709416.029,70.801,65.430,28.809,60.547,46.875,0
1488709416.033,32.227,54.199,-13.184,9.277,60.547,0
1488709416.036,27.832,64.941,61.035,25.391,64.941,0
1488709416.040,39.062,76.172,58.594,52.734,78.613,0
1488709416.044,38.086,37.109,-24.414,34.180,77.148,0
1488709416.048,42.480,6.348,-14.648,27.344,95.703,0
1488709416.052,26.367,25.391,-14.160,54.199,96.680,0
1488709416.056,18.555,43.457,-10.742,67.383,97.656,0
1488709416.060,58.105,21.973,31.738,67.383,97.656,0
1488709416.064,54.199,15.137,3.906,62.012,104.980,0
1488709416.068,33.203,62.988,2.441,61.523,126.953,0
1488709416.072,25.391,66.895,27.344,29.785,77.148,0
1488709416.076,34.668,61.035,39.062,16.602,55.176,0
1488709416.079,-6.836,46.387,60.547,21.973,86.914,0
1488709416.083,5.371,53.223,67.383,20.020,83.984,0
1488709416.087,42.969,15.137,13.672,17.090,79.102,0
1488709416.091,11.230,-2.930,-33.691,25.391,72.266,0
1488709416.095,30.762,37.109,-10.742,53.223,79.590,0
1488709416.099,73.242,55.176,-15.625,58.594,78.125,0
1488709416.103,60.059,85.449,1.953,71.289,32.227,0
1488709416.107,41.992,65.918,29.785,71.777,20.996,0
1488709416.111,26.367,8.301,18.066,61.523,56.152,0
1488709416.115,1.953,16.602,0.977,60.059,71.289,0
1488709416.119,6.836,43.945,-33.203,23.438,36.133,0
1488709416.122,76.660,91.797,33.203,38.574,64.453,0
1488709416.126,93.262,83.984,31.738,65.430,81.055,0
1488709416.130,37.109,-5.859,-34.668,46.387,52.734,0
1488709416.134,35.156,-14.160,28.809,55.176,41.992,0
1488709416.138,53.711,32.227,21.484,65.430,64.941,0
1488709416.142,56.641,33.691,-4.395,48.828,79.102,0
1488709416.146,42.480,33.203,32.715,39.551,46.387,0
1488709416.150,26.367,42.480,-6.836,43.945,43.457,0
1488709416.154,14.160,51.270,-54.199,28.320,78.613,0
1488709416.158,-6.348,37.598,-101.074,-6.348,72.754,0
1488709416.161,37.109,78.613,-42.480,30.273,74.219,0
1488709416.165,37.598,91.797,73.730,42.480,48.828,0
1488709416.169,-46.875,20.508,43.945,-44.922,52.246,0
1488709416.173,-46.387,-4.395,-11.230,-55.664,100.586,0
1488709416.177,14.648,7.812,-74.707,20.020,84.473,0
1488709416.181,32.227,57.129,-71.777,52.246,57.617,0
1488709416.185,15.137,95.215,49.316,43.945,60.547,0
1488709416.189,2.441,57.129,61.035,15.625,51.270,0
1488709416.193,-1.953,10.254,-7.324,-7.324,64.453,0
1488709416.197,21.484,28.320,36.133,22.949,103.027,0
1488709416.201,35.156,13.672,39.062,30.273,116.211,0
1488709416.204,49.316,19.043,-17.090,28.320,114.258,0
1488709416.208,50.293,40.039,-23.926,43.945,76.172,0
1488709416.212,36.621,21.484,-38.086,34.668,45.898,0
1488709416.216,91.797,65.430,-22.949,83.496,57.617,0
1488709416.220,85.449,114.746,36.621,116.211,51.758,0
1488709416.224,23.438,100.098,71.289,36.621,51.758,0
1488709416.228,27.344,59.082,17.578,-2.441,80.078,0
1488709416.232,45.410,34.180,-59.570,19.531,70.312,0
1488709416.236,5.859,23.438,-32.227,17.090,48.340,0
1488709416.240,-44.434,10.742,21.973,-15.137,58.594,0
1488709416.244,-39.551,-4.395,-8.789,-31.738,78.613,0
1488709416.247,23.926,36.133,-17.578,14.648,88.379,0
1488709416.251,100.586,59.082,57.129,113.281,76.660,0
1488709416.255,125.000,54.199,93.750,156.738,69.336,0
1488709416.259,48.340,89.844,68.848,93.750,68.848,0
1488709416.263,-24.414,52.246,-5.859,-15.137,68.848,0
1488709416.267,-5.859,21.484,-31.250,-42.969,55.664,0
1488709416.271,5.859,38.086,-20.508,-0.488,37.598,0
1488709416.275,2.441,43.945,-49.316,22.949,57.617,0
1488709416.279,41.992,40.527,-31.250,51.758,68.848,0
1488709416.283,71.289,15.137,22.949,68.848,43.457,0
1488709416.286,58.594,12.207,36.621,71.777,48.828,0
1488709416.290,30.762,54.199,-13.184,70.801,63.477,0
1488709416.294,30.762,69.336,16.113,84.473,70.801,0
1488709416.298,18.066,42.480,39.551,64.453,78.613,0
1488709416.302,48.828,76.660,49.805,66.406,88.867,0
1488709416.306,85.449,77.637,43.457,108.887,93.262,0
1488709416.310,21.484,9.766,-41.504,64.453,100.098,0
1488709416.314,28.809,31.250,5.371,62.988,119.629,0
1488709416.318,35.156,60.547,50.293,54.199,74.707,0
1488709416.322,17.578,63.477,6.348,24.902,71.777,0
1488709416.326,28.320,75.195,12.207,56.641,108.887,0
1488709416.329,12.695,60.059,30.273,60.059,69.336,0
1488709416.333,11.719,34.668,12.695,27.344,60.547,0
1488709416.337,28.809,49.316,-2.441,23.926,84.473,0
1488709416.341,58.105,72.754,28.809,55.176,67.871,0
1488709416.345,45.410,50.781,47.363,41.504,75.195,0
1488709416.349,17.578,31.250,39.062,13.184,94.727,0
1488709416.353,47.852,59.570,57.617,49.316,67.871,0
1488709416.357,33.691,41.016,50.293,36.133,40.039,0
1488709416.361,3.906,3.418,8.789,23.438,84.473,0
1488709416.365,60.059,41.016,-55.176,60.059,96.680,0
1488709416.369,59.570,40.039,-57.129,14.160,62.012,0
1488709416.372,-2.441,43.945,-28.809,-34.180,55.664,0
1488709416.376,-16.602,77.148,-23.438,-31.250,48.340,0
1488709416.380,18.555,67.383,59.570,-1.953,49.805,0
1488709416.384,31.250,55.664,101.074,28.320,54.199,0
1488709416.388,-0.488,40.039,20.508,3.906,51.758,0
1488709416.392,-11.719,16.602,-23.926,-20.508,23.926,0
1488709416.396,-17.090,25.879,-8.789,-21.973,53.223,0
1488709416.400,-0.977,52.734,2.930,-23.438,85.449,0
1488709416.404,23.926,56.152,36.133,-20.508,46.875,0
1488709416.408,34.668,68.848,48.828,19.043,27.344,0
1488709416.411,30.762,73.730,24.902,46.875,43.945,0
1488709416.415,5.371,38.574,23.926,12.695,53.223,0
1488709416.419,15.137,31.250,23.926,-7.812,25.391,0
1488709416.423,82.031,38.574,0.488,42.480,27.832,0
1488709416.427,99.609,22.949,1.953,57.129,50.293,0
1488709416.431,11.230,-6.348,-11.719,-8.301,15.625,0
1488709416.435,-54.688,10.254,-8.301,-30.273,15.137,0
1488709416.439,-24.414,49.805,27.832,-14.648,61.035,0
1488709416.443,-9.277,34.668,-15.137,-31.250,42.480,0
1488709416.447,6.348,53.223,-57.617,13.672,18.066,0
1488709416.451,23.926,79.590,-19.531,64.941,9.766,0
1488709416.454,39.062,78.125,52.246,56.152,21.973,0
1488709416.458,43.457,49.316,-3.906,40.039,47.363,0
1488709416.462,30.273,-18.555,-34.180,32.227,57.617,0
1488709416.466,34.668,-4.395,48.828,41.504,41.016,0
1488709416.470,23.438,25.879,53.711,28.320,49.805,0
1488709416.474,24.902,10.742,23.926,10.254,44.922,0
1488709416.478,40.039,38.086,41.504,19.043,12.207,0
1488709416.482,7.324,47.363,4.395,15.625,13.184,0
1488709416.486,-5.371,22.461,-32.715,14.160,18.555,0
1488709416.490,38.574,18.066,-26.855,50.781,31.250,0
1488709416.494,29.785,27.832,3.906,68.848,20.996,0
1488709416.497,-16.113,7.812,-6.348,42.480,25.391,0
1488709416.501,-15.625,-15.625,-12.207,13.184,50.293,0
1488709416.505,-3.418,19.531,62.500,-0.488,59.570,0
1488709416.509,11.719,66.406,48.828,19.531,43.457,0
1488709416.513,73.730,71.289,-16.602,73.242,31.738,0
1488709416.517,83.984,29.785,3.418,75.684,30.762,0
1488709416.521,2.930,24.902,47.363,18.555,16.602,0
1488709416.525,-51.270,25.879,43.457,-13.672,34.668,0
1488709416.529,-21.973,33.203,22.461,8.789,62.500,0
1488709416.533,11.719,44.922,12.695,16.113,49.316,0
1488709416.536,0.488,0.977,-9.766,-17.578,57.617,0
1488709416.540,-1.465,1.953,28.809,-6.836,83.984,0
1488709416.544,-5.371,47.852,-10.254,23.926,115.234,0
1488709416.548,1.953,72.266,-63.477,8.789,108.887,0
1488709416.552,-6.836,62.500,0.977,-7.324,82.031,0
1488709416.556,-24.414,46.387,29.297,6.348,75.684,0
1488709416.560,-23.926,21.484,9.277,-6.348,76.660,0
1488709416.564,28.809,30.273,16.602,20.508,77.637,0
1488709416.568,39.062,12.207,8.301,26.855,56.152,0
1488709416.572,-7.812,-16.602,-23.926,-18.555,84.473,0
1488709416.576,-27.344,6.836,11.230,-20.508,81.543,0
1488709416.579,13.672,35.645,52.246,34.180,82.520,0
1488709416.583,23.438,2.441,2.930,21.973,72.266,0
1488709416.587,6.348,10.742,-52.734,-1.465,38.574,0
1488709416.591,-2.930,38.574,1.953,13.184,40.039,0
1488709416.595,-6.836,29.785,22.949,6.836,22.949,0
1488709416.599,20.996,52.734,-11.230,13.184,5.859,0
1488709416.603,28.320,32.715,-21.973,-15.137,34.180,0
1488709416.607,25.391,10.742,6.836,-9.277,47.852,0
1488709416.611,29.785,41.504,59.570,53.711,30.762,0
1488709416.615,58.105,75.684,87.402,90.820,35.645,0
1488709416.619,42.969,58.105,71.289,60.059,31.250,0
1488709416.622,-40.039,8.789,-1.953,-18.555,26.367,0
1488709416.626,-40.527,18.066,-45.410,-43.457,12.695,0
1488709416.630,-4.395,-13.184,-70.312,-33.203,14.648,0
1488709416.634,-7.812,-42.480,-63.965,-11.230,29.785,0
1488709416.638,-12.695,42.480,-19.531,4.883,10.254,0
1488709416.642,2.441,92.285,19.531,1.465,11.719,0
1488709416.646,4.883,66.406,40.039,-1.465,39.551,0
1488709416.650,13.184,24.414,23.926,-30.762,60.059,0
1488709416.654,53.711,17.578,48.828,-25.879,33.203,0
1488709416.658,28.809,28.320,36.133,11.230,40.039,0
1488709416.661,24.414,49.316,-5.859,26.367,51.270,0
1488709416.665,33.691,19.531,-26.367,1.465,28.809,0
1488709416.669,39.551,23.926,34.668,37.109,7.324,0
1488709416.673,37.109,49.805,62.012,70.801,-20.996,0
1488709416.677,-14.648,5.859,-15.625,5.371,5.371,0
1488709416.681,29.785,25.879,-34.668,12.207,19.531,0
1488709416.685,72.754,67.871,-10.742,43.945,-17.090,0
1488709416.689,6.348,11.230,-35.156,1.465,-36.621,0
1488709416.693,-22.949,-34.180,-42.480,-15.625,-35.645,0
1488709416.697,8.301,5.371,61.035,0.000,-23.438,0
1488709416.701,7.812,34.180,112.793,-15.625,-19.531,0
1488709416.704,-1.953,26.855,86.914,-8.789,-54.199,0
1488709416.708,-25.391,22.461,47.363,-14.648,-73.242,0
1488709416.712,-24.902,20.508,5.859,-30.273,-55.664,0
1488709416.716,3.906,47.852,-21.484,-17.578,-60.059,0
1488709416.720,29.785,47.852,-37.109,0.488,-75.195,0
1488709416.724,66.406,60.547,-48.340,46.387,-71.777,0
1488709416.728,40.039,80.566,-15.137,35.645,-56.152,0
1488709416.732,-17.578,34.668,66.895,-25.391,-53.223,0
1488709416.736,-5.371,4.395,106.445,-6.836,-60.059,0
1488709416.740,24.414,0.488,53.711,11.719,-62.988,0
1488709416.744,43.457,22.461,-14.648,-13.184,-70.801,0
1488709416.747,36.133,34.180,-43.945,-20.020,-68.848,0
1488709416.751,18.066,1.465,-9.277,-7.812,-44.434,0
1488709416.755,12.695,18.555,18.555,8.789,-30.762,0
1488709416.759,4.883,69.824,-34.668,20.508,-48.340,0
1488709416.763,9.277,45.410,-20.020,30.273,-38.086,0
1488709416.767,31.250,18.555,20.508,32.715,-30.273,0
1488709416.771,28.320,36.133,11.719,14.160,-48.828,0
1488709416.775,60.547,67.383,34.668,44.434,-54.199,0
1488709416.779,94.727,71.289,57.617,84.961,-49.805,0
1488709416.783,75.684,26.367,54.199,59.082,-24.902,0
1488709416.786,25.391,-6.836,28.320,11.719,-4.395,0
1488709416.790,2.930,-13.184,20.508,-7.812,-18.066,0
1488709416.794,64.941,48.828,18.066,37.598,-40.039,0
1488709416.798,59.570,49.316,-44.922,32.227,-19.043,0
1488709416.802,21.973,14.648,-33.203,25.391,-8.789,0
1488709416.806,-3.906,25.879,6.348,42.969,-14.160,0
1488709416.810,-24.414,18.555,-6.836,31.250,-15.625,0
1488709416.814,-3.906,13.672,-6.348,8.301,-4.883,0
1488709416.818,14.648,13.184,-10.742,-0.977,4.883,0
1488709416.822,13.184,22.461,-5.371,24.902,-13.184,0
1488709416.826,42.480,49.805,0.488,67.871,-4.883,0
1488709416.829,46.387,45.898,-14.648,48.828,4.883,0
1488709416.833,26.855,9.766,-71.777,22.461,21.484,0
1488709416.837,52.734,26.855,-64.453,52.246,-3.418,0
1488709416.841,91.309,63.477,54.199,59.570,-25.391,0
1488709416.845,29.785,20.996,46.875,6.836,14.648,0
1488709416.849,-46.875,-1.465,-13.672,-16.602,12.207,0
1488709416.853,1.953,51.758,-36.621,48.828,27.344,0
1488709416.857,45.898,71.289,-65.430,81.055,43.457,0
1488709416.861,40.039,70.801,-41.016,71.289,39.062,0
1488709416.865,36.621,60.059,18.555,43.457,45.898,0
1488709416.869,-6.348,18.555,60.547,6.348,23.926,0
1488709416.872,11.230,43.457,46.875,25.391,29.785,0
1488709416.876,43.945,58.105,4.395,29.297,62.500,0
1488709416.880,11.719,16.113,-43.945,13.184,38.086,0
1488709416.884,45.898,19.531,-45.898,26.855,32.227,0
1488709416.888,87.891,39.062,7.812,51.270,41.504,0
1488709416.892,35.156,52.246,-34.180,41.016,32.715,0
1488709416.896,-23.438,37.598,-52.734,25.879,23.438,0
1488709416.900,-2.441,27.344,31.250,39.062,-0.488,0
1488709416.904,51.270,73.730,57.129,70.801,22.461,0
1488709416.908,36.133,73.242,10.254,75.195,28.809,0
1488709416.911,-4.883,48.828,-22.461,38.086,36.133,0
1488709416.915,-5.371,40.527,20.020,11.719,68.848,0
1488709416.919,33.203,39.551,53.223,20.996,64.453,0
1488709416.923,55.664,44.922,3.906,43.457,41.992,0
1488709416.927,0.000,17.578,-59.082,7.324,40.527,0
1488709416.931,-10.742,-22.461,-9.766,-15.137,48.340,0
1488709416.935,33.203,-11.230,45.410,33.691,41.504,0
1488709416.939,53.711,65.918,71.289,81.055,35.645,0
1488709416.943,49.805,74.219,32.715,77.148,45.410,0
1488709416.947,2.441,30.762,-56.152,41.016,35.645,0
1488709416.951,-26.367,19.043,-54.688,16.113,55.664,0
1488709416.954,23.926,27.832,-16.602,27.344,44.434,0
1488709416.958,54.688,57.617,-39.551,24.902,20.508,0
1488709416.962,44.922,62.500,-21.973,26.855,10.742,0
1488709416.966,16.602,13.184,21.484,11.719,21.973,0
1488709416.970,9.277,20.020,58.105,4.395,43.945,0
1488709416.974,26.855,53.223,97.168,21.484,24.414,0
1488709416.978,73.730,58.594,84.473,63.477,48.828,0
1488709416.982,40.527,30.273,24.902,53.223,66.406,0
1488709416.986,-51.270,12.207,10.254,12.695,55.664,0
1488709416.990,-22.461,38.574,18.066,29.297,54.199,0
1488709416.994,-0.977,21.973,-86.914,27.344,62.012,0
1488709416.997,-18.555,-22.461,-99.121,8.789,95.703,0
1488709417.001,3.906,-31.250,31.250,14.160,65.430,0
1488709417.005,41.016,11.230,38.086,32.227,41.992,0
1488709417.009,53.223,33.203,-1.465,54.199,69.824,0
1488709417.013,14.160,19.043,11.230,46.875,56.152,0
1488709417.017,-15.137,13.184,25.391,18.555,35.645,0
1488709417.021,25.391,28.809,72.266,14.648,37.109,0
1488709417.025,57.617,48.828,77.637,6.836,41.016,0
1488709417.029,7.324,-5.859,2.930,-16.602,47.852,0
1488709417.033,-17.090,-34.668,-20.020,41.992,21.973,0
1488709417.036,-3.418,5.859,6.836,33.691,28.809,0
1488709417.040,-5.371,10.742,-24.902,-33.691,63.965,0
1488709417.044,7.812,32.715,-27.344,-9.277,51.270,0
1488709417.048,15.625,46.387,-2.930,-2.441,50.781,0
1488709417.052,31.738,48.828,24.414,37.109,44.922,0
1488709417.056,34.180,46.387,30.762,64.453,38.086,0
1488709417.060,5.371,24.902,24.902,14.648,34.668,0
1488709417.064,-3.906,5.371,16.602,-12.695,20.996,0
1488709417.068,-7.324,-20.020,2.441,-10.254,39.551,0
1488709417.072,26.855,2.441,12.207,-0.977,53.223,0
1488709417.076,63.965,52.246,18.066,29.297,60.547,0
1488709417.079,5.371,-7.324,-0.488,11.230,49.316,0
1488709417.083,-0.977,-18.066,4.395,5.371,37.598,0
1488709417.087,85.938,87.891,30.762,63.477,29.297,0
1488709417.091,18.555,43.457,-16.113,7.812,34.180,0
1488709417.095,-66.406,-13.184,-2.441,-24.414,10.742,0
1488709417.099,-3.418,41.016,2.441,61.035,-4.883,0
1488709417.103,20.020,38.574,-41.016,56.152,20.508,0
1488709417.107,-33.691,-0.488,-6.836,-14.648,-15.137,0
1488709417.111,-39.062,-3.418,18.555,-30.273,16.602,0
1488709417.115,1.953,-1.465,14.648,-14.648,63.477,0
1488709417.119,48.828,22.461,3.418,2.441,12.207,0
1488709417.122,49.805,62.012,-20.996,18.555,-26.367,0
1488709417.126,26.855,22.949,-32.715,45.898,0.488,0
1488709417.130,53.711,7.324,-2.441,74.219,41.992,0
1488709417.134,66.895,59.570,75.195,59.082,46.875,0
1488709417.138,-3.418,26.367,69.336,-25.879,41.504,0
1488709417.142,-0.488,29.297,49.316,-18.066,28.320,0
1488709417.146,18.555,49.316,4.395,24.414,53.223,0
1488709417.150,1.953,26.855,-45.898,3.418,66.895,0
1488709417.154,-22.461,24.414,-8.789,-10.742,41.016,0
1488709417.158,-51.758,4.883,-9.277,-12.207,50.293,0
1488709417.161,-18.066,1.953,-37.109,14.648,46.387,0
1488709417.165,19.531,8.789,-43.945,21.484,43.457,0
1488709417.169,47.852,32.715,-2.930,32.227,50.781,0
1488709417.173,45.410,10.254,69.824,59.570,56.641,0
1488709417.177,24.902,14.160,70.801,64.941,41.992,0
1488709417.181,26.367,60.547,49.316,67.383,45.898,0
1488709417.185,11.230,51.270,11.230,37.109,37.598,0
1488709417.189,19.531,38.086,14.160,9.766,48.340,0
1488709417.193,44.434,33.203,58.105,36.133,56.152,0
1488709417.197,16.113,21.484,-35.156,23.438,46.875,0
1488709417.201,-10.254,7.324,-129.395,5.371,38.086,0
1488709417.204,-10.254,8.301,-62.012,15.137,52.246,0
1488709417.208,-17.090,3.906,44.922,6.836,72.266,0
1488709417.212,-13.184,1.465,81.543,6.348,79.590,0
1488709417.216,-11.719,3.906,69.824,-2.441,85.449,0
1488709417.220,-23.926,3.906,38.086,-34.668,62.988,0
1488709417.224,-21.484,5.371,30.273,-31.250,73.242,0
1488709417.228,24.414,17.090,44.922,-18.066,35.645,0
1488709417.232,54.688,33.203,19.043,-26.367,38.574,0
1488709417.236,17.578,12.695,-25.391,-36.133,62.012,0
1488709417.240,7.812,15.625,-24.902,-19.043,40.527,0
1488709417.244,61.035,14.160,37.109,18.555,70.801,0
1488709417.247,55.664,-12.207,58.594,-4.883,66.895,0
1488709417.251,-9.277,-16.602,41.016,-76.660,33.203,0
1488709417.255,-9.766,-5.371,45.898,-74.707,44.434,0
1488709417.259,6.348,18.555,60.059,-48.340,47.363,0
1488709417.263,-24.414,17.578,60.547,-64.941,58.105,0
1488709417.267,-32.715,15.625,12.695,-73.730,70.312,0
1488709417.271,-10.254,19.043,7.812,-53.223,52.734,0
1488709417.275,7.812,-4.883,35.645,-55.664,35.645,0
1488709417.279,22.949,-3.906,17.578,-64.453,45.898,0
1488709417.283,10.742,4.883,33.203,-32.715,42.969,0
1488709417.286,-25.879,26.855,63.477,-23.438,43.945,0
1488709417.290,-0.488,83.008,59.570,-18.555,30.273,0
1488709417.294,9.766,53.711,35.156,-30.762,12.695,0
1488709417.298,0.000,13.184,4.883,-39.062,56.152,0
1488709417.302,-0.488,5.859,7.324,-36.133,95.215,0
1488709417.306,-12.695,-39.062,39.062,-53.711,65.918,0
1488709417.310,12.207,-44.434,2.441,-41.504,61.523,0
1488709417.314,0.000,-29.297,-43.945,-40.039,73.730,0
1488709417.318,-40.527,-13.184,-18.066,-73.242,40.527,0
1488709417.322,-14.648,38.086,5.859,-40.527,72.266,0
1488709417.326,-21.973,33.203,14.160,-12.207,70.801,0
1488709417.329,-24.902,11.719,46.875,-38.574,57.617,0
1488709417.333,3.906,24.902,70.312,-32.227,40.527,0
1488709417.337,-32.715,12.695,30.762,-35.156,26.367,0
1488709417.341,-28.320,-17.578,-42.480,-35.156,50.293,0
1488709417.345,11.230,-20.508,-72.754,-12.695,86.914,0
1488709417.349,6.348,10.254,-50.293,-23.926,75.195,0
1488709417.353,25.391,59.082,32.227,-3.418,44.434,0
1488709417.357,45.898,68.848,113.770,31.250,62.500,0
1488709417.361,35.156,45.898,80.566,21.484,74.707,0
1488709417.365,33.691,20.020,13.672,6.836,75.195,0
1488709417.369,5.371,-21.484,-45.898,-12.207,77.148,0
1488709417.372,-7.324,9.766,-38.086,0.000,65.918,0
1488709417.376,-2.930,38.574,8.301,-1.465,61.523,0
1488709417.380,-16.602,36.133,11.230,-27.832,86.426,0
1488709417.384,-16.113,35.645,15.625,-21.973,72.266,0
1488709417.388,-8.301,18.066,17.090,-7.324,47.363,0
1488709417.392,9.766,21.973,10.254,-4.395,47.852,0
1488709417.396,32.715,30.762,-15.137,13.184,32.715,0
1488709417.400,61.523,41.504,-27.832,37.109,44.922,0
1488709417.404,72.266,59.082,-5.859,43.945,40.039,0
1488709417.408,29.297,44.434,34.180,25.391,35.645,0
1488709417.411,-4.883,7.812,41.504,13.184,36.621,0
1488709417.415,-2.930,9.277,17.090,10.742,22.949,0
1488709417.419,27.832,29.785,8.789,8.789,44.922,0
1488709417.423,88.379,80.078,24.414,40.039,40.039,0
1488709417.427,75.684,76.660,-10.254,44.922,20.020,0
1488709417.431,-1.465,22.949,-64.453,15.137,24.414,0
1488709417.435,-6.348,10.742,-22.461,14.648,48.828,0
1488709417.439,27.832,-6.836,23.438,31.250,72.266,0
1488709417.443,14.648,3.418,50.781,37.109,67.383,0
1488709417.447,-9.766,19.043,30.273,18.555,48.828,0
1488709417.451,2.930,17.578,-20.996,20.996,36.621,0
1488709417.454,8.301,28.809,11.230,11.719,28.809,0
1488709417.458,-0.977,23.926,44.434,28.809,30.762,0
1488709417.462,24.902,11.230,49.805,57.617,48.828,0
1488709417.466,55.664,44.922,-7.812,37.598,85.449,0
1488709417.470,57.129,68.848,-57.617,37.598,79.590,0
1488709417.474,28.320,37.598,-33.203,26.855,68.848,0
1488709417.478,-12.207,9.766,-2.441,-8.301,100.586,0
1488709417.482,-5.859,-1.465,37.109,-9.277,98.145,0
1488709417.486,14.160,0.000,36.621,20.020,100.586,0
1488709417.490,-5.371,19.043,40.527,46.387,128.418,0
1488709417.494,-14.648,34.668,47.852,32.715,126.465,0
1488709417.497,5.371,26.855,22.461,14.648,83.008,0
1488709417.501,36.133,20.508,-8.789,24.902,80.078,0
1488709417.505,44.434,11.230,-21.973,25.391,106.934,0
1488709417.509,49.805,30.762,-23.438,39.551,95.215,0
1488709417.513,40.039,51.758,2.441,55.664,73.242,0
1488709417.517,24.414,6.348,4.395,51.758,72.754,0
1488709417.521,60.547,-9.766,-1.465,59.082,98.633,0
1488709417.525,78.125,40.039,33.203,76.660,91.309,0
1488709417.529,34.180,43.457,43.945,59.570,104.004,0
1488709417.533,-18.066,-10.254,-5.371,12.695,97.656,0
1488709417.536,-10.254,-19.043,-41.016,5.371,49.316,0
1488709417.540,28.809,22.949,17.090,44.434,44.922,0
1488709417.544,24.414,45.410,57.617,50.293,81.055,0
1488709417.548,-4.883,41.992,14.648,21.484,60.547,0
1488709417.552,15.625,42.969,1.465,27.344,31.738,0
1488709417.556,60.059,56.152,27.832,47.363,24.902,0
1488709417.560,42.969,34.180,23.926,35.645,7.324,0
1488709417.564,5.859,-8.789,-6.348,5.859,48.340,0
1488709417.568,18.555,-15.137,-5.371,-5.371,59.082,0
1488709417.572,59.082,36.621,38.086,46.387,14.648,0
1488709417.576,58.594,64.941,49.805,72.754,44.434,0
1488709417.579,4.395,31.738,14.160,21.484,87.891,0
1488709417.583,-34.180,5.859,30.762,-11.230,81.055,0
1488709417.587,-30.273,6.836,58.594,-14.648,62.500,0
1488709417.591,-12.695,14.160,44.922,-3.906,41.016,0
1488709417.595,-3.906,23.438,43.945,25.391,47.363,0
1488709417.599,24.902,49.805,52.246,58.594,34.180,0
1488709417.603,29.297,35.645,13.672,28.320,45.898,0
1488709417.607,17.090,9.766,4.883,-2.441,62.500,0
1488709417.611,47.852,26.367,-8.301,9.277,45.410,0
1488709417.615,57.129,57.129,-9.277,19.531,32.715,0
1488709417.619,13.184,41.504,31.250,19.531,3.906,0
1488709417.622,1.953,12.207,0.488,6.348,20.020,0
1488709417.626,40.527,16.602,-34.668,25.879,47.363,0
1488709417.630,31.250,36.621,14.648,38.086,59.570,0
1488709417.634,-6.836,43.457,42.480,7.812,67.871,0
1488709417.638,-16.602,36.621,16.602,-24.902,28.809,0
1488709417.642,-3.418,24.902,16.113,-35.645,20.020,0
1488709417.646,32.227,44.434,32.227,-24.902,24.414,0
1488709417.650,27.832,49.805,28.320,-38.086,16.113,0
1488709417.654,4.395,36.133,20.508,-46.875,10.254,0
1488709417.658,24.902,21.973,-13.184,-22.949,32.227,0
1488709417.661,69.824,6.348,-37.109,-6.836,20.508,0
1488709417.665,67.383,20.996,-17.090,-19.531,-0.977,0
1488709417.669,23.438,36.133,-7.324,-44.922,6.836,0
1488709417.673,21.484,57.129,56.152,-22.461,3.906,0
1488709417.677,17.578,40.039,39.551,-18.555,14.160,0
1488709417.681,-11.719,13.672,-10.254,-18.555,6.836,0
1488709417.685,34.180,52.246,15.137,29.297,22.461,0
1488709417.689,80.078,74.707,16.113,15.625,33.203,0
1488709417.693,54.199,49.316,4.395,-53.711,16.602,0
1488709417.697,28.809,42.969,7.812,-48.340,7.324,0
1488709417.701,18.555,25.879,11.230,-20.996,28.320,0
1488709417.704,-0.977,0.000,-5.859,-36.133,50.293,0
1488709417.708,4.883,6.348,-31.738,-49.805,26.855,0
1488709417.712,41.016,20.996,-25.391,-45.410,6.348,0
1488709417.716,42.480,28.809,2.441,-30.762,40.039,0
1488709417.720,24.902,48.828,51.270,10.254,60.059,0
1488709417.724,49.805,85.449,87.891,41.504,77.148,0
1488709417.728,33.691,42.969,8.301,18.066,74.707,0
1488709417.732,10.742,3.906,-42.969,-30.762,57.617,0
1488709417.736,7.812,24.414,-11.719,-55.176,45.898,0
1488709417.740,-7.324,23.438,17.090,-40.039,27.344,0
1488709417.744,23.438,30.273,-14.160,6.348,46.875,0
1488709417.747,29.297,34.668,-56.152,24.902,51.758,0
1488709417.751,-5.371,30.273,-22.461,-21.973,46.875,0
1488709417.755,12.695,31.738,36.133,-35.645,30.273,0
1488709417.759,31.738,54.199,79.102,5.859,-4.395,0
1488709417.763,15.137,55.664,52.734,5.859,-5.859,0
1488709417.767,16.113,34.668,-39.062,-5.859,4.883,0
1488709417.771,35.645,45.898,-41.992,6.348,33.203,0
1488709417.775,23.438,9.766,34.180,-27.832,13.672,0
1488709417.779,-7.324,-22.461,61.035,-53.711,1.465,0
1488709417.783,2.930,22.949,79.590,-8.301,15.137,0
1488709417.786,23.438,30.762,74.707,12.207,-8.789,0
1488709417.790,36.621,-18.066,-27.344,-7.812,4.883,0
1488709417.794,66.406,-0.977,-85.449,2.930,7.812,0
1488709417.798,25.879,40.527,1.953,12.207,0.977,0
1488709417.802,30.762,42.480,45.410,-14.648,-0.977,0
1488709417.806,-8.789,-4.395,6.836,-52.246,-16.113,0
1488709417.810,-4.395,-52.246,0.000,-34.668,-9.277,0
1488709417.814,53.711,7.324,18.066,5.859,-22.949,0
1488709417.818,91.797,88.867,31.250,-29.785,-41.504,0
1488709417.822,52.734,58.594,15.137,-60.059,-19.043,0
1488709417.826,-4.395,17.578,-17.578,-62.012,-30.273,0
1488709417.829,-10.742,13.672,3.906,-49.316,-67.383,0
1488709417.833,22.461,23.926,26.367,-18.555,-67.871,0
1488709417.837,52.734,40.039,7.324,15.625,-23.926,0
1488709417.841,22.461,61.523,9.766,15.137,-40.039,0
1488709417.845,-18.066,51.758,39.062,-5.859,-84.473,0
1488709417.849,0.000,24.902,0.000,0.000,-68.848,0
1488709417.853,0.000,-8.789,0.000,0.000,-86.914,0
1488709417.857,0.000,13.184,0.000,0.000,-106.445,0
1488709417.861,0.000,34.668,0.000,0.000,-109.375,0
1488709417.865,0.000,-30.273,0.000,0.000,-69.824,0
1488709417.869,0.000,-14.160,0.000,0.000,-48.340,0
1488709417.872,0.000,53.711,0.000,0.000,-62.988,0
1488709417.876,0.000,47.852,0.000,0.000,-70.312,0
1488709417.880,0.000,24.902,0.000,0.000,-67.383,0
1488709417.884,0.000,2.930,0.000,0.000,-70.312,0
1488709417.888,0.000,-18.555,0.000,0.000,-67.383,0
1488709417.892,0.000,-11.719,0.000,0.000,-39.062,0
1488709417.896,-75.195,19.531,35.645,0.000,-19.531,0
1488709417.900,-91.309,-17.578,58.594,0.000,-69.336,0
1488709417.904,-75.684,-35.645,58.105,0.000,-87.402,0
1488709417.908,-30.273,35.645,96.680,0.000,-46.875,0
1488709417.911,-29.785,52.246,101.074,0.000,-37.109,0
1488709417.915,-17.578,5.859,83.008,0.000,-26.367,0
1488709417.919,11.230,8.789,61.523,0.000,-16.113,0
1488709417.923,-36.621,23.926,38.086,0.000,-10.742,0
1488709417.927,-72.266,1.953,71.289,0.000,-6.836,0
1488709417.931,-59.570,-13.672,34.180,0.000,-2.930,0
1488709417.935,-65.918,16.602,-0.977,0.000,12.695,0
1488709417.939,-75.195,0.488,60.547,0.000,18.555,0
1488709417.943,-41.016,3.418,113.770,-35.156,32.715,0
1488709417.947,-12.207,20.996,54.688,0.000,23.438,0
1488709417.951,-28.809,-16.602,-18.066,-17.578,27.832,0
1488709417.954,-4.395,30.762,21.973,-27.344,27.344,0
1488709417.958,24.414,69.336,39.551,-19.043,8.301,0
1488709417.962,42.480,44.434,27.344,-6.348,1.465,0
1488709417.966,24.902,27.344,60.059,22.949,41.016,0
1488709417.970,-26.855,15.137,51.270,18.555,58.105,0
1488709417.974,-4.883,28.320,18.555,18.555,25.391,0
1488709417.978,2.441,25.879,1.953,28.809,13.184,0
1488709417.982,21.484,37.109,-2.441,66.406,18.066,0
1488709417.986,78.125,72.266,13.184,94.238,33.691,0
1488709417.990,15.137,20.996,-7.812,16.602,30.762,0
1488709417.994,-35.645,4.395,8.789,-31.250,30.273,0
1488709417.997,-0.977,23.926,12.695,2.930,52.246,0
1488709418.001,21.484,10.254,-17.090,15.137,40.039,0
1488709418.005,41.016,6.348,-21.484,17.578,17.578,0
1488709418.009,61.523,24.414,-34.668,29.785,22.949,0
1488709418.013,93.262,69.824,-50.781,57.617,28.320,0
1488709418.017,70.312,75.684,-71.777,71.289,14.160,0
1488709418.021,14.648,45.898,-28.320,57.617,-0.977,0
1488709418.025,-3.906,32.715,29.785,24.902,1.953,0
1488709418.029,21.973,51.758,45.898,34.668,6.348,0
1488709418.033,33.691,38.574,-17.578,53.711,-0.488,0
1488709418.036,20.508,-3.906,-84.473,0.000,0.000,0
1488709418.040,57.617,33.691,-61.035,0.000,0.000,0
1488709418.044,87.402,73.730,-37.109,0.000,0.000,0
1488709418.048,50.781,41.016,-48.828,0.000,0.000,0
1488709418.052,51.270,45.410,-2.930,0.000,0.000,0
1488709418.056,75.684,63.477,54.688,0.000,0.000,0
1488709418.060,59.570,68.848,29.297,0.000,0.000,0
1488709418.064,31.250,78.613,-7.324,0.000,0.000,0
1488709418.068,49.805,56.641,-12.207,0.000,0.000,0
1488709418.072,93.750,72.754,-19.043,0.000,0.000,0
1488709418.076,59.570,46.387,10.254,0.000,0.000,0
1488709418.079,45.898,-20.020,27.344,0.000,0.000,0
1488709418.083,127.441,73.242,-6.348,99.609,-2.930,0
1488709418.087,164.551,139.160,-40.527,134.277,16.113,0
1488709418.091,102.539,72.754,-32.227,83.984,8.789,0
1488709418.095,25.391,13.184,3.906,52.734,9.277,0
1488709418.099,0.000,9.766,1.465,51.270,12.695,0
1488709418.103,32.715,40.527,-8.301,45.898,2.441,0
1488709418.107,62.500,66.406,21.973,42.480,-1.465,0
1488709418.111,94.727,66.406,-2.441,65.430,-20.508,0
1488709418.115,99.121,32.227,-112.793,66.895,-0.977,0
1488709418.119,41.992,22.949,-105.469,73.730,11.719,0
1488709418.122,22.949,56.641,38.086,92.285,4.395,0
1488709418.126,52.246,16.602,91.797,57.617,-1.465,0
1488709418.130,120.605,4.395,50.781,57.617,2.441,0
1488709418.134,119.629,89.355,61.523,93.750,14.160,0
1488709418.138,7.812,92.285,38.086,43.945,-25.879,0
1488709418.142,-19.531,32.227,-17.578,9.766,-7.812,0
1488709418.146,22.461,9.277,-49.316,7.324,22.461,0
1488709418.150,67.871,20.996,-47.363,11.230,15.137,0
1488709418.154,66.895,49.316,-21.973,32.227,6.348,0
1488709418.158,29.785,53.711,-24.902,8.789,0.977,0
1488709418.161,2.930,39.551,-6.836,-15.137,9.277,0
1488709418.165,-26.367,54.199,30.762,25.879,8.789,0
1488709418.169,-23.438,56.641,26.367,47.852,-11.719,0
1488709418.173,22.949,62.988,15.137,42.969,-36.133,0
1488709418.177,-1.953,58.594,30.273,0.000,0.000,0
1488709418.181,51.270,72.754,47.363,0.000,0.000,0
1488709418.185,52.246,57.129,26.367,0.000,0.000,0
1488709418.189,-12.207,20.996,-21.484,0.000,0.000,0
1488709418.193,-52.734,20.020,-24.414,0.000,0.000,0
1488709418.197,-39.062,26.367,-6.348,0.000,0.000,0
1488709418.201,-12.207,21.484,12.695,0.000,0.000,0
1488709418.204,0.000,18.066,-41.992,0.000,0.000,0
1488709418.208,-3.906,0.977,-60.547,0.000,0.000,0
1488709418.212,-9.277,24.414,43.945,0.000,0.000,0
1488709418.216,8.789,64.453,74.707,0.000,0.000,0
1488709418.220,-15.625,32.715,-15.625,0.000,0.000,0
1488709418.224,1.465,20.020,-6.836,34.180,42.969,0
1488709418.228,9.277,41.992,24.902,43.457,37.598,0
1488709418.232,-32.715,47.363,-5.371,18.066,12.207,0
1488709418.236,12.695,65.430,0.000,43.945,22.461,0
1488709418.240,55.664,34.668,23.438,5.371,49.805,0
1488709418.244,56.641,22.461,61.035,-2.441,-6.348,0
1488709418.247,-0.488,25.391,29.785,24.414,-55.664,0
1488709418.251,-9.766,24.902,-16.602,18.555,-2.441,0
1488709418.255,44.922,46.387,14.648,-2.930,29.297,0
1488709418.259,14.160,29.785,27.832,-39.551,19.531,0
1488709418.263,16.113,41.016,37.598,-24.902,23.926,0
1488709418.267,-7.812,6.836,-18.066,-12.695,30.273,0
1488709418.271,-4.883,14.160,-39.062,-15.137,41.504,0
1488709418.275,20.508,30.762,-1.953,-48.828,19.531,0
1488709418.279,-28.320,-18.066,21.973,-92.285,-1.465,0
1488709418.283,-29.297,-0.977,57.617,-79.102,18.555,0
1488709418.286,-14.648,29.297,49.316,-47.852,13.672,0
1488709418.290,-14.160,16.113,32.715,-40.527,3.418,0
1488709418.294,12.207,26.367,42.969,-43.945,14.160,0
1488709418.298,1.953,27.832,12.207,-69.824,34.180,0
1488709418.302,-24.414,16.113,-11.719,-61.035,18.555,0
1488709418.306,-3.418,32.715,8.789,-19.531,-26.367,0
1488709418.310,28.809,42.480,-26.855,-8.301,-27.344,0
1488709418.314,36.621,32.227,-35.156,-4.883,-19.531,0
1488709418.318,0.000,73.242,0.000,0.000,0.000,0
1488709418.322,0.000,87.402,0.000,0.000,0.000,0
1488709418.326,0.000,44.434,0.000,0.000,0.000,0
1488709418.329,0.000,3.906,0.000,0.000,0.000,0
1488709418.333,0.000,-14.160,0.000,0.000,0.000,0
1488709418.337,0.000,-0.488,0.000,0.000,0.000,0
1488709418.341,0.000,20.996,0.000,0.000,0.000,0
1488709418.345,0.000,27.344,0.000,0.000,0.000,0
1488709418.349,0.000,67.383,0.000,0.000,0.000,0
1488709418.353,0.000,85.449,0.000,0.000,0.000,0
1488709418.357,0.000,53.711,0.000,0.000,0.000,0
1488709418.361,0.000,45.898,0.000,0.000,0.000,0
1488709418.365,14.160,51.758,10.254,0.000,-32.715,0
1488709418.369,-31.250,42.480,33.203,0.000,-59.082,0
1488709418.372,-53.711,3.418,60.547,0.000,-48.828,0
1488709418.376,-16.113,6.836,83.496,0.000,-35.645,0
1488709418.380,9.766,25.391,19.531,0.000,-32.715,0
1488709418.384,11.230,17.090,-72.266,0.000,-40.527,0
1488709418.388,21.484,26.855,-19.043,0.000,-40.039,0
1488709418.392,48.828,51.758,52.246,0.000,-43.457,0
1488709418.396,22.949,33.203,37.598,0.000,-47.363,0
1488709418.400,-13.672,14.648,-35.156,0.000,-9.766,0
1488709418.404,25.391,28.320,-86.426,0.000,12.207,0
1488709418.408,43.945,41.992,16.113,0.000,-43.945,0
1488709418.411,-11.719,12.207,76.660,-31.250,-45.410,0
1488709418.415,-28.809,0.977,31.250,-54.199,-44.434,0
1488709418.419,23.926,42.480,22.949,-48.828,-75.195,0
1488709418.423,38.086,42.480,-2.930,-24.414,-100.098,0
1488709418.427,48.340,53.711,2.441,12.695,-82.031,0
1488709418.431,19.531,26.367,9.277,5.371,-64.453,0
1488709418.435,14.648,-28.320,-3.906,21.484,-58.105,0
1488709418.439,63.477,3.906,4.883,46.875,-54.688,0
1488709418.443,20.020,46.387,-10.742,-19.531,-51.758,0
1488709418.447,-5.859,59.570,-20.508,-35.645,-63.965,0
1488709418.451,28.320,56.641,-18.555,11.719,-65.430,0
1488709418.454,67.383,60.547,3.906,33.691,-44.922,0
1488709418.458,0.000,50.293,0.000,34.180,-34.180,0
1488709418.462,0.000,39.062,0.000,17.578,-44.922,0
1488709418.466,0.000,23.926,0.000,1.465,-53.223,0
1488709418.470,0.000,25.391,0.000,11.230,-65.430,0
1488709418.474,0.000,26.855,0.000,0.000,-66.895,0
1488709418.478,0.000,5.859,0.000,48.340,-39.551,0
1488709418.482,0.000,28.809,0.000,89.355,-16.113,0
1488709418.486,0.000,63.477,0.000,19.043,9.277,0
1488709418.490,0.000,48.828,0.000,-12.695,21.973,0
1488709418.494,0.000,45.410,0.000,23.926,-13.672,0
1488709418.497,0.000,30.762,0.000,32.715,-25.391,0
1488709418.501,0.000,26.367,0.000,32.227,0.000,0
1488709418.505,59.570,49.316,-15.625,0.000,-6.836,0
1488709418.509,68.359,26.367,-39.551,0.000,-5.859,0
1488709418.513,63.477,11.719,-21.973,0.000,12.207,0
1488709418.517,41.992,55.176,22.461,0.000,17.090,0
1488709418.521,-2.441,73.730,35.156,0.000,0.488,0
1488709418.525,-43.457,28.809,0.000,0.000,-30.273,0
1488709418.529,-25.879,29.785,-69.824,0.000,-0.977,0
1488709418.533,39.551,55.664,-91.797,0.000,22.949,0
1488709418.536,86.426,52.246,0.000,0.000,-0.488,0
1488709418.540,77.148,31.738,40.039,0.000,-3.418,0
1488709418.544,37.109,13.672,33.691,0.000,0.000,0
1488709418.548,-12.695,29.785,-8.789,0.000,-13.184,0
1488709418.552,-20.020,52.734,-21.484,0.000,0.000,0
1488709418.556,-0.488,-3.418,17.090,0.000,0.000,0
1488709418.560,25.391,24.902,46.387,0.000,0.000,0
1488709418.564,59.570,94.238,17.090,0.000,0.000,0
1488709418.568,1.953,47.852,-61.523,0.000,0.000,0
1488709418.572,-45.410,20.508,-64.941,0.000,0.000,0
1488709418.576,-27.832,7.812,-27.344,0.000,0.000,0
1488709418.579,12.695,0.488,-15.137,0.000,0.000,0
1488709418.583,47.363,41.016,-5.859,0.000,0.000,0
1488709418.587,54.199,82.031,39.062,0.000,0.000,0
1488709418.591,71.289,52.246,49.316,0.000,0.000,0
1488709418.595,40.527,11.230,7.324,0.000,0.000,0
1488709418.599,0.000,65.918,-33.203,0.000,0.000,0
1488709418.603,0.000,101.074,-47.363,0.000,0.000,0
1488709418.607,0.000,24.414,-7.812,0.000,0.000,0
1488709418.611,0.000,43.457,54.199,0.000,0.000,0
1488709418.615,0.000,24.414,81.055,0.000,0.000,0
1488709418.619,0.000,-18.066,60.547,0.000,0.000,0
1488709418.622,0.000,9.766,24.414,0.000,0.000,0
1488709418.626,0.000,14.648,67.871,0.000,0.000,0
1488709418.630,0.000,6.836,19.531,0.000,0.000,0
1488709418.634,0.000,54.688,-70.312,0.000,0.000,0
1488709418.638,0.000,57.617,-75.684,0.000,0.000,0
1488709418.642,0.000,10.254,-87.402,0.000,0.000,0
1488709418.646,0.000,-2.441,0.000,0.000,72.266,0
1488709418.650,0.000,-6.348,0.000,0.000,101.074,0
1488709418.654,0.000,14.160,0.000,0.000,109.863,0
1488709418.658,0.000,48.340,0.000,0.000,100.098,0
1488709418.661,0.000,14.648,0.000,0.000,119.629,0
1488709418.665,0.000,-17.090,0.000,0.000,145.996,0
1488709418.669,0.000,21.973,0.000,0.000,141.602,0
1488709418.673,0.000,-23.438,0.000,0.000,123.047,0
1488709418.677,0.000,-29.785,0.000,0.000,119.629,0
1488709418.681,0.000,45.898,0.000,0.000,145.508,0
1488709418.685,0.000,58.594,0.000,0.000,152.832,0
1488709418.689,0.000,57.617,0.000,0.000,139.648,0
1488709418.693,0.000,29.297,0.000,0.000,0.000,0
1488709418.697,0.000,-40.039,0.000,0.000,0.000,0
1488709418.701,0.000,-28.809,0.000,0.000,0.000,0
1488709418.704,0.000,41.016,0.000,0.000,0.000,0
1488709418.708,0.000,14.648,0.000,0.000,0.000,0
1488709418.712,0.000,6.348,0.000,0.000,0.000,0
1488709418.716,0.000,20.508,0.000,0.000,0.000,0
1488709418.720,0.000,-5.859,0.000,0.000,0.000,0
1488709418.724,0.000,8.301,0.000,0.000,0.000,0
1488709418.728,0.000,-19.531,0.000,0.000,0.000,0
1488709418.732,0.000,-64.453,0.000,0.000,0.000,0
1488709418.736,0.000,-33.691,0.000,0.000,0.000,0
1488709418.740,58.105,38.086,110.840,0.000,0.000,0
1488709418.744,29.297,59.570,105.469,0.000,0.000,0
1488709418.747,30.273,-18.066,82.520,0.000,0.000,0
1488709418.751,69.336,-54.199,55.176,0.000,0.000,0
1488709418.755,10.254,-10.742,-1.953,0.000,0.000,0
1488709418.759,-25.879,17.578,-50.293,0.000,0.000,0
1488709418.763,40.039,-20.020,-11.719,0.000,0.000,0
1488709418.767,100.586,-23.438,8.789,0.000,0.000,0
1488709418.771,91.797,25.391,33.691,0.000,0.000,0
1488709418.775,35.156,12.695,80.566,0.000,0.000,0
1488709418.779,-44.434,-63.477,48.340,0.000,0.000,0
1488709418.783,-33.203,-20.508,48.828,0.000,0.000,0
1488709418.786,0.000,114.746,92.285,68.359,359.863,0
1488709418.790,0.000,69.824,0.977,20.020,350.586,0
1488709418.794,0.000,-75.195,-59.570,-9.766,328.125,0
1488709418.798,0.000,-140.137,41.992,29.297,324.219,0
1488709418.802,0.000,-112.305,71.289,97.168,333.496,0
1488709418.806,0.000,-10.254,36.133,59.082,345.703,0
1488709418.810,0.000,53.711,37.109,22.461,316.406,0
1488709418.814,0.000,62.988,41.016,8.301,311.523,0
1488709418.818,0.000,87.891,51.758,-7.812,327.148,0
1488709418.822,0.000,103.027,94.727,0.488,313.965,0
1488709418.826,0.000,-16.602,95.215,8.789,296.387,0
1488709418.829,0.000,-84.473,40.527,24.414,305.664,0
1488709418.833,0.000,18.066,36.621,0.000,443.359,0
1488709418.837,0.000,77.637,-19.043,0.000,437.500,0
1488709418.841,0.000,12.695,-61.523,0.000,456.543,0
1488709418.845,0.000,6.348,13.184,0.000,468.262,0
1488709418.849,0.000,84.961,30.273,0.000,466.309,0
1488709418.853,0.000,53.711,-7.812,0.000,479.980,0
1488709418.857,0.000,20.020,26.367,0.000,497.559,0
1488709418.861,0.000,73.730,76.172,0.000,523.438,0
1488709418.865,0.000,20.020,33.203,0.000,544.434,0
1488709418.869,0.000,-12.207,-38.574,0.000,566.895,0
1488709418.872,0.000,-21.973,-13.184,0.000,604.980,0
1488709418.876,0.000,-6.836,60.547,0.000,613.281,0
1488709418.880,71.289,39.551,44.922,74.219,615.723,0
1488709418.884,-17.090,74.219,2.441,105.957,605.957,0
1488709418.888,20.020,37.598,-9.277,127.441,627.441,0
1488709418.892,94.238,21.484,58.594,103.027,657.715,0
1488709418.896,40.039,3.418,44.922,4.883,610.840,0
1488709418.900,-72.266,-35.645,-9.766,-43.457,587.402,0
1488709418.904,-85.449,4.883,38.574,-8.789,596.680,0
1488709418.908,-7.812,-4.883,21.973,-21.973,586.914,0
1488709418.911,31.250,12.695,37.109,33.203,580.078,0
1488709418.915,-20.020,69.336,19.531,90.332,582.520,0
1488709418.919,124.512,-15.137,-35.156,112.793,578.125,0
1488709418.923,175.293,-53.711,49.805,205.078,575.684,0
1488709418.927,-80.566,52.734,107.910,0.000,592.285,0
1488709418.931,-140.137,84.473,88.379,0.000,583.984,0
1488709418.935,-116.211,11.719,14.648,0.000,584.473,0
1488709418.939,-32.227,32.715,-1.465,0.000,581.543,0
1488709418.943,51.270,56.152,-0.977,0.000,543.457,0
1488709418.947,-27.344,-44.922,-26.855,0.000,553.223,0
1488709418.951,9.277,-51.758,-31.738,0.000,590.820,0
1488709418.954,-54.199,-19.531,5.371,0.000,569.824,0
1488709418.958,-180.664,-32.227,64.453,0.000,570.312,0
1488709418.962,-74.707,0.977,57.129,0.000,562.988,0
1488709418.966,-9.277,51.270,34.668,0.000,540.527,0
1488709418.970,-77.148,20.508,-64.453,0.000,523.926,0
1488709418.974,-51.270,-26.367,-147.461,-6.348,512.207,0
1488709418.978,35.645,-33.203,-25.879,66.406,506.836,0
1488709418.982,69.336,-7.324,81.543,96.680,505.859,0
1488709418.986,-25.391,35.645,13.672,12.695,493.652,0
1488709418.990,-216.309,-16.602,-85.449,-124.512,480.469,0
1488709418.994,-135.254,-5.859,5.859,-119.141,495.605,0
1488709418.997,109.863,87.402,120.605,-30.762,544.434,0
1488709419.001,17.578,55.176,46.875,-50.781,550.781,0
1488709419.005,-186.035,-22.461,-72.754,-48.340,552.246,0
1488709419.009,-50.781,-21.973,-99.609,-2.441,610.352,0
1488709419.013,118.164,-1.465,-38.574,3.418,637.695,0
1488709419.017,-13.184,10.254,11.230,7.812,672.363,0
1488709419.021,0.000,-51.758,0.000,-6.348,691.406,0
1488709419.025,0.000,-51.758,0.000,-35.645,699.219,0
1488709419.029,0.000,5.371,0.000,-42.969,707.031,0
1488709419.033,0.000,65.918,0.000,6.836,693.359,0
1488709419.036,0.000,109.863,0.000,58.594,696.289,0
1488709419.040,0.000,23.926,0.000,22.949,681.641,0
1488709419.044,0.000,-18.066,0.000,-11.719,668.945,0
1488709419.048,0.000,-13.672,0.000,28.320,673.340,0
1488709419.052,0.000,-25.391,0.000,-0.488,652.344,0
1488709419.056,0.000,0.977,0.000,-73.242,656.250,0
1488709419.060,0.000,3.418,0.000,-21.484,654.297,0
1488709419.064,0.000,34.180,0.000,35.645,619.141,0
1488709419.068,0.000,26.367,-74.219,0.000,638.672,0
1488709419.072,0.000,35.156,43.457,0.000,623.047,0
1488709419.076,0.000,37.598,96.191,0.000,611.328,0
1488709419.079,0.000,-25.391,4.883,0.000,599.121,0
1488709419.083,0.000,-3.418,-6.836,0.000,558.594,0
1488709419.087,0.000,10.254,38.086,0.000,536.621,0
1488709419.091,0.000,-47.363,-62.012,0.000,534.180,0
1488709419.095,0.000,-46.875,-95.703,0.000,561.523,0
1488709419.099,0.000,17.578,-4.883,0.000,589.844,0
1488709419.103,0.000,15.137,-15.625,0.000,597.656,0
1488709419.107,0.000,58.105,36.621,0.000,578.613,0
1488709419.111,0.000,56.641,45.410,0.000,606.445,0
1488709419.115,-67.871,3.418,-34.668,0.000,612.793,0
1488709419.119,-92.773,13.672,-13.672,0.000,580.566,0
1488709419.122,7.812,32.715,23.926,0.000,571.289,0
1488709419.126,56.152,-23.438,-1.465,0.000,583.496,0
1488709419.130,-15.625,-62.012,-12.695,0.000,593.262,0
1488709419.134,-64.941,3.418,8.789,0.000,569.824,0
1488709419.138,-38.086,43.457,-30.762,0.000,560.059,0
1488709419.142,-22.461,14.160,-65.918,0.000,575.195,0
1488709419.146,19.043,19.043,-19.043,0.000,549.805,0
1488709419.150,29.297,38.086,4.883,0.000,539.551,0
1488709419.154,2.441,29.297,-41.992,0.000,502.441,0
1488709419.158,-40.039,34.180,-72.266,0.000,456.055,0
1488709419.161,-40.527,-12.695,0.000,-142.578,434.082,0
1488709419.165,-26.367,-11.719,0.000,-167.480,408.691,0
1488709419.169,-103.027,3.418,0.000,-161.133,411.621,0
1488709419.173,-19.043,11.230,0.000,-126.953,416.016,0
1488709419.177,-11.230,39.551,0.000,-92.773,400.879,0
1488709419.181,-28.320,14.160,0.000,-105.469,381.836,0
1488709419.185,61.035,17.578,0.000,-65.918,375.488,0
1488709419.189,-9.277,76.660,0.000,-58.105,390.625,0
1488709419.193,-37.109,47.852,0.000,-132.812,389.160,0
1488709419.197,5.371,-13.184,0.000,-184.082,365.234,0
1488709419.201,0.488,-47.852,0.000,-167.969,330.566,0
1488709419.204,-15.625,-31.738,0.000,-139.648,275.879,0
1488709419.208,0.000,25.391,0.000,0.000,0.000,0
1488709419.212,0.000,69.336,0.000,0.000,0.000,0
1488709419.216,0.000,86.914,0.000,0.000,0.000,0
1488709419.220,0.000,50.293,0.000,0.000,0.000,0
1488709419.224,0.000,-0.488,0.000,0.000,0.000,0
1488709419.228,0.000,24.414,0.000,0.000,0.000,0
1488709419.232,0.000,57.129,0.000,0.000,0.000,0
1488709419.236,0.000,29.785,0.000,0.000,0.000,0
1488709419.240,0.000,6.348,0.000,0.000,0.000,0
1488709419.244,0.000,15.625,0.000,0.000,0.000,0
1488709419.247,0.000,31.738,0.000,0.000,0.000,0
1488709419.251,0.000,17.578,0.000,0.000,0.000,0
1488709419.255,9.766,-10.742,-66.406,-197.754,67.383,0
1488709419.259,13.672,-31.738,20.508,-216.797,46.387,0
1488709419.263,11.719,-46.875,2.930,-170.898,35.156,0
1488709419.267,-1.465,-15.137,-16.602,-144.043,23.926,0
1488709419.271,-3.418,22.461,40.039,-175.293,-18.555,0
1488709419.275,11.719,22.949,70.801,-191.895,-6.836,0
1488709419.279,35.156,28.809,-5.859,-178.711,1.953,0
1488709419.283,97.168,21.484,-132.812,-160.645,-14.648,0
1488709419.286,57.129,-19.043,-110.840,-181.641,-31.738,0
1488709419.290,0.488,-14.648,13.184,-180.176,-41.992,0
1488709419.294,18.555,24.414,47.363,-156.738,-35.156,0
1488709419.298,31.738,19.531,10.254,-149.902,-50.781,0
1488709419.302,13.672,-5.859,9.277,-177.246,-72.266,0
1488709419.306,5.371,25.391,23.926,-188.477,-74.707,0
1488709419.310,95.703,74.707,37.109,-129.883,-39.062,0
1488709419.314,50.781,32.715,36.133,-137.695,-47.852,0
1488709419.318,-33.691,-6.348,-17.090,-168.457,-83.496,0
1488709419.322,19.531,29.297,-39.551,-147.461,-91.309,0
1488709419.326,21.973,21.973,-20.020,-164.062,-119.629,0
1488709419.329,14.160,16.113,15.137,-166.504,-137.695,0
1488709419.333,67.383,51.758,44.434,-136.230,-162.109,0
1488709419.337,97.168,42.969,-21.973,-140.625,-156.250,0
1488709419.341,54.688,28.320,-89.844,-165.039,-129.395,0
1488709419.345,33.203,22.949,-26.855,-131.836,-164.551,0
1488709419.349,68.359,57.129,42.969,-98.633,-196.289,0
1488709419.353,85.938,53.223,-9.277,-163.574,-188.477,0
1488709419.357,69.824,45.410,-25.391,-130.371,-189.453,0
1488709419.361,86.426,67.383,35.645,-66.406,-204.590,0
1488709419.365,75.195,15.137,11.719,-117.188,-201.172,0
1488709419.369,9.766,6.836,-28.320,-87.402,-225.586,0
1488709419.372,-14.648,26.855,23.926,-63.965,-247.070,0
1488709419.376,-36.133,3.906,70.801,-126.953,-254.883,0
1488709419.380,-23.926,12.207,37.109,-141.602,-282.715,0
1488709419.384,34.180,24.414,-1.465,-118.652,-295.410,0
1488709419.388,47.363,10.254,-60.547,-94.238,-325.684,0
1488709419.392,64.941,30.273,-76.660,-53.223,-342.285,0
1488709419.396,64.941,37.598,31.738,0.000,0.000,0
1488709419.400,20.508,8.789,19.043,0.000,0.000,0
1488709419.404,6.836,32.715,-49.316,0.000,0.000,0
1488709419.408,25.391,15.625,-7.812,0.000,0.000,0
1488709419.411,62.500,0.977,84.961,0.000,0.000,0
1488709419.415,55.176,56.641,121.094,0.000,0.000,0
1488709419.419,7.812,33.691,55.176,0.000,0.000,0
1488709419.423,-25.391,-7.324,-35.645,0.000,0.000,0
1488709419.427,15.625,-8.301,-66.406,0.000,0.000,0
1488709419.431,30.762,15.625,-40.527,0.000,0.000,0
1488709419.435,-20.996,36.133,-37.598,0.000,0.000,0
1488709419.439,25.391,11.230,-19.531,0.000,0.000,0
1488709419.443,76.172,16.602,43.457,-15.625,-306.641,0
1488709419.447,60.547,36.621,9.277,-27.832,-280.762,0
1488709419.451,37.109,32.715,-78.613,-34.668,-295.410,0
1488709419.454,11.719,11.719,-76.660,-44.922,-292.480,0
1488709419.458,31.250,16.602,17.090,-55.664,-232.422,0
1488709419.462,11.230,25.879,46.875,-52.734,-218.262,0
1488709419.466,13.672,33.691,-17.090,-3.906,-227.539,0
1488709419.470,113.770,68.848,-31.738,33.203,-213.867,0
1488709419.474,97.168,35.645,-46.875,-14.648,-237.305,0
1488709419.478,35.645,7.812,2.441,-38.086,-274.902,0
1488709419.482,36.133,17.090,90.332,-34.668,-240.234,0
1488709419.486,23.438,14.160,77.637,-26.367,-220.703,0
1488709419.490,0.488,22.949,-2.930,-35.156,-220.215,0
1488709419.494,11.719,13.672,-66.895,-33.691,-188.477,0
1488709419.497,54.199,2.930,-51.758,9.766,-206.055,0
1488709419.501,74.707,38.574,14.648,22.461,-218.262,0
1488709419.505,84.473,74.707,65.918,14.160,-177.246,0
1488709419.509,70.312,55.664,33.203,-20.996,-159.668,0
1488709419.513,37.109,10.742,11.230,-45.410,-151.855,0
1488709419.517,19.531,-20.996,-13.184,-17.578,-138.672,0
1488709419.521,16.602,20.508,-14.648,-9.277,-128.418,0
1488709419.525,-0.977,37.109,12.695,-31.738,-107.422,0
1488709419.529,16.602,31.250,55.176,-4.395,-92.285,0
1488709419.533,32.227,15.625,51.758,11.719,-78.125,0
1488709419.536,8.301,-30.273,-64.941,-7.324,-77.148,0
1488709419.540,20.020,35.645,-43.457,10.254,-50.781,0
1488709419.544,23.438,75.684,25.879,-20.996,10.742,0
1488709419.548,30.762,30.762,23.438,-60.059,2.441,0
1488709419.552,55.176,29.297,48.828,-46.387,-18.066,0
1488709419.556,21.484,35.645,71.289,-48.828,-25.391,0
1488709419.560,21.484,32.715,20.020,-46.387,-50.293,0
1488709419.564,38.574,27.344,-46.875,-35.645,-32.715,0
1488709419.568,20.508,8.301,-39.062,-36.133,-31.738,0
1488709419.572,53.711,33.691,3.418,-30.762,-26.367,0
1488709419.576,39.551,25.391,12.695,-60.547,-11.719,0
1488709419.579,14.648,-8.789,-33.203,-64.453,7.324,0
1488709419.583,30.762,37.598,-22.461,-15.137,6.348,0
1488709419.587,-8.789,62.012,13.184,-62.012,4.395,0
1488709419.591,-17.090,24.414,22.461,-152.344,-0.488,0
1488709419.595,42.480,35.645,14.648,-137.695,-13.184,0
1488709419.599,49.316,48.340,-2.930,-68.359,-24.902,0
1488709419.603,-1.465,12.695,-29.785,-61.523,-48.828,0
1488709419.607,-51.758,-4.395,-20.508,-85.938,-41.992,0
1488709419.611,-35.156,-5.371,-6.348,-73.242,-39.062,0
1488709419.615,-0.977,6.348,25.391,-67.871,-82.520,0
1488709419.619,10.254,9.766,69.336,-79.102,-116.211,0
1488709419.622,2.930,16.602,28.809,-81.055,-104.492,0
1488709419.626,-32.227,6.836,-39.062,-83.984,-79.590,0
1488709419.630,-27.344,1.953,-13.672,-76.660,-84.473,0
1488709419.634,-22.461,1.465,11.230,-78.613,-100.586,0
1488709419.638,21.973,21.973,15.137,-48.340,-107.910,0
1488709419.642,56.152,45.898,-1.953,-33.691,-148.438,0
1488709419.646,31.250,18.555,-52.246,-70.801,-143.066,0
1488709419.650,58.594,23.926,11.719,-63.965,-116.211,0
1488709419.654,66.895,53.223,69.336,-63.477,-147.949,0
1488709419.658,34.668,32.715,11.719,-88.379,-163.574,0
1488709419.661,54.199,18.066,-5.371,-49.805,-147.461,0
1488709419.665,49.805,18.555,-1.465,-24.414,-142.578,0
1488709419.669,8.789,24.902,8.301,-31.250,-158.203,0
1488709419.673,7.812,33.691,51.270,-35.156,-176.758,0
1488709419.677,34.668,45.410,75.684,-41.504,-197.754,0
1488709419.681,48.340,46.387,52.246,-47.852,-212.402,0
1488709419.685,57.617,40.039,18.066,-53.711,-221.191,0
1488709419.689,62.988,28.320,-5.859,-29.297,-230.469,0
1488709419.693,34.668,12.207,-6.348,-43.457,-230.957,0
1488709419.697,16.113,18.066,43.945,-51.270,-242.676,0
1488709419.701,28.320,35.645,31.738,-36.133,-240.234,0
1488709419.704,64.453,32.715,-50.293,-33.691,-199.219,0
1488709419.708,130.859,32.715,-55.664,-7.324,-196.289,0
1488709419.712,122.559,30.273,-3.906,17.090,-202.148,0
1488709419.716,78.613,29.297,39.062,20.020,-160.645,0
1488709419.720,59.082,53.711,65.918,19.531,-186.523,0
1488709419.724,-28.320,16.602,41.992,-20.508,-242.188,0
1488709419.728,-79.590,-20.996,23.926,-62.500,-181.641,0
1488709419.732,-33.203,6.348,18.555,-75.684,-134.277,0
1488709419.736,11.719,17.578,1.953,-72.754,-138.672,0
1488709419.740,50.781,-0.977,-10.742,-60.059,-131.836,0
1488709419.744,71.289,3.906,-19.531,-63.477,-100.098,0
1488709419.747,50.293,33.691,-50.781,-73.242,-64.453,0
1488709419.751,23.438,37.598,-70.801,-77.148,-63.965,0
1488709419.755,0.488,35.645,-20.020,-57.129,-48.828,0
1488709419.759,1.953,38.574,17.090,-34.180,-40.039,0
1488709419.763,22.461,41.992,15.625,-23.926,-64.453,0
1488709419.767,31.250,42.480,8.789,-29.785,-94.727,0
1488709419.771,4.395,14.160,-23.438,-61.523,-89.844,0
1488709419.775,2.930,-3.418,-52.734,-61.523,-53.223,0
1488709419.779,49.805,22.949,-13.672,-28.320,-53.223,0
1488709419.783,43.457,49.316,19.043,-20.996,-95.215,0
1488709419.786,-4.395,41.016,8.301,-47.363,-104.980,0
1488709419.790,-12.207,20.020,31.738,-60.547,-75.684,0
1488709419.794,16.602,41.992,42.969,-44.922,-73.730,0
1488709419.798,52.734,55.664,29.785,-31.250,-95.703,0
1488709419.802,61.523,32.715,-0.977,-35.156,-78.125,0
1488709419.806,33.203,19.043,-30.762,-49.316,-49.316,0
1488709419.810,14.160,14.648,-16.113,-54.199,-94.727,0
1488709419.814,24.414,30.762,-14.160,-52.734,-132.324,0
1488709419.818,28.809,52.734,-12.207,-33.203,-88.867,0
1488709419.822,16.602,48.828,-20.508,-21.484,-87.891,0
1488709419.826,-1.465,36.621,-41.016,-39.551,-104.492,0
1488709419.829,11.230,35.156,0.000,-35.156,-69.824,0
1488709419.833,32.715,32.227,-6.348,-25.879,-71.777,0
1488709419.837,15.625,27.832,-68.359,-25.879,-83.008,0
1488709419.841,39.062,50.293,-39.551,7.324,-126.953,0
1488709419.845,50.293,42.480,-32.715,28.320,-141.113,0
1488709419.849,31.250,25.391,-44.922,7.812,-82.520,0
1488709419.853,52.734,46.875,41.992,-3.418,-107.910,0
1488709419.857,79.102,54.199,96.680,-19.531,-133.789,0
1488709419.861,63.477,51.270,94.727,-35.156,-121.582,0
1488709419.865,20.020,57.129,72.754,-19.043,-86.426,0
1488709419.869,5.859,44.434,17.578,-20.020,-104.980,0
1488709419.872,9.277,24.414,-30.273,-17.090,-128.906,0
1488709419.876,1.465,4.883,-39.551,-1.953,-108.887,0
1488709419.880,-5.371,-2.441,9.766,-10.254,-121.582,0
1488709419.884,-16.602,14.160,22.949,-28.320,-129.395,0
1488709419.888,-20.508,22.461,-32.715,-49.316,-153.809,0
1488709419.892,10.742,32.715,-17.578,-45.410,-163.574,0
1488709419.896,23.926,43.945,53.223,-21.484,-116.211,0
1488709419.900,23.926,45.410,40.527,-22.949,-119.141,0
1488709419.904,47.852,50.781,11.230,-36.133,-128.418,0
1488709419.908,63.965,37.598,16.113,-64.453,-128.418,0
1488709419.911,37.109,21.484,14.160,-59.082,-164.551,0
1488709419.915,-4.883,8.789,-15.137,-40.039,-171.387,0
1488709419.919,25.879,24.902,0.977,-37.598,-131.836,0
1488709419.923,52.246,35.156,33.691,-34.668,-125.488,0
1488709419.927,35.156,15.625,50.293,-32.715,-162.598,0
1488709419.931,33.203,14.160,52.734,-22.949,-166.504,0
1488709419.935,29.785,19.043,19.043,-25.879,-160.645,0
1488709419.939,47.363,47.852,-21.973,-40.527,-163.086,0
1488709419.943,39.062,67.871,-6.836,-50.781,-154.785,0
1488709419.947,6.836,41.016,41.992,-54.688,-192.871,0
1488709419.951,25.391,19.043,25.879,-63.477,-230.957,0
1488709419.954,58.594,17.578,-21.484,-59.570,-209.473,0
1488709419.958,61.035,50.781,-37.598,-37.109,-195.312,0
1488709419.962,27.832,60.547,-4.395,-44.922,-201.172,0
1488709419.966,-9.766,41.504,29.297,-60.547,-208.984,0
1488709419.970,10.742,24.414,-7.812,-56.641,-202.148,0
1488709419.974,39.551,20.020,-26.855,-46.875,-211.914,0
1488709419.978,55.176,41.016,-21.973,-45.410,-233.887,0
1488709419.982,76.660,66.406,-9.766,-43.457,-215.820,0
1488709419.986,52.734,42.480,18.066,-42.969,-204.102,0
1488709419.990,19.531,24.902,-2.441,-38.086,-223.145,0
1488709419.994,21.973,44.434,-26.367,-52.246,-245.117,0
1488709419.997,33.691,50.781,25.391,-62.500,-231.445,0
1488709420.001,65.430,81.055,56.152,-37.598,-225.586,0
1488709420.005,52.246,77.637,-40.527,-23.926,-238.770,0
1488709420.009,-4.395,27.832,-48.340,-39.062,-232.422,0
1488709420.013,-12.695,25.391,57.129,-32.227,-193.359,0
1488709420.017,14.648,40.039,48.828,-23.926,-193.848,0
1488709420.021,36.621,37.598,26.367,-39.551,-215.820,0
1488709420.025,31.250,24.902,30.762,-48.828,-210.449,0
1488709420.029,21.484,25.391,18.066,-39.062,-181.641,0
1488709420.033,33.691,40.527,19.043,-5.371,-175.781,0
1488709420.036,37.598,24.902,6.836,-2.441,-182.617,0
1488709420.040,61.523,7.812,-11.230,-4.395,-194.336,0
1488709420.044,98.145,34.668,-31.250,13.184,-198.730,0
1488709420.048,43.457,40.039,-28.320,-17.578,-195.801,0
1488709420.052,-19.531,42.969,33.691,-42.480,-224.609,0
1488709420.056,-5.371,62.012,41.016,-30.273,-215.820,0
1488709420.060,4.395,51.758,6.348,-50.781,-205.566,0
1488709420.064,16.602,58.105,-26.367,-47.852,-222.168,0
1488709420.068,33.203,59.570,-72.266,-23.438,-244.141,0
1488709420.072,19.531,44.434,-43.945,-33.203,-221.680,0
1488709420.076,8.301,42.480,22.949,-35.156,-195.801,0
1488709420.079,12.207,48.828,29.785,-25.879,-210.449,0
1488709420.083,13.672,61.523,28.809,-15.137,-218.262,0
1488709420.087,16.602,65.918,48.828,-8.301,-200.684,0
1488709420.091,10.254,47.363,-16.113,-22.949,-202.637,0
1488709420.095,12.695,33.691,-57.617,-21.973,-183.105,0
1488709420.099,19.043,29.297,-15.137,-35.645,-187.500,0
1488709420.103,29.297,33.691,20.508,-52.734,-208.008,0
1488709420.107,30.762,37.598,57.129,-34.668,-198.242,0
1488709420.111,20.996,28.320,63.477,-34.668,-208.496,0
1488709420.115,14.160,23.438,21.973,-44.434,-219.238,0
1488709420.119,9.277,19.043,-40.039,-37.109,-166.992,0
1488709420.122,42.969,44.922,-48.828,-16.602,-129.395,0
1488709420.126,61.035,55.176,-1.465,-13.184,-153.809,0
1488709420.130,47.363,28.809,21.973,-32.227,-160.645,0
1488709420.134,49.316,26.367,-7.324,-25.391,-141.113,0
1488709420.138,42.969,44.922,-12.207,-6.836,-126.465,0
1488709420.142,57.617,68.359,10.254,2.441,-107.422,0
1488709420.146,72.266,60.059,4.395,-1.953,-74.219,0
1488709420.150,35.645,32.227,9.277,-19.531,-50.781,0
1488709420.154,10.254,26.367,35.645,-18.066,-43.457,0
1488709420.158,18.066,41.016,32.227,-5.371,-46.875,0
1488709420.161,-2.441,34.180,10.742,-13.672,-32.227,0
1488709420.165,-10.254,18.555,-6.348,-24.902,-17.578,0
1488709420.169,24.902,30.273,2.930,-13.672,-26.855,0
1488709420.173,27.832,35.156,1.953,-18.555,-27.832,0
1488709420.177,10.254,28.320,-22.949,-26.367,3.418,0
1488709420.181,24.902,23.926,-62.988,-20.508,22.461,0
1488709420.185,36.621,11.719,-56.641,-18.555,31.250,0
1488709420.189,32.227,33.203,34.668,-1.953,58.105,0
1488709420.193,25.879,66.406,74.219,-11.719,70.801,0
1488709420.197,23.926,66.895,50.293,-29.785,74.707,0
1488709420.201,18.066,65.918,10.742,-18.555,47.852,0
1488709420.204,13.672,33.203,-12.695,-16.602,55.664,0
1488709420.208,16.113,-6.836,3.418,-29.785,65.430,0
1488709420.212,35.645,21.973,7.812,-39.062,41.016,0
1488709420.216,48.828,45.898,-2.930,-52.246,23.438,0
1488709420.220,34.668,41.992,-5.371,-46.387,31.250,0
1488709420.224,24.902,47.363,18.066,-21.973,59.082,0
1488709420.228,24.414,41.504,21.973,-28.809,50.781,0
1488709420.232,24.902,36.621,18.066,-24.414,-6.348,0
1488709420.236,28.320,48.828,3.418,-9.766,-18.555,0
1488709420.240,33.691,47.363,-26.367,-10.254,-0.488,0
1488709420.244,29.785,45.898,-20.996,-12.207,-6.348,0
1488709420.247,26.367,45.898,-20.996,-11.719,-25.391,0
1488709420.251,44.434,43.945,-6.836,-10.254,-42.480,0
1488709420.255,62.500,50.781,28.809,3.906,-33.691,0
1488709420.259,39.551,36.133,13.672,14.648,-55.176,0
1488709420.263,-0.977,15.625,-35.645,-14.648,-87.891,0
1488709420.267,-19.531,15.137,-15.137,-40.527,-101.562,0
1488709420.271,1.465,21.484,19.531,-8.301,-94.727,0
1488709420.275,10.254,37.598,2.930,-7.812,-96.191,0
1488709420.279,0.977,43.945,-44.434,-36.133,-125.488,0
1488709420.283,25.879,49.805,-88.379,-7.812,-145.996,0
1488709420.286,18.555,55.176,-56.641,-11.719,-164.062,0
1488709420.290,-9.277,29.785,37.598,-37.598,-165.527,0
1488709420.294,-12.207,23.438,64.941,-41.992,-207.031,0
1488709420.298,-15.625,26.367,-2.441,-56.152,-218.750,0
1488709420.302,19.531,26.367,-19.531,-30.273,-242.676,0
1488709420.306,63.965,48.828,-23.438,13.672,-232.910,0
1488709420.310,55.176,63.477,-16.113,9.766,-203.125,0
1488709420.314,15.625,40.039,58.594,-18.555,-220.215,0
1488709420.318,12.207,37.109,53.223,-9.277,-223.633,0
1488709420.322,13.184,39.551,0.488,6.836,-264.648,0
1488709420.326,-7.812,31.250,18.066,-14.648,-291.016,0
1488709420.329,23.438,57.129,37.598,11.719,-277.344,0
1488709420.333,52.246,55.664,31.250,45.898,-288.574,0
1488709420.337,12.207,6.836,13.184,8.301,-286.133,0
1488709420.341,-27.344,-7.812,17.578,-37.598,-261.719,0
1488709420.345,-48.828,-8.789,45.898,-55.176,-260.254,0
1488709420.349,-24.902,-14.648,-0.977,-22.949,-267.578,0
1488709420.353,11.719,3.906,-59.570,-4.883,-258.789,0
1488709420.357,13.184,47.852,-10.254,-23.438,-227.051,0
1488709420.361,3.906,55.664,21.973,-27.832,-221.680,0
1488709420.365,-20.020,24.414,5.371,-29.297,-265.137,0
1488709420.369,-43.457,9.766,8.301,-35.645,-271.973,0
1488709420.372,-40.039,-3.906,44.434,-25.879,-234.863,0
1488709420.376,-23.926,1.465,68.848,-14.160,-231.445,0
1488709420.380,0.000,29.785,54.688,-14.648,-263.184,0
1488709420.384,20.508,32.715,13.672,-0.977,-277.344,0
1488709420.388,16.113,15.625,-34.180,11.719,-265.625,0
1488709420.392,40.527,34.668,-46.875,25.879,-256.348,0
1488709420.396,54.688,57.129,-18.555,31.250,-245.605,0
1488709420.400,0.977,18.555,19.531,-2.441,-254.883,0
1488709420.404,-25.879,8.789,49.316,-20.996,-241.211,0
1488709420.408,-25.879,30.762,34.180,-9.766,-224.121,0
1488709420.411,-37.598,19.531,0.488,-23.926,-212.402,0
1488709420.415,-50.293,6.348,-5.371,-56.641,-216.797,0
1488709420.419,-42.969,11.230,0.977,-56.152,-207.520,0
1488709420.423,-21.973,26.855,-9.277,-37.598,-196.289,0
1488709420.427,-1.953,28.320,-35.156,-29.297,-212.891,0
1488709420.431,18.066,2.930,-16.113,-15.625,-224.609,0
1488709420.435,35.645,12.207,19.531,-1.465,-176.758,0
1488709420.439,12.695,24.902,2.441,-13.672,-167.480,0
1488709420.443,-2.441,11.719,0.488,-17.090,-192.383,0
1488709420.447,19.043,9.277,26.855,2.930,-182.617,0
1488709420.451,-3.906,16.602,42.480,6.836,-145.020,0
1488709420.454,-21.484,27.344,59.082,5.371,-151.367,0
1488709420.458,-29.785,30.273,62.988,-3.418,-187.988,0
1488709420.462,-70.801,16.113,62.012,-30.762,-157.227,0
1488709420.466,-67.383,11.719,63.477,-25.391,-132.324,0
1488709420.470,-52.734,12.695,39.551,-34.668,-159.180,0
1488709420.474,-32.715,20.020,-38.086,-28.320,-138.184,0
1488709420.478,7.812,26.367,-39.062,15.137,-91.797,0
1488709420.482,-9.766,6.836,6.836,-7.812,-63.965,0
1488709420.486,-31.738,11.230,23.438,-39.551,-72.266,0
1488709420.490,-22.949,33.203,54.688,-28.320,-113.281,0
1488709420.494,-19.043,36.133,25.879,-41.016,-107.422,0
1488709420.497,-10.742,31.250,6.836,-42.969,-90.820,0
1488709420.501,-2.441,18.066,4.395,-35.156,-77.148,0
1488709420.505,5.371,13.184,-7.812,-33.203,-89.844,0
1488709420.509,16.602,25.879,17.578,-22.949,-114.258,0
1488709420.513,47.363,55.176,26.855,26.855,-97.656,0
1488709420.517,58.594,60.547,-24.414,43.457,-95.215,0
1488709420.521,35.645,28.809,-1.465,3.418,-107.910,0
1488709420.525,38.574,27.344,41.504,5.859,-82.031,0
1488709420.529,56.152,42.969,16.602,18.555,-72.754,0
1488709420.533,65.918,40.527,4.883,32.715,-99.609,0
1488709420.536,49.316,26.367,-7.324,18.555,-82.520,0
1488709420.540,27.832,14.160,-51.758,-27.832,-27.832,0
1488709420.544,45.410,29.297,-47.852,-20.020,-28.809,0
1488709420.548,60.059,46.387,25.879,-1.465,-88.867,0
1488709420.552,28.809,43.457,56.152,-7.812,-89.844,0
1488709420.556,23.926,43.457,17.090,6.348,-92.285,0
1488709420.560,63.477,44.922,-40.527,53.223,-135.254,0
1488709420.564,56.152,38.086,-22.949,39.551,-153.320,0
1488709420.568,61.035,53.223,57.129,19.531,-148.438,0
1488709420.572,82.520,83.496,65.918,44.922,-157.715,0
1488709420.576,58.105,77.637,4.395,36.133,-176.758,0
1488709420.579,24.902,49.805,-7.812,5.859,-170.898,0
1488709420.583,23.926,65.430,40.527,1.953,-119.141,0
1488709420.587,29.297,79.590,43.457,-9.277,-104.004,0
1488709420.591,3.418,31.738,2.441,-37.109,-125.977,0
1488709420.595,-0.488,15.625,-32.227,-31.250,-139.648,0
1488709420.599,3.906,46.875,-83.496,-40.039,-121.582,0
1488709420.603,9.766,59.082,-84.961,-33.691,-99.121,0
1488709420.607,12.207,59.570,-43.945,-13.184,-114.258,0
1488709420.611,18.066,78.125,4.395,-10.742,-114.258,0
1488709420.615,17.578,50.781,12.695,-24.414,-69.824,0
1488709420.619,27.344,22.949,43.457,-5.859,-60.547,0
1488709420.622,36.133,75.195,80.078,10.254,-83.496,0
1488709420.626,10.254,92.773,-26.367,-26.367,-39.062,0
1488709420.630,27.832,91.797,-108.398,-27.344,-20.508,0
1488709420.634,58.594,97.168,-10.254,4.883,-19.531,0
1488709420.638,44.434,63.477,78.125,2.441,-32.715,0
1488709420.642,33.203,48.828,64.941,-10.742,-35.156,0
1488709420.646,33.203,63.965,23.926,-12.207,-0.977,0
1488709420.650,38.574,66.406,-11.719,-3.906,2.441,0
1488709420.654,28.809,49.316,-57.129,-6.836,-20.020,0
1488709420.658,45.898,55.664,-82.031,18.555,31.250,0
1488709420.661,71.777,67.871,-15.137,49.316,83.496,0
1488709420.665,49.805,35.645,8.789,24.902,54.199,0
1488709420.669,63.477,47.852,-28.809,32.715,60.547,0
1488709420.673,78.613,57.617,42.480,38.086,97.168,0
1488709420.677,50.293,20.020,101.074,14.648,102.051,0
1488709420.681,31.738,10.254,63.965,6.836,91.797,0
1488709420.685,28.809,25.391,33.203,11.719,134.277,0
1488709420.689,32.715,34.180,36.621,6.836,142.090,0
1488709420.693,62.500,39.551,4.395,28.809,159.180,0
1488709420.697,86.426,57.129,-38.086,56.641,191.895,0
1488709420.701,37.109,45.898,-10.742,29.297,185.059,0
1488709420.704,14.160,37.109,15.137,17.090,199.219,0
1488709420.708,46.875,59.570,30.273,50.293,199.219,0
1488709420.712,34.668,42.480,34.668,52.734,203.613,0
1488709420.716,18.555,16.602,22.949,26.367,212.891,0
1488709420.720,22.461,23.926,39.062,15.137,209.961,0
1488709420.724,12.695,23.926,18.555,25.879,233.887,0
1488709420.728,16.113,34.180,-5.859,32.227,216.309,0
1488709420.732,48.828,55.664,2.930,41.016,245.117,0
1488709420.736,61.523,52.246,-10.742,62.500,307.129,0
1488709420.740,37.598,28.809,-14.648,37.109,286.133,0
1488709420.744,25.391,18.066,16.602,-3.906,242.676,0
1488709420.747,39.062,33.203,41.016,24.414,260.254,0
1488709420.751,41.016,40.039,76.172,63.477,284.668,0
1488709420.755,27.344,25.879,5.371,37.598,289.062,0
1488709420.759,6.348,9.277,-47.852,5.371,314.941,0
1488709420.763,-10.742,3.418,53.711,2.930,315.918,0
1488709420.767,7.812,20.508,75.684,18.555,326.660,0
1488709420.771,29.297,41.016,-0.488,40.527,322.754,0
1488709420.775,29.297,50.293,5.371,46.387,317.871,0
1488709420.779,14.648,46.387,94.727,47.852,337.891,0
1488709420.783,-28.320,22.461,50.293,18.555,340.332,0
1488709420.786,-51.270,15.137,-60.059,-20.508,297.852,0
1488709420.790,-53.223,-10.254,-17.090,-41.992,273.438,0
1488709420.794,-43.945,-17.090,44.922,-43.457,317.383,0
1488709420.798,1.465,47.852,52.246,-0.977,293.457,0
1488709420.802,5.371,61.035,17.578,7.812,270.020,0
1488709420.806,-22.461,44.922,-5.371,-1.953,303.223,0
1488709420.810,-23.926,37.598,34.180,6.836,312.988,0
1488709420.814,-62.012,1.953,73.242,-18.555,299.316,0
1488709420.818,-72.754,-4.395,44.922,-37.598,283.691,0
1488709420.822,-65.918,6.348,17.090,-42.480,309.082,0
1488709420.826,-72.266,6.348,42.480,-40.527,301.270,0
1488709420.829,-76.172,4.395,33.203,-41.992,286.621,0
1488709420.833,-82.520,5.371,27.832,-53.711,289.062,0
1488709420.837,-71.289,6.836,6.836,-34.180,283.203,0
1488709420.841,-64.453,16.113,25.879,-22.461,277.832,0
1488709420.845,-75.195,7.324,70.312,-31.738,274.902,0
1488709420.849,-62.012,6.836,47.363,-9.766,278.809,0
1488709420.853,-8.789,50.293,18.555,16.113,267.090,0
1488709420.857,-17.090,20.020,-35.156,-6.348,291.504,0
1488709420.861,-50.781,-26.367,-13.184,-27.344,299.316,0
1488709420.865,-41.504,7.324,85.449,-21.484,285.645,0
1488709420.869,-40.527,43.457,105.469,-23.438,286.133,0
1488709420.872,-71.777,34.668,63.965,-36.621,250.977,0
1488709420.876,-85.938,8.301,21.484,-40.527,249.023,0
1488709420.880,-70.312,12.207,10.742,-30.762,270.508,0
1488709420.884,-64.941,15.625,15.625,-19.531,269.043,0
1488709420.888,-62.988,10.742,-3.418,-9.277,290.039,0
1488709420.892,-51.270,33.203,-4.883,7.812,253.418,0
1488709420.896,-47.363,26.367,13.672,-9.766,225.098,0
1488709420.900,-38.086,29.297,26.855,-14.648,259.766,0
1488709420.904,-36.621,38.086,42.480,2.441,246.094,0
1488709420.908,-47.852,16.602,42.969,-14.648,241.211,0
1488709420.911,-35.645,27.344,8.789,-11.719,256.836,0
1488709420.915,-18.066,46.387,-25.391,14.648,243.164,0
1488709420.919,-18.555,32.227,-27.832,21.484,233.398,0
1488709420.923,-35.645,18.066,-11.230,5.371,222.168,0
1488709420.927,-39.062,22.949,33.691,1.953,229.004,0
1488709420.931,-23.926,29.297,72.754,23.926,209.473,0
1488709420.935,-6.348,43.945,52.734,45.898,162.109,0
1488709420.939,-0.488,62.500,-0.488,56.641,149.414,0
1488709420.943,-26.855,44.922,-18.066,33.691,179.688,0
1488709420.947,-18.066,32.715,-3.418,46.875,196.777,0
1488709420.951,7.324,42.969,-19.043,63.965,166.016,0
1488709420.954,-3.418,27.832,-31.738,35.645,160.156,0
1488709420.958,12.695,32.227,-6.348,38.086,152.832,0
1488709420.962,12.207,43.457,-41.504,41.504,154.785,0
1488709420.966,-16.113,32.715,-60.547,46.875,146.484,0
1488709420.970,-19.043,23.926,6.348,53.223,114.258,0
1488709420.974,3.906,32.715,48.340,41.504,128.418,0
1488709420.978,8.301,44.922,22.461,20.996,122.559,0
1488709420.982,-17.578,37.598,-11.230,19.043,101.562,0
1488709420.986,-52.246,29.785,-26.855,30.762,92.773,0
1488709420.990,-55.176,40.527,-39.551,30.273,104.492,0
1488709420.994,-25.879,44.434,-20.508,40.039,100.586,0
1488709420.997,-16.113,37.598,-18.066,25.391,76.660,0
1488709421.001,-5.859,43.945,-37.598,12.695,100.586,0
1488709421.005,15.137,58.105,-28.809,35.645,123.047,0
1488709421.009,-14.648,44.922,-16.602,36.133,113.770,0
1488709421.013,-43.945,19.531,-8.301,18.555,114.258,0
1488709421.017,-23.926,11.230,-25.879,15.137,116.699,0
1488709421.021,-0.488,20.508,-43.945,31.738,142.578,0
1488709421.025,7.812,39.551,-34.668,47.363,151.855,0
1488709421.029,0.977,48.340,-35.645,45.898,134.766,0
1488709421.033,-7.324,36.133,-26.855,34.180,140.625,0
1488709421.036,-6.348,28.320,-1.465,30.273,147.461,0
1488709421.040,20.508,46.875,10.254,67.871,108.398,0
1488709421.044,50.781,63.477,24.414,101.074,99.609,0
1488709421.048,24.902,42.969,34.180,89.355,144.043,0
1488709421.052,-2.930,21.973,35.645,71.777,147.461,0
1488709421.056,27.832,17.578,15.625,79.102,137.695,0
1488709421.060,39.062,-6.348,-38.574,65.430,159.180,0
1488709421.064,16.113,6.348,-29.297,57.129,185.059,0
1488709421.068,26.855,65.918,32.715,94.727,166.992,0
1488709421.072,16.113,61.035,26.367,91.309,154.297,0
1488709421.076,-3.418,34.180,-6.348,63.965,162.109,0
1488709421.079,9.277,40.039,-4.395,71.777,156.738,0
1488709421.083,30.762,48.828,-41.016,71.777,140.625,0
1488709421.087,48.340,47.852,-62.500,66.895,159.180,0
1488709421.091,52.734,61.523,-11.230,81.055,160.645,0
1488709421.095,27.832,72.754,40.527,79.102,129.395,0
1488709421.099,-15.137,49.316,56.641,60.547,142.578,0
