timestamps,TP9,AF7,AF8,TP10,Right AUX,Marker0
1512883177.668,44.434,27.344,21.484,25.879,9.766,0
1512883177.671,36.133,16.602,33.691,39.551,29.785,0
1512883177.675,33.203,2.441,35.156,35.645,40.527,0
1512883177.679,40.039,7.812,34.668,27.832,34.668,0
1512883177.683,38.086,17.090,37.598,29.297,25.879,0
1512883177.687,23.926,20.508,33.691,29.297,5.859,0
1512883177.691,27.344,13.672,31.738,55.176,31.250,0
1512883177.695,36.621,9.766,34.668,49.805,32.227,0
1512883177.699,36.621,24.902,31.250,22.461,16.602,0
1512883177.703,29.785,30.762,28.320,20.020,11.719,0
1512883177.707,36.621,20.020,30.762,25.879,38.086,0
1512883177.711,42.480,10.254,30.273,21.484,54.688,0
1512883177.714,26.367,14.160,32.715,19.043,35.156,0
1512883177.718,29.297,25.879,32.715,29.785,25.391,0
1512883177.722,39.062,23.438,41.504,33.691,39.062,0
1512883177.726,32.227,16.602,40.039,23.926,25.391,0
1512883177.730,45.898,28.809,30.762,30.273,29.785,0
1512883177.734,55.664,29.297,32.227,35.645,55.664,0
1512883177.738,43.457,15.625,27.832,32.715,56.641,0
1512883177.742,35.645,18.555,28.809,37.109,31.738,0
1512883177.746,33.691,21.973,37.109,56.641,-19.531,0
1512883177.750,37.598,17.578,39.062,51.270,3.418,0
1512883177.754,49.316,12.207,38.086,33.691,36.621,0
1512883177.757,42.480,17.090,33.691,40.039,7.324,0
1512883177.761,27.832,22.461,32.227,28.320,21.484,0
1512883177.765,40.039,20.020,39.062,26.855,40.527,0
1512883177.769,36.133,21.484,40.527,30.762,41.016,0
1512883177.773,30.762,17.578,39.551,30.273,24.902,0
1512883177.777,29.785,20.508,42.480,46.387,24.902,0
1512883177.781,19.531,21.973,41.504,43.945,43.945,0
1512883177.785,21.973,15.625,38.086,30.273,34.180,0
1512883177.789,34.668,8.789,41.016,19.531,18.555,0
1512883177.793,28.320,8.301,33.203,16.113,25.391,0
1512883177.796,15.625,16.113,29.785,21.484,20.508,0
1512883177.800,20.508,13.184,36.133,26.367,16.602,0
1512883177.804,20.508,12.207,39.551,40.527,23.926,0
1512883177.808,24.902,11.230,38.086,40.039,27.832,0
1512883177.812,20.020,11.230,36.133,28.320,38.574,0
1512883177.816,12.695,13.672,39.062,21.484,36.621,0
1512883177.820,19.043,3.906,43.945,36.133,16.602,0
1512883177.824,21.973,11.719,42.969,38.086,10.254,0
1512883177.828,20.020,22.461,38.574,23.926,38.086,0
1512883177.832,17.578,8.301,47.363,31.738,1.953,0
1512883177.836,21.484,8.301,48.340,52.734,-8.789,0
1512883177.839,30.273,29.785,37.598,39.551,37.109,0
1512883177.843,50.293,26.367,43.457,22.461,40.039,0
1512883177.847,60.059,9.277,48.340,38.086,12.695,0
1512883177.851,51.270,9.766,39.062,44.922,-8.789,0
1512883177.855,49.805,22.949,33.203,47.363,22.949,0
1512883177.859,53.223,23.438,35.156,52.734,59.570,0
1512883177.863,43.945,23.926,35.156,45.410,51.270,0
1512883177.867,42.480,28.320,34.180,36.133,-19.531,0
1512883177.871,51.270,28.809,28.320,36.133,-8.789,0
1512883177.875,52.246,27.832,26.855,31.738,59.082,0
1512883177.879,43.457,26.367,29.785,37.109,63.477,0
1512883177.882,37.109,30.273,26.855,25.879,40.527,0
1512883177.886,46.875,29.785,31.250,14.160,32.715,0
1512883177.890,45.898,22.461,42.480,17.090,30.762,0
1512883177.894,52.246,21.484,37.109,26.855,10.742,0
1512883177.898,52.734,26.367,35.156,53.223,28.320,0
1512883177.902,50.293,17.578,34.180,55.664,77.637,0
1512883177.906,44.922,0.488,33.203,35.645,36.621,0
1512883177.910,22.461,8.789,32.227,27.344,-31.250,0
1512883177.914,23.926,10.742,32.227,30.762,20.508,0
1512883177.918,31.250,13.184,40.527,33.203,74.219,0
1512883177.921,27.344,28.320,41.992,36.621,51.758,0
1512883177.925,28.320,24.414,38.086,38.086,25.391,0
1512883177.929,26.367,17.090,33.691,14.160,-3.906,0
1512883177.933,11.719,13.672,42.480,10.254,-6.836,0
1512883177.937,20.508,11.230,46.387,31.738,20.996,0
1512883177.941,28.809,20.996,33.691,39.551,32.715,0
1512883177.945,33.203,13.184,30.762,40.039,30.762,0
1512883177.949,40.527,0.000,37.598,40.527,20.020,0
1512883177.953,38.086,9.277,42.969,39.551,10.742,0
1512883177.957,41.016,19.043,32.715,36.621,16.602,0
1512883177.961,37.109,15.625,33.203,37.109,38.086,0
1512883177.964,32.227,18.066,29.297,36.621,59.570,0
1512883177.968,48.828,24.414,25.879,25.879,41.504,0
1512883177.972,51.270,28.320,32.227,22.949,-3.418,0
1512883177.976,36.621,28.809,37.598,31.738,17.578,0
1512883177.980,40.527,19.531,41.016,34.180,58.594,0
1512883177.984,44.922,19.531,38.086,31.738,14.160,0
1512883177.988,43.945,13.184,41.992,29.785,8.789,0
1512883177.992,47.852,4.883,39.062,29.297,49.316,0
1512883177.996,42.969,11.719,40.039,35.156,58.105,0
1512883178.000,45.410,18.066,36.133,38.086,48.340,0
1512883178.004,39.551,23.438,29.297,33.691,20.508,0
1512883178.007,39.551,19.531,31.738,22.461,32.227,0
1512883178.011,41.504,7.812,32.715,27.344,39.551,0
1512883178.015,38.086,14.160,33.691,39.551,-15.625,0
1512883178.019,43.457,24.902,34.668,45.898,-4.395,0
1512883178.023,44.922,25.391,33.691,37.598,40.039,0
1512883178.027,33.203,22.461,32.227,42.969,61.523,0
1512883178.031,19.043,23.438,37.598,49.805,49.805,0
1512883178.035,17.578,26.855,35.645,20.996,30.762,0
1512883178.039,20.508,20.508,26.367,2.441,59.082,0
1512883178.043,22.949,17.090,28.320,5.859,53.711,0
1512883178.046,20.020,10.742,32.715,38.574,31.738,0
1512883178.050,16.113,12.695,29.785,28.320,17.090,0
1512883178.054,14.160,21.973,36.133,2.930,26.855,0
1512883178.058,12.207,21.973,45.410,22.949,22.949,0
1512883178.062,21.973,28.809,35.645,29.297,-17.090,0
1512883178.066,42.969,16.602,35.156,24.414,18.066,0
1512883178.070,35.645,7.324,38.574,31.738,51.758,0
1512883178.074,9.766,24.414,37.598,40.039,-9.277,0
1512883178.078,3.418,35.156,35.645,37.598,-5.859,0
1512883178.082,20.996,29.785,35.156,37.598,48.828,0
1512883178.086,29.297,23.926,39.551,41.504,54.688,0
1512883178.089,17.578,26.367,38.086,54.199,46.875,0
1512883178.093,7.812,15.137,40.039,37.598,35.645,0
1512883178.097,0.977,6.836,44.922,16.602,60.547,0
1512883178.101,-0.488,12.207,39.551,27.832,47.852,0
1512883178.105,6.348,12.695,39.551,30.273,21.484,0
1512883178.109,20.996,17.090,36.621,25.879,46.387,0
1512883178.113,38.086,17.578,30.762,33.203,41.016,0
1512883178.117,45.898,23.438,35.645,33.691,27.832,0
1512883178.121,48.340,32.715,39.062,40.039,0.000,0
1512883178.125,37.109,21.973,39.551,40.527,-22.461,0
1512883178.129,31.738,7.324,39.062,20.020,44.434,0
1512883178.132,32.715,9.277,37.109,21.484,40.039,0
1512883178.136,33.691,10.254,31.250,20.508,10.742,0
1512883178.140,42.969,10.254,30.273,9.766,26.855,0
1512883178.144,45.898,19.531,32.227,25.879,48.828,0
1512883178.148,41.992,25.879,33.203,40.527,44.434,0
1512883178.152,36.133,32.227,36.621,47.852,32.227,0
1512883178.156,49.805,36.133,36.133,50.781,60.059,0
1512883178.160,58.594,24.902,44.434,41.016,37.598,0
1512883178.164,58.105,19.531,42.480,33.691,40.527,0
1512883178.168,66.406,26.855,33.203,33.691,58.105,0
1512883178.171,67.383,26.367,40.039,45.410,33.691,0
1512883178.175,57.617,26.367,43.457,51.758,33.691,0
1512883178.179,49.805,23.926,41.016,53.711,-8.301,0
1512883178.183,49.316,15.625,37.109,39.062,-18.066,0
1512883178.187,36.621,18.066,36.133,19.531,34.180,0
1512883178.191,29.297,20.996,35.645,24.902,42.480,0
1512883178.195,30.273,29.785,35.645,28.809,21.973,0
1512883178.199,24.902,36.621,34.180,37.598,34.180,0
1512883178.203,16.113,28.809,32.715,44.434,43.945,0
1512883178.207,22.949,27.832,30.762,34.668,37.109,0
1512883178.211,30.273,34.180,31.738,23.926,10.742,0
1512883178.214,29.297,25.879,32.227,25.391,5.859,0
1512883178.218,24.902,22.461,30.762,20.508,53.711,0
1512883178.222,35.645,23.438,34.180,12.695,65.430,0
1512883178.226,31.738,26.367,37.109,13.184,27.832,0
1512883178.230,10.254,14.648,39.062,13.184,17.578,0
1512883178.234,16.602,1.465,41.504,17.090,22.949,0
1512883178.238,29.785,26.855,29.785,29.297,14.648,0
1512883178.242,39.062,41.992,29.785,30.762,28.320,0
1512883178.246,38.086,47.363,36.621,27.344,50.781,0
1512883178.250,35.645,37.109,38.086,50.781,42.480,0
1512883178.254,30.762,22.461,36.621,50.293,3.906,0
1512883178.257,34.180,31.250,39.551,42.969,1.465,0
1512883178.261,36.133,27.344,41.016,41.016,42.480,0
1512883178.265,30.762,20.508,34.180,16.113,51.758,0
1512883178.269,39.551,34.668,37.109,14.160,20.508,0
1512883178.273,28.320,41.992,41.504,20.020,24.902,0
1512883178.277,25.391,37.598,41.016,15.137,39.062,0
1512883178.281,25.391,38.574,34.668,19.531,52.734,0
1512883178.285,6.836,50.293,32.715,25.879,22.461,0
1512883178.289,4.395,55.664,33.203,14.648,-3.418,0
1512883178.293,2.930,53.223,30.273,-17.578,22.461,0
1512883178.296,-34.668,55.176,21.484,-41.016,28.809,0
1512883178.300,-50.293,65.918,12.695,-60.547,24.414,0
1512883178.304,-53.711,75.195,6.836,-79.102,17.090,0
1512883178.308,-60.547,81.543,7.324,-62.500,46.875,0
1512883178.312,-63.965,70.801,12.207,-62.988,42.969,0
1512883178.316,-71.289,59.082,8.301,-86.426,16.113,0
1512883178.320,-86.426,61.523,-1.953,-101.074,31.250,0
1512883178.324,-113.770,70.312,-6.836,-124.512,42.480,0
1512883178.328,-112.793,83.008,-9.766,-130.859,14.648,0
1512883178.332,-103.516,85.449,-3.906,-118.164,6.836,0
1512883178.336,-93.262,73.242,0.488,-108.887,49.316,0
1512883178.339,-87.402,70.801,0.977,-108.398,73.242,0
1512883178.343,-110.352,62.012,4.395,-117.188,38.086,0
1512883178.347,-130.859,60.547,6.348,-112.305,14.648,0
1512883178.351,-123.047,66.895,15.625,-100.098,-8.789,0
1512883178.355,-104.004,61.035,20.996,-96.191,0.488,0
1512883178.359,-92.285,58.105,16.602,-86.426,9.277,0
1512883178.363,-82.520,49.316,15.625,-65.430,-40.039,0
1512883178.367,-70.312,35.645,19.043,-52.734,0.977,0
1512883178.371,-52.246,41.504,26.367,-57.617,49.316,0
1512883178.375,-40.527,41.016,33.691,-39.551,23.438,0
1512883178.379,-53.223,31.738,27.344,-21.484,5.859,0
1512883178.382,-46.387,32.227,26.855,-19.043,24.902,0
1512883178.386,-24.414,32.227,33.691,-12.695,48.340,0
1512883178.390,-17.578,26.367,33.203,-3.906,47.852,0
1512883178.394,-13.672,26.855,32.715,8.301,22.461,0
1512883178.398,2.930,34.180,31.250,8.789,32.715,0
1512883178.402,19.043,33.203,28.809,6.348,47.852,0
1512883178.406,30.762,35.645,35.156,26.855,29.785,0
1512883178.410,36.133,33.691,34.668,31.250,33.203,0
1512883178.414,42.480,25.879,26.367,27.344,52.246,0
1512883178.418,54.688,21.973,29.297,51.270,24.902,0
1512883178.421,47.852,20.996,34.668,59.082,15.625,0
1512883178.425,49.316,25.879,34.180,49.316,43.457,0
1512883178.429,69.824,17.090,36.621,55.664,39.062,0
1512883178.433,82.520,11.719,39.062,72.754,47.852,0
1512883178.437,88.379,23.438,36.133,76.660,20.996,0
1512883178.441,97.656,31.738,40.039,81.055,17.090,0
1512883178.445,92.773,20.020,49.316,93.262,47.852,0
1512883178.449,81.543,5.371,37.598,79.590,40.527,0
1512883178.453,78.613,11.230,36.621,59.570,58.594,0
1512883178.457,75.195,16.113,43.457,57.617,39.062,0
1512883178.461,89.844,19.043,46.387,68.359,14.648,0
1512883178.464,86.914,19.531,46.387,73.730,-0.488,0
1512883178.468,68.359,10.742,41.992,79.590,-13.184,0
1512883178.472,86.426,6.836,43.945,98.633,34.180,0
1512883178.476,100.098,10.254,43.457,81.543,59.570,0
1512883178.480,91.797,9.766,41.016,66.895,30.273,0
1512883178.484,89.844,9.766,40.039,83.496,-1.953,0
1512883178.488,97.168,10.254,42.480,89.355,22.461,0
1512883178.492,97.656,7.324,44.922,100.098,35.156,0
1512883178.496,91.797,8.789,44.434,92.773,9.766,0
1512883178.500,86.426,12.695,43.945,75.195,19.043,0
1512883178.504,88.379,15.137,44.434,84.473,47.363,0
1512883178.507,100.586,17.578,44.922,86.914,40.039,0
1512883178.511,97.168,14.160,46.875,86.426,18.555,0
1512883178.515,77.148,2.441,55.664,90.820,26.367,0
1512883178.519,59.570,4.883,48.340,61.523,38.574,0
1512883178.523,54.199,13.672,39.062,47.363,36.133,0
1512883178.527,67.871,18.066,39.551,61.523,29.785,0
1512883178.531,82.520,14.648,39.551,61.523,43.945,0
1512883178.535,77.637,6.348,41.992,70.312,24.414,0
1512883178.539,64.941,2.441,42.480,81.543,1.465,0
1512883178.543,62.500,5.371,43.457,69.336,1.465,0
1512883178.546,62.500,10.742,44.434,46.387,35.645,0
1512883178.550,62.500,17.090,40.039,42.480,51.758,0
1512883178.554,66.895,19.043,36.133,58.105,48.828,0
1512883178.558,62.988,11.230,36.133,66.895,36.133,0
1512883178.562,64.941,6.348,41.016,63.965,20.996,0
1512883178.566,66.406,19.043,41.992,51.758,15.137,0
1512883178.570,57.617,23.926,36.621,44.922,42.480,0
1512883178.574,42.969,11.719,34.180,53.223,69.824,0
1512883178.578,41.992,4.395,38.574,59.082,40.527,0
1512883178.582,49.805,0.977,43.457,58.594,38.086,0
1512883178.586,58.105,0.977,43.457,54.688,18.066,0
1512883178.589,68.359,4.395,47.852,67.871,17.578,0
1512883178.593,66.406,0.000,57.617,83.008,56.152,0
1512883178.597,69.336,-11.230,53.223,83.984,47.852,0
1512883178.601,67.871,3.906,49.805,72.266,19.531,0
1512883178.605,52.734,14.648,50.781,54.688,39.551,0
1512883178.609,34.668,14.160,44.922,39.551,49.316,0
1512883178.613,34.180,20.508,43.945,42.480,35.645,0
1512883178.617,45.898,12.207,47.852,59.570,24.414,0
1512883178.621,38.574,2.441,45.410,66.895,29.297,0
1512883178.625,39.551,1.953,42.969,63.965,23.438,0
1512883178.629,48.828,-4.883,46.387,70.312,20.020,0
1512883178.632,45.898,-1.953,47.852,62.500,11.230,0
1512883178.636,52.246,11.230,45.410,49.316,31.250,0
1512883178.640,51.270,8.789,47.363,67.871,32.715,0
1512883178.644,48.340,6.836,47.363,59.570,11.230,0
1512883178.648,41.992,9.277,42.969,58.594,20.020,0
1512883178.652,36.621,12.207,43.457,78.613,36.133,0
1512883178.656,49.316,11.719,52.246,60.059,22.461,0
1512883178.660,59.570,9.766,45.410,41.504,4.883,0
1512883178.664,57.617,12.695,41.016,44.922,31.738,0
1512883178.668,60.059,11.719,45.410,52.246,50.293,0
1512883178.671,63.965,7.324,36.133,58.594,58.105,0
1512883178.675,61.035,18.555,36.133,55.664,51.758,0
1512883178.679,66.895,26.367,39.551,45.410,22.461,0
1512883178.683,62.988,20.020,38.086,47.852,33.203,0
1512883178.687,49.805,21.973,32.715,46.875,45.898,0
1512883178.691,46.387,25.879,30.273,43.945,19.531,0
1512883178.695,52.734,20.508,39.551,71.289,36.133,0
1512883178.699,55.176,6.348,38.574,69.336,42.480,0
1512883178.703,49.316,16.113,33.691,32.715,20.508,0
1512883178.707,54.199,33.203,36.133,21.973,30.273,0
1512883178.711,48.340,35.156,34.180,20.020,32.227,0
1512883178.714,34.180,34.668,35.645,28.320,34.180,0
1512883178.718,29.785,29.785,36.133,33.203,16.113,0
1512883178.722,31.738,22.461,36.133,13.184,24.414,0
1512883178.726,28.809,30.762,41.504,15.137,36.621,0
1512883178.730,23.926,29.785,46.387,27.344,26.855,0
1512883178.734,32.227,24.902,43.945,28.320,24.902,0
1512883178.738,41.504,22.461,44.434,30.273,13.672,0
1512883178.742,44.434,26.367,37.109,40.039,28.809,0
1512883178.746,42.480,37.598,33.203,40.527,33.691,0
1512883178.750,40.039,31.738,40.039,37.598,14.160,0
1512883178.754,48.828,27.832,47.852,68.848,21.484,0
1512883178.757,51.758,36.133,44.434,69.824,31.738,0
1512883178.761,51.270,42.969,29.297,25.391,40.527,0
1512883178.765,45.410,44.434,32.227,21.484,15.625,0
1512883178.769,51.758,42.480,38.574,40.039,23.438,0
1512883178.773,68.359,23.926,35.645,30.273,59.570,0
1512883178.777,63.477,18.555,33.691,38.086,53.223,0
1512883178.781,56.152,35.156,38.086,59.570,19.531,0
1512883178.785,60.547,29.297,42.969,60.059,8.301,0
1512883178.789,57.617,22.461,42.480,60.547,12.695,0
1512883178.793,47.852,30.273,36.133,57.129,31.738,0
1512883178.796,58.594,41.016,36.133,58.594,12.695,0
1512883178.800,47.852,40.039,35.645,59.570,5.859,0
1512883178.804,46.387,28.320,35.645,59.570,47.363,0
1512883178.808,56.641,30.273,37.109,56.641,35.645,0
1512883178.812,47.363,35.156,32.227,37.598,24.414,0
1512883178.816,40.039,45.410,30.273,25.391,33.691,0
1512883178.820,33.203,46.387,30.273,27.832,28.320,0
1512883178.824,30.273,19.531,41.992,41.016,17.578,0
1512883178.828,32.715,15.625,42.480,31.738,13.184,0
1512883178.832,33.691,35.645,33.203,9.277,20.996,0
1512883178.836,24.414,31.738,33.691,15.137,42.969,0
1512883178.839,21.484,21.973,29.297,21.973,36.133,0
1512883178.843,25.879,20.996,32.227,13.672,22.461,0
1512883178.847,17.090,21.484,32.227,8.301,29.297,0
1512883178.851,11.719,27.344,32.715,15.625,22.949,0
1512883178.855,21.484,29.297,33.691,6.348,26.367,0
1512883178.859,22.949,28.320,31.250,0.000,1.953,0
1512883178.863,14.648,26.367,29.297,29.297,-10.742,0
1512883178.867,10.254,26.367,29.297,31.250,4.883,0
1512883178.871,9.766,32.227,28.320,3.418,13.184,0
1512883178.875,1.953,39.551,28.320,3.906,16.602,0
1512883178.879,7.812,31.738,29.297,8.789,24.414,0
1512883178.882,26.367,24.414,30.273,11.719,35.156,0
1512883178.886,29.785,25.879,31.738,28.320,35.645,0
1512883178.890,17.578,28.809,32.227,35.156,22.949,0
1512883178.894,10.254,39.062,32.227,42.480,41.504,0
1512883178.898,13.672,44.434,35.645,45.410,61.523,0
1512883178.902,23.438,41.992,34.180,30.762,23.926,0
1512883178.906,29.785,32.715,40.527,36.133,-12.695,0
1512883178.910,40.039,24.414,45.410,51.758,7.324,0
1512883178.914,36.621,20.996,32.715,61.523,11.230,0
1512883178.918,38.086,21.973,38.086,63.477,7.812,0
1512883178.921,56.641,20.020,44.922,57.129,18.555,0
1512883178.925,57.129,22.461,42.480,43.457,19.531,0
1512883178.929,54.199,28.809,39.551,42.480,18.066,0
1512883178.933,56.641,33.203,41.016,53.223,31.738,0
1512883178.937,53.711,31.250,42.480,54.199,49.805,0
1512883178.941,50.781,31.250,40.527,43.457,50.781,0
1512883178.945,58.594,32.715,38.086,30.762,22.949,0
1512883178.949,65.918,32.227,39.551,48.340,23.438,0
1512883178.953,67.871,32.227,37.598,56.152,50.293,0
1512883178.957,65.430,30.762,32.227,28.320,43.457,0
1512883178.961,64.941,19.531,36.133,30.762,33.691,0
1512883178.964,49.316,7.812,37.598,39.062,31.250,0
1512883178.968,37.598,15.625,32.715,26.367,64.453,0
1512883178.972,48.828,29.297,34.668,18.555,68.359,0
1512883178.976,46.387,38.574,36.621,25.391,12.695,0
1512883178.980,44.434,42.969,39.551,27.344,-18.066,0
1512883178.984,50.781,31.738,43.457,36.621,19.531,0
1512883178.988,59.082,18.066,31.738,39.062,32.227,0
1512883178.992,57.617,20.020,29.785,28.320,35.645,0
1512883178.996,53.711,30.273,36.133,30.273,51.758,0
1512883179.000,47.852,40.039,36.621,32.227,24.414,0
1512883179.004,41.016,37.109,36.133,35.156,5.371,0
1512883179.007,36.133,32.715,31.738,44.434,28.320,0
1512883179.011,39.062,21.484,31.738,48.340,41.992,0
1512883179.015,49.316,15.625,35.645,46.387,25.391,0
1512883179.019,52.734,30.273,34.180,45.410,24.414,0
1512883179.023,53.711,30.762,38.574,54.688,46.387,0
1512883179.027,44.434,33.203,39.551,63.477,31.250,0
1512883179.031,41.504,38.086,37.598,58.594,49.805,0
1512883179.035,36.621,32.715,41.016,45.898,51.758,0
1512883179.039,30.762,26.367,41.016,35.156,35.645,0
1512883179.043,35.156,21.973,37.598,37.109,61.035,0
1512883179.046,24.902,27.344,38.574,46.875,42.969,0
1512883179.050,12.207,22.949,38.086,64.453,34.180,0
1512883179.054,9.277,10.254,37.109,60.547,27.832,0
1512883179.058,10.742,12.207,38.574,39.062,32.715,0
1512883179.062,23.926,21.973,29.785,26.855,38.574,0
1512883179.066,33.203,36.133,33.203,22.461,34.180,0
1512883179.070,26.367,42.480,36.621,20.996,50.781,0
1512883179.074,30.273,30.762,28.809,21.484,53.223,0
1512883179.078,17.578,25.391,34.180,24.414,20.020,0
1512883179.082,-1.465,27.344,39.551,21.973,-16.602,0
1512883179.086,16.602,24.414,42.480,22.461,10.254,0
1512883179.089,32.715,25.391,44.434,30.273,54.688,0
1512883179.093,32.227,28.809,46.387,40.039,30.273,0
1512883179.097,40.527,28.809,44.434,34.668,11.719,0
1512883179.101,46.875,25.391,43.457,24.414,38.086,0
1512883179.105,48.828,21.973,44.434,19.531,36.133,0
1512883179.109,49.316,12.207,40.039,27.832,4.395,0
1512883179.113,40.527,2.441,36.133,39.062,8.789,0
1512883179.117,37.598,18.066,42.480,61.523,16.602,0
1512883179.121,48.828,40.527,42.480,54.199,59.570,0
1512883179.125,51.270,32.715,39.062,20.020,56.152,0
1512883179.129,43.457,23.438,36.621,12.695,36.133,0
1512883179.132,45.898,32.227,39.062,22.949,44.922,0
1512883179.136,44.922,26.855,43.457,39.062,29.785,0
1512883179.140,37.598,28.809,43.945,43.945,37.598,0
1512883179.144,41.992,38.086,39.062,52.734,26.367,0
1512883179.148,40.039,34.180,31.738,54.688,33.691,0
1512883179.152,30.273,32.227,27.832,38.574,38.574,0
1512883179.156,28.320,33.203,30.273,36.621,-2.930,0
1512883179.160,23.926,17.090,36.133,29.785,6.348,0
1512883179.164,26.367,13.672,39.062,34.668,23.438,0
1512883179.168,31.738,35.156,36.621,51.758,28.809,0
1512883179.171,35.645,38.086,36.621,40.039,9.766,0
1512883179.175,36.621,38.574,40.527,29.297,-4.883,0
1512883179.179,37.109,38.086,33.203,29.785,32.715,0
1512883179.183,32.227,32.227,27.344,22.949,30.273,0
1512883179.187,34.180,29.785,33.203,39.551,11.230,0
1512883179.191,31.738,24.902,35.156,45.898,16.602,0
1512883179.195,32.227,26.855,6.348,17.090,17.578,0
1512883179.199,31.738,34.180,-21.973,15.137,12.207,0
1512883179.203,27.344,38.574,-21.973,24.902,1.953,0
1512883179.207,33.203,21.973,-16.113,24.902,40.527,0
1512883179.211,34.668,13.672,-14.648,23.926,32.715,0
1512883179.214,36.621,36.133,-11.719,17.578,7.812,0
1512883179.218,45.898,47.363,-9.277,26.855,62.988,0
1512883179.222,40.039,45.410,-3.418,32.715,81.543,0
1512883179.226,28.809,41.504,5.859,30.273,47.852,0
1512883179.230,22.461,40.039,1.953,19.531,46.875,0
1512883179.234,34.668,42.969,4.883,9.766,28.809,0
1512883179.238,47.363,43.945,12.207,19.531,34.180,0
1512883179.242,44.434,44.434,19.043,39.551,55.664,0
1512883179.246,35.156,23.438,22.949,43.945,33.203,0
1512883179.250,42.480,14.648,22.949,26.855,22.461,0
1512883179.254,44.434,36.133,25.879,18.555,53.711,0
1512883179.257,28.320,40.039,34.668,13.184,66.895,0
1512883179.261,24.414,39.551,35.156,12.207,34.180,0
1512883179.265,13.184,53.223,20.020,21.973,18.555,0
1512883179.269,11.719,52.246,18.555,26.855,58.594,0
1512883179.273,37.598,42.969,29.785,26.367,72.266,0
1512883179.277,47.852,41.992,33.691,29.785,30.273,0
1512883179.281,39.062,37.598,27.832,47.363,15.137,0
1512883179.285,31.250,30.762,27.344,25.391,24.902,0
1512883179.289,31.738,28.809,29.297,16.602,29.785,0
1512883179.293,26.367,12.695,36.133,42.969,1.465,0
1512883179.296,26.367,6.348,41.992,45.410,-4.395,0
1512883179.300,22.461,20.020,43.457,53.223,20.508,0
1512883179.304,11.719,23.926,42.480,52.246,27.832,0
1512883179.308,3.906,32.715,39.551,41.504,43.945,0
1512883179.312,19.043,46.875,40.039,37.598,27.344,0
1512883179.316,41.016,39.551,41.504,41.016,18.555,0
1512883179.320,41.016,34.668,43.457,44.922,47.852,0
1512883179.324,29.785,34.668,43.945,38.086,30.762,0
1512883179.328,17.090,22.461,46.875,37.598,27.344,0
1512883179.332,16.602,20.020,47.363,29.297,64.453,0
1512883179.336,20.996,22.461,44.922,29.297,34.668,0
1512883179.339,19.043,7.324,46.387,38.086,-9.277,0
1512883179.343,19.043,3.906,45.410,35.645,21.973,0
1512883179.347,23.438,13.672,43.457,36.621,3.418,0
1512883179.351,22.949,22.949,41.992,30.762,-14.160,0
1512883179.355,20.996,22.949,46.387,20.508,12.207,0
1512883179.359,34.180,19.043,53.223,21.973,41.016,0
1512883179.363,37.109,25.879,43.945,22.949,59.082,0
1512883179.367,19.043,24.414,43.457,26.367,36.621,0
1512883179.371,9.766,13.672,49.316,38.574,36.133,0
1512883179.375,18.066,19.043,44.434,42.969,37.598,0
1512883179.379,36.133,34.668,38.574,31.250,14.648,0
1512883179.382,34.668,35.645,43.457,21.973,-16.113,0
1512883179.386,45.898,32.227,42.969,36.621,15.625,0
1512883179.390,54.688,28.809,29.297,44.434,43.945,0
1512883179.394,41.504,25.879,24.902,36.621,30.273,0
1512883179.398,33.203,32.227,30.762,48.828,38.086,0
1512883179.402,41.992,30.762,34.180,51.270,43.457,0
1512883179.406,49.805,22.461,35.156,38.574,69.824,0
1512883179.410,48.828,15.625,41.016,38.574,39.551,0
1512883179.414,47.363,17.090,46.387,42.480,-6.836,0
1512883179.418,50.781,23.438,44.922,40.039,14.160,0
1512883179.421,42.480,16.602,41.016,50.293,28.320,0
1512883179.425,31.738,15.625,41.504,57.129,9.766,0
1512883179.429,38.574,20.020,42.480,43.457,24.414,0
1512883179.433,31.738,13.184,47.363,34.668,33.691,0
1512883179.437,40.039,9.766,53.223,42.969,24.414,0
1512883179.441,43.945,15.625,39.551,38.574,15.137,0
1512883179.445,32.227,30.762,34.180,53.223,21.484,0
1512883179.449,40.039,37.109,39.551,61.523,30.762,0
1512883179.453,49.805,28.320,37.598,37.598,28.320,0
1512883179.457,58.594,33.203,29.785,19.531,26.367,0
1512883179.461,66.406,47.363,23.438,30.273,3.418,0
1512883179.464,59.570,50.781,23.438,56.152,5.859,0
1512883179.468,52.734,45.410,22.461,26.367,8.301,0
1512883179.472,51.270,38.574,20.508,-2.441,0.000,0
1512883179.476,48.828,41.016,22.949,9.766,33.203,0
1512883179.480,47.363,51.270,25.879,18.066,43.457,0
1512883179.484,44.434,51.758,27.344,17.090,39.062,0
1512883179.488,40.039,47.852,27.832,13.672,31.738,0
1512883179.492,44.434,48.340,30.762,5.859,25.879,0
1512883179.496,50.293,33.203,31.250,5.859,28.320,0
1512883179.500,41.992,22.461,26.855,11.230,14.648,0
1512883179.504,32.715,29.297,21.484,8.789,0.000,0
1512883179.507,26.855,32.715,18.066,6.348,37.598,0
1512883179.511,35.156,31.738,19.043,12.695,46.387,0
1512883179.515,43.457,37.598,17.090,5.859,8.301,0
1512883179.519,30.762,51.270,17.578,0.000,8.789,0
1512883179.523,23.926,54.199,19.043,5.859,40.039,0
1512883179.527,37.598,40.039,16.602,5.371,31.738,0
1512883179.531,39.062,32.227,17.578,12.207,-14.648,0
1512883179.535,31.250,32.715,25.879,32.227,-9.277,0
1512883179.539,36.621,22.949,30.273,35.645,34.180,0
1512883179.543,38.574,26.367,34.180,21.484,34.668,0
1512883179.546,46.387,39.551,42.480,32.227,17.090,0
1512883179.550,45.898,31.250,43.945,57.617,29.297,0
1512883179.554,32.227,20.508,40.527,56.641,44.922,0
1512883179.558,19.531,17.090,39.551,44.434,20.996,0
1512883179.562,16.602,10.254,43.945,45.410,18.066,0
1512883179.566,22.949,19.531,35.645,41.992,39.551,0
1512883179.570,20.020,26.367,34.668,31.738,51.758,0
1512883179.574,22.461,21.484,36.621,33.203,20.508,0
1512883179.578,30.762,27.344,36.133,43.945,-4.883,0
1512883179.582,29.785,18.066,39.062,46.875,0.000,0
1512883179.586,37.109,8.789,42.480,49.316,20.508,0
1512883179.589,46.387,13.184,43.457,57.617,5.371,0
1512883179.593,45.898,18.066,41.992,58.594,-15.625,0
1512883179.597,38.086,19.531,42.969,55.664,5.371,0
1512883179.601,43.945,6.836,41.992,62.500,10.742,0
1512883179.605,52.246,6.348,43.945,55.664,3.418,0
1512883179.609,50.781,23.438,46.875,48.340,36.621,0
1512883179.613,54.688,20.996,45.410,53.711,36.621,0
1512883179.617,40.039,21.484,50.781,63.477,7.324,0
1512883179.621,36.133,27.344,46.875,53.711,7.812,0
1512883179.625,48.828,27.344,34.668,33.203,0.000,0
1512883179.629,40.527,17.578,36.133,20.508,12.207,0
1512883179.632,35.156,7.812,34.180,15.625,10.742,0
1512883179.636,36.621,20.996,34.668,45.410,19.043,0
1512883179.640,27.832,17.578,33.203,56.152,52.734,0
1512883179.644,14.160,12.695,28.809,17.090,75.684,0
1512883179.648,1.953,26.855,31.738,4.395,39.062,0
1512883179.652,5.859,21.973,35.156,27.832,-6.836,0
1512883179.656,20.508,27.344,30.762,43.945,0.000,0
1512883179.660,22.461,41.504,27.832,50.293,18.555,0
1512883179.664,15.625,37.598,32.715,55.664,50.293,0
1512883179.668,14.160,43.457,31.250,45.898,52.246,0
1512883179.671,22.949,36.621,33.691,34.668,29.297,0
1512883179.675,26.855,27.344,37.598,32.715,48.340,0
1512883179.679,35.156,25.391,32.227,29.297,39.062,0
1512883179.683,39.062,11.719,40.527,27.344,22.461,0
1512883179.687,32.715,21.973,41.016,45.410,44.922,0
1512883179.691,42.480,37.598,32.227,54.688,40.039,0
1512883179.695,53.223,39.062,34.180,44.434,31.250,0
1512883179.699,55.664,42.480,28.809,42.969,22.949,0
1512883179.703,62.012,48.340,33.203,31.738,46.875,0
1512883179.707,60.547,57.129,32.715,31.250,50.781,0
1512883179.711,50.781,48.828,26.367,37.598,21.973,0
1512883179.714,45.898,32.227,28.809,26.367,6.836,0
1512883179.718,40.527,30.762,31.250,19.531,18.555,0
1512883179.722,32.715,30.273,31.250,18.555,74.219,0
1512883179.726,35.645,32.227,30.762,18.066,62.500,0
1512883179.730,41.016,34.180,33.203,6.836,36.133,0
1512883179.734,27.344,33.691,32.715,21.484,63.965,0
1512883179.738,21.973,41.992,27.832,26.367,40.039,0
1512883179.742,44.434,43.457,31.738,2.441,36.133,0
1512883179.746,50.781,34.668,35.645,-4.395,43.945,0
1512883179.750,28.809,31.250,30.762,3.906,30.762,0
1512883179.754,24.902,37.598,37.109,7.812,5.371,0
1512883179.757,38.086,41.016,36.621,11.719,-6.348,0
1512883179.761,39.062,44.434,19.043,15.137,34.180,0
1512883179.765,45.898,39.062,27.344,23.438,41.504,0
1512883179.769,44.434,36.133,43.457,38.574,7.812,0
1512883179.773,26.367,41.992,34.668,31.738,12.695,0
1512883179.777,27.832,39.062,29.785,31.738,56.641,0
1512883179.781,44.434,41.016,34.180,31.250,85.449,0
1512883179.785,39.551,41.016,35.156,16.602,61.523,0
1512883179.789,27.832,26.367,39.551,17.090,31.738,0
1512883179.793,29.785,16.602,42.969,30.273,33.203,0
1512883179.796,22.949,13.672,44.922,47.852,23.438,0
1512883179.800,24.902,24.902,48.828,68.359,-0.488,0
1512883179.804,21.484,28.320,46.387,59.570,-5.859,0
1512883179.808,24.414,18.066,46.387,37.598,29.297,0
1512883179.812,40.039,22.461,49.316,47.363,29.785,0
1512883179.816,33.691,20.020,55.176,43.945,2.930,0
1512883179.820,24.414,15.625,48.340,31.250,26.367,0
1512883179.824,28.320,21.973,34.668,36.133,26.855,0
1512883179.828,40.527,17.090,40.039,31.738,39.551,0
1512883179.832,32.227,6.348,38.574,42.969,50.781,0
1512883179.836,17.090,10.742,33.691,50.293,57.617,0
1512883179.839,25.391,20.996,33.691,32.227,83.496,0
1512883179.843,30.762,21.973,31.738,23.438,25.879,0
1512883179.847,50.781,17.578,34.180,37.598,-0.488,0
1512883179.851,66.895,21.973,36.621,44.434,39.062,0
1512883179.855,60.547,31.738,35.156,37.109,35.156,0
1512883179.859,47.363,39.062,30.762,40.039,9.277,0
1512883179.863,16.602,32.715,35.645,40.527,-11.719,0
1512883179.867,12.695,29.785,40.039,21.484,17.090,0
1512883179.871,30.273,36.621,31.250,13.672,41.992,0
1512883179.875,27.832,23.926,33.203,29.785,11.719,0
1512883179.879,39.062,21.973,33.203,41.992,17.090,0
1512883179.882,41.016,30.273,31.250,42.480,51.270,0
1512883179.886,31.250,25.391,32.227,41.992,31.738,0
1512883179.890,36.621,8.301,37.109,44.922,17.090,0
1512883179.894,39.551,4.395,41.992,52.246,29.785,0
1512883179.898,37.109,24.414,36.621,38.086,44.922,0
1512883179.902,24.902,37.598,32.227,34.668,23.438,0
1512883179.906,24.902,34.668,33.203,28.320,-14.648,0
1512883179.910,33.203,37.109,32.227,18.066,-8.301,0
1512883179.914,22.461,31.738,35.156,33.203,13.184,0
1512883179.918,18.066,20.020,32.715,45.410,35.156,0
1512883179.921,36.133,22.461,32.715,31.738,44.434,0
1512883179.925,51.270,24.414,35.156,29.785,57.617,0
1512883179.929,41.016,20.996,44.434,34.180,80.078,0
1512883179.933,37.109,28.320,45.898,30.762,59.570,0
1512883179.937,46.387,29.785,33.203,41.504,17.578,0
1512883179.941,40.527,22.949,31.738,42.480,32.715,0
1512883179.945,33.691,24.414,30.273,37.598,53.711,0
1512883179.949,42.969,25.879,31.738,48.828,28.809,0
1512883179.953,43.945,35.156,37.109,34.180,31.738,0
1512883179.957,28.320,43.945,33.691,23.438,44.434,0
1512883179.961,40.039,32.715,35.645,37.109,50.293,0
1512883179.964,53.223,16.602,39.551,28.809,18.066,0
1512883179.968,46.875,26.855,36.621,25.391,-20.020,0
1512883179.972,45.410,36.133,34.668,40.039,21.484,0
1512883179.976,41.016,26.367,37.598,39.551,53.223,0
1512883179.980,40.527,27.832,35.156,34.180,30.762,0
1512883179.984,38.086,37.109,30.762,28.809,22.461,0
1512883179.988,25.879,12.695,40.039,9.277,41.016,0
1512883179.992,20.996,0.977,39.551,5.371,42.969,0
1512883179.996,19.531,22.949,24.414,25.879,15.625,0
1512883180.000,20.020,40.039,26.367,41.992,12.695,0
1512883180.004,35.645,42.969,33.203,32.227,42.969,0
1512883180.007,29.785,36.621,30.762,11.230,23.926,0
1512883180.011,16.602,36.621,28.809,8.789,9.277,0
1512883180.015,17.578,29.785,34.180,28.320,42.969,0
1512883180.019,19.043,31.250,39.062,25.879,61.523,0
1512883180.023,10.254,38.086,37.598,15.625,25.879,0
1512883180.027,-1.465,29.297,37.109,29.785,8.301,0
1512883180.031,15.137,29.297,48.340,32.715,29.785,0
1512883180.035,38.574,21.484,48.340,44.922,21.484,0
1512883180.039,41.016,5.859,36.621,57.617,14.648,0
1512883180.043,51.758,7.812,36.133,50.781,18.066,0
1512883180.046,63.965,16.113,40.527,45.898,53.711,0
1512883180.050,41.992,30.273,34.668,35.645,42.969,0
1512883180.054,26.855,33.691,32.227,40.527,18.555,0
1512883180.058,44.434,38.574,37.598,47.852,23.438,0
1512883180.062,56.152,40.039,37.109,45.898,26.367,0
1512883180.066,51.758,34.180,38.086,31.250,30.762,0
1512883180.070,51.758,28.320,35.156,39.062,30.762,0
1512883180.074,51.270,30.762,31.738,52.246,35.156,0
1512883180.078,44.922,29.297,28.809,45.410,52.734,0
1512883180.082,41.504,30.762,27.344,45.410,47.363,0
1512883180.086,39.551,33.203,31.738,38.086,17.090,0
1512883180.089,35.156,16.602,31.250,25.879,6.836,0
1512883180.093,33.691,18.555,34.180,18.555,42.969,0
1512883180.097,35.156,36.621,25.391,6.836,23.438,0
1512883180.101,35.645,45.410,23.438,1.953,15.137,0
1512883180.105,27.832,43.457,27.344,8.301,63.477,0
1512883180.109,20.020,29.297,23.926,15.625,75.684,0
1512883180.113,23.438,24.902,25.391,20.020,74.707,0
1512883180.117,35.156,26.855,24.414,16.602,63.477,0
1512883180.121,24.902,30.273,22.461,23.926,46.875,0
1512883180.125,18.555,36.133,24.902,25.879,26.855,0
1512883180.129,19.531,28.320,29.297,28.809,11.719,0
1512883180.132,24.414,20.508,28.809,50.293,8.301,0
1512883180.136,34.668,17.090,30.273,28.809,34.180,0
1512883180.140,29.297,20.508,30.273,10.254,26.855,0
1512883180.144,25.391,30.273,32.227,22.461,-5.859,0
1512883180.148,26.367,27.344,39.062,35.156,-13.184,0
1512883180.152,18.066,28.320,38.086,43.945,30.762,0
1512883180.156,23.438,20.508,29.785,35.645,51.758,0
1512883180.160,36.133,28.320,30.273,40.039,53.711,0
1512883180.164,45.898,37.598,43.945,45.898,50.781,0
1512883180.168,50.781,19.531,44.434,44.922,37.109,0
1512883180.171,42.480,15.625,33.691,53.711,20.020,0
1512883180.175,21.973,24.414,36.621,60.547,9.766,0
1512883180.179,7.324,20.508,36.133,45.898,36.133,0
1512883180.183,13.672,20.996,36.621,22.461,36.621,0
1512883180.187,32.227,16.602,34.668,7.812,26.855,0
1512883180.191,23.926,19.043,29.297,5.859,10.742,0
1512883180.195,8.301,29.297,25.879,19.043,-3.906,0
1512883180.199,18.555,39.062,28.809,19.043,41.016,0
1512883180.203,31.738,38.086,34.668,19.043,15.137,0
1512883180.207,38.086,33.691,27.344,24.902,-37.598,0
1512883180.211,42.480,34.180,15.625,20.508,10.254,0
1512883180.214,48.828,31.738,15.625,23.438,56.641,0
1512883180.218,46.387,33.691,26.367,17.090,52.734,0
1512883180.222,26.855,31.250,29.785,9.766,45.898,0
1512883180.226,22.461,26.367,29.297,15.625,35.645,0
1512883180.230,36.133,20.508,32.715,24.414,26.855,0
1512883180.234,34.180,26.367,36.621,36.133,27.832,0
1512883180.238,24.902,34.180,36.133,20.996,15.625,0
1512883180.242,28.809,36.133,29.297,13.672,36.621,0
1512883180.246,28.320,35.156,34.180,22.461,63.965,0
1512883180.250,19.043,24.902,39.551,20.508,32.227,0
1512883180.254,29.297,20.508,36.621,28.320,17.578,0
1512883180.257,35.645,20.020,34.668,38.574,40.527,0
1512883180.261,21.973,18.555,44.434,41.992,34.180,0
1512883180.265,28.320,13.184,52.246,34.668,-3.418,0
1512883180.269,39.551,9.766,34.180,44.434,7.324,0
1512883180.273,34.668,21.484,22.949,56.152,45.410,0
1512883180.277,35.156,30.762,23.438,30.762,20.508,0
1512883180.281,44.922,36.133,24.902,18.555,-27.344,0
1512883180.285,42.969,38.574,31.250,34.180,-19.043,0
1512883180.289,31.250,35.645,33.203,53.223,31.250,0
1512883180.293,31.738,32.227,35.645,60.547,22.461,0
1512883180.296,36.133,28.809,37.598,52.246,-3.418,0
1512883180.300,28.320,28.809,41.016,32.715,17.578,0
1512883180.304,18.555,29.785,40.039,26.367,57.129,0
1512883180.308,17.090,12.695,36.133,39.062,30.273,0
1512883180.312,33.691,-0.977,43.457,40.527,15.137,0
1512883180.316,39.062,9.277,39.062,38.574,39.551,0
1512883180.320,39.551,25.391,26.855,30.762,25.391,0
1512883180.324,43.945,39.551,31.738,14.160,27.832,0
1512883180.328,40.039,41.504,34.668,14.160,56.641,0
1512883180.332,34.668,40.527,35.156,40.039,82.520,0
1512883180.336,39.551,33.203,35.645,43.945,64.941,0
1512883180.339,52.246,27.344,35.645,32.227,38.574,0
1512883180.343,67.383,30.762,34.180,26.367,36.133,0
1512883180.347,54.688,36.621,35.645,14.648,45.410,0
1512883180.351,30.762,26.855,36.621,20.020,41.992,0
1512883180.355,24.414,20.508,32.227,26.367,20.996,0
1512883180.359,29.297,34.180,37.598,36.621,31.738,0
1512883180.363,35.156,23.926,45.410,42.969,71.777,0
1512883180.367,24.902,20.508,40.527,46.387,61.523,0
1512883180.371,16.602,26.367,33.203,42.969,23.926,0
1512883180.375,26.367,22.461,30.273,29.785,3.418,0
1512883180.379,33.691,25.391,33.691,20.508,23.926,0
1512883180.382,27.344,25.879,37.109,21.973,29.785,0
1512883180.386,23.926,29.297,32.227,40.039,45.898,0
1512883180.390,14.648,22.949,34.668,36.133,65.918,0
1512883180.394,14.160,20.508,36.621,35.156,44.922,0
1512883180.398,26.855,25.879,37.109,46.387,17.090,0
1512883180.402,24.902,24.414,37.598,27.832,5.371,0
1512883180.406,21.484,19.531,32.715,28.809,22.949,0
1512883180.410,31.250,18.066,39.062,38.574,15.137,0
1512883180.414,33.691,20.508,46.387,40.039,0.488,0
1512883180.418,40.527,28.809,32.715,39.551,16.113,0
1512883180.421,55.176,39.062,29.785,29.297,33.691,0
1512883180.425,54.688,38.574,33.691,34.180,39.062,0
1512883180.429,33.203,30.762,32.227,41.504,40.039,0
1512883180.433,32.715,41.504,34.668,53.223,11.230,0
1512883180.437,38.086,42.480,27.344,48.340,14.160,0
1512883180.441,38.086,34.180,31.250,20.508,60.059,0
1512883180.445,45.898,29.297,39.062,11.230,57.129,0
1512883180.449,51.270,20.996,29.785,17.578,43.457,0
1512883180.453,43.457,23.926,30.273,22.461,60.547,0
1512883180.457,40.039,25.879,35.156,32.227,43.457,0
1512883180.461,37.598,21.973,39.551,47.852,31.250,0
1512883180.464,36.621,17.090,43.945,47.852,43.457,0
1512883180.468,41.016,15.625,42.969,44.922,53.223,0
1512883180.472,42.480,15.137,40.039,42.969,13.672,0
1512883180.476,47.852,20.996,44.434,52.734,8.789,0
1512883180.480,45.898,17.578,43.945,47.363,49.805,0
1512883180.484,35.645,8.789,41.504,26.855,55.176,0
1512883180.488,29.785,25.879,41.992,36.133,71.289,0
1512883180.492,26.855,28.320,39.062,40.527,44.434,0
1512883180.496,20.996,20.996,37.598,25.879,40.527,0
1512883180.500,19.531,19.043,41.016,26.855,38.086,0
1512883180.504,13.184,17.578,42.480,53.223,15.137,0
1512883180.507,19.043,20.020,49.805,55.664,-0.977,0
1512883180.511,19.531,20.508,50.293,25.391,13.672,0
1512883180.515,2.930,20.508,33.203,9.277,23.438,0
1512883180.519,5.371,25.879,30.762,17.578,30.762,0
1512883180.523,18.555,33.203,30.273,27.832,46.875,0
1512883180.527,23.926,25.391,32.715,20.508,25.391,0
1512883180.531,30.762,21.484,33.691,24.414,15.137,0
1512883180.535,37.109,29.297,32.227,44.434,10.742,0
1512883180.539,28.320,19.043,27.832,41.016,23.438,0
1512883180.543,15.625,18.555,25.391,17.090,30.762,0
1512883180.546,16.602,30.273,24.414,6.836,23.438,0
1512883180.550,24.414,26.855,32.715,21.484,13.184,0
1512883180.554,30.273,35.645,38.574,35.645,23.438,0
1512883180.558,32.227,42.480,26.855,29.785,33.203,0
1512883180.562,35.645,45.410,25.879,16.113,33.203,0
1512883180.566,39.551,41.504,30.273,16.602,12.695,0
1512883180.570,34.668,28.320,39.551,24.414,-14.160,0
1512883180.574,35.645,31.738,33.691,45.410,16.602,0
1512883180.578,37.109,35.156,21.484,47.852,15.137,0
1512883180.582,38.086,33.691,27.344,26.855,25.879,0
1512883180.586,56.641,34.180,32.227,28.320,56.641,0
1512883180.589,57.617,27.832,31.250,42.480,36.621,0
1512883180.593,49.316,25.879,29.785,44.434,30.273,0
1512883180.597,57.617,25.879,34.668,50.293,22.461,0
1512883180.601,55.664,23.926,41.504,54.688,13.184,0
1512883180.605,49.316,25.879,35.645,43.457,20.996,0
1512883180.609,34.668,27.832,31.250,43.945,21.484,0
1512883180.613,17.578,27.344,35.156,47.852,10.742,0
1512883180.617,18.066,32.227,37.109,34.180,0.488,0
1512883180.621,34.180,32.715,35.645,17.090,11.719,0
1512883180.625,35.156,29.785,39.551,23.926,8.789,0
1512883180.629,17.090,32.715,33.691,27.832,12.207,0
1512883180.632,24.902,23.926,30.762,42.480,28.320,0
1512883180.636,28.320,14.160,35.156,54.199,12.695,0
1512883180.640,40.527,7.324,39.062,51.270,8.789,0
1512883180.644,51.758,-0.488,39.062,40.527,24.414,0
1512883180.648,28.809,4.395,26.367,26.855,36.621,0
1512883180.652,17.578,17.090,24.902,21.973,44.434,0
1512883180.656,24.414,18.555,28.320,27.832,28.320,0
1512883180.660,38.086,18.066,30.273,39.551,5.859,0
1512883180.664,52.734,29.785,31.250,28.320,-4.883,0
1512883180.668,40.039,32.227,30.273,8.301,11.230,0
1512883180.671,20.020,18.066,30.762,9.766,18.066,0
1512883180.675,28.320,7.324,31.738,24.902,19.531,0
1512883180.679,43.457,21.484,30.762,34.180,43.945,0
1512883180.683,28.809,30.762,34.668,40.039,43.457,0
1512883180.687,13.672,20.508,39.062,45.898,9.766,0
1512883180.691,25.391,19.531,35.156,34.180,26.855,0
1512883180.695,41.992,29.785,33.691,21.973,34.668,0
1512883180.699,52.734,28.320,33.203,27.344,25.879,0
1512883180.703,45.410,25.879,30.273,43.457,36.621,0
1512883180.707,33.203,31.738,34.180,49.316,64.453,0
1512883180.711,30.762,27.832,37.109,37.109,42.480,0
1512883180.714,33.691,18.555,37.109,31.250,41.992,0
1512883180.718,41.992,27.344,36.621,35.645,49.805,0
1512883180.722,40.039,24.414,45.410,34.668,28.320,0
1512883180.726,29.785,17.578,42.480,33.691,36.133,0
1512883180.730,15.625,9.766,27.344,23.926,19.043,0
1512883180.734,8.789,5.371,39.551,20.996,29.297,0
1512883180.738,20.996,16.602,39.551,26.367,32.227,0
1512883180.742,17.090,19.043,30.273,44.434,37.598,0
1512883180.746,14.648,19.531,36.133,47.363,30.273,0
1512883180.750,20.508,27.832,36.621,30.273,6.836,0
1512883180.754,24.902,25.391,35.156,28.320,28.320,0
1512883180.757,29.785,20.020,37.109,38.574,31.738,0
1512883180.761,24.902,29.297,32.227,32.227,38.086,0
1512883180.765,21.973,34.668,30.273,23.926,47.852,0
1512883180.769,24.414,33.203,41.992,39.062,48.828,0
1512883180.773,25.391,26.367,41.504,45.410,27.832,0
1512883180.777,39.551,12.207,34.180,44.434,29.297,0
1512883180.781,53.711,12.695,36.621,42.969,50.781,0
1512883180.785,40.039,35.156,30.273,25.391,33.691,0
1512883180.789,23.926,38.574,39.551,21.973,16.113,0
1512883180.793,38.574,29.785,42.969,37.598,15.625,0
1512883180.796,59.570,35.645,24.414,38.086,18.066,0
1512883180.800,65.918,34.668,27.832,43.945,44.434,0
1512883180.804,61.035,28.809,35.156,55.664,37.109,0
1512883180.808,43.457,36.621,32.715,37.109,12.207,0
1512883180.812,41.992,41.016,29.297,13.184,54.688,0
1512883180.816,44.922,33.691,31.738,27.832,58.594,0
1512883180.820,40.039,36.133,29.297,22.461,51.270,0
1512883180.824,51.758,36.133,21.973,3.906,83.984,0
1512883180.828,50.293,30.273,21.484,18.066,68.359,0
1512883180.832,40.527,32.227,21.973,33.203,37.598,0
1512883180.836,41.992,40.527,20.508,22.461,21.484,0
1512883180.839,31.738,42.480,21.484,18.555,19.043,0
1512883180.843,28.320,38.086,19.531,22.461,17.578,0
1512883180.847,36.621,29.785,28.320,23.438,22.461,0
1512883180.851,26.367,18.066,34.668,22.461,-5.371,0
1512883180.855,19.531,29.785,22.949,21.973,-1.953,0
1512883180.859,22.461,33.203,20.508,22.949,25.391,0
1512883180.863,21.484,36.133,20.996,26.855,14.648,0
1512883180.867,23.438,36.621,25.391,38.086,15.137,1
1512883180.871,13.672,28.809,30.762,44.922,13.672,0
1512883180.875,16.113,40.527,29.297,34.180,35.156,0
1512883180.879,32.227,40.527,25.391,15.137,20.508,0
1512883180.882,22.949,31.738,25.391,12.207,-1.465,0
1512883180.886,31.250,36.133,26.367,31.738,23.926,0
1512883180.890,50.781,29.785,28.809,42.480,45.410,0
1512883180.894,54.199,25.391,24.902,23.926,16.113,0
1512883180.898,42.969,36.621,19.531,32.227,-6.836,0
1512883180.902,35.645,41.016,23.438,44.434,22.461,0
1512883180.906,50.293,39.551,24.414,30.273,18.555,0
1512883180.910,58.594,39.551,26.367,19.043,4.395,0
1512883180.914,49.805,38.574,28.320,24.414,16.602,0
1512883180.918,40.527,39.551,36.621,38.086,14.160,0
1512883180.921,41.504,40.527,36.621,40.527,12.207,0
1512883180.925,45.410,38.574,22.949,30.273,5.371,0
1512883180.929,37.598,40.039,25.391,17.578,12.695,0
1512883180.933,34.180,30.273,27.344,27.344,47.852,0
1512883180.937,37.109,23.926,37.109,35.645,36.133,0
1512883180.941,34.668,31.738,33.691,33.203,22.461,0
1512883180.945,42.480,26.855,30.273,41.992,25.391,0
1512883180.949,49.316,6.348,31.250,34.180,30.762,0
1512883180.953,37.109,7.812,31.250,25.391,3.906,0
1512883180.957,30.273,6.348,32.715,34.668,13.184,0
1512883180.961,30.273,1.465,28.320,45.410,62.988,0
1512883180.964,31.250,10.742,33.203,35.156,32.227,0
1512883180.968,32.715,6.348,36.621,20.020,1.465,0
1512883180.972,35.645,-3.906,37.598,40.039,10.742,0
1512883180.976,21.484,-5.371,41.016,53.223,15.137,0
1512883180.980,12.695,4.395,40.039,51.758,36.133,0
1512883180.984,20.508,8.789,36.621,30.762,41.016,0
1512883180.988,5.859,-6.836,39.551,13.672,11.719,0
1512883180.992,14.160,-9.277,33.203,29.297,-0.488,0
1512883180.996,28.320,-3.418,27.344,36.621,-0.977,0
1512883181.000,15.137,4.395,30.273,55.176,-18.066,0
1512883181.004,20.020,17.090,29.297,47.852,-17.578,0
1512883181.007,48.828,19.043,24.902,20.020,-4.883,0
1512883181.011,74.219,16.113,33.691,14.648,6.836,0
1512883181.015,62.988,11.230,38.574,23.438,14.160,0
1512883181.019,41.504,18.066,36.621,44.434,10.742,0
1512883181.023,41.016,25.879,38.574,41.016,32.227,0
1512883181.027,35.156,4.395,37.109,48.828,28.809,0
1512883181.031,31.738,4.395,33.203,52.246,-6.348,0
1512883181.035,41.992,25.879,28.320,30.762,6.348,0
1512883181.039,50.781,30.273,24.902,27.832,29.297,0
1512883181.043,52.734,28.320,28.809,31.250,31.250,0
1512883181.046,51.758,24.414,29.297,13.184,15.625,0
1512883181.050,43.457,27.344,25.879,7.812,15.625,0
1512883181.054,42.480,28.320,29.297,25.879,20.996,0
1512883181.058,47.852,39.551,35.156,22.949,1.953,0
1512883181.062,33.691,30.762,38.086,22.949,10.742,0
1512883181.066,24.414,18.555,34.668,30.762,35.645,0
1512883181.070,36.133,29.297,40.039,34.180,10.742,0
1512883181.074,23.926,32.227,42.969,34.668,17.578,0
1512883181.078,11.230,32.715,36.133,0.977,32.715,0
1512883181.082,19.531,43.945,32.715,0.000,51.270,0
1512883181.086,5.371,58.594,23.438,7.812,50.293,0
1512883181.089,-17.090,62.500,18.066,-15.625,18.555,0
1512883181.093,-21.973,64.941,21.484,-14.648,2.441,0
1512883181.097,-35.645,71.777,16.113,-34.180,14.160,0
1512883181.101,-42.480,84.961,11.230,-51.270,35.156,0
1512883181.105,-44.922,90.820,16.113,-49.805,6.348,0
1512883181.109,-67.383,77.148,17.090,-50.293,13.672,0
1512883181.113,-76.172,74.707,11.230,-56.641,26.367,0
1512883181.117,-75.195,83.008,9.277,-97.168,35.156,0
1512883181.121,-74.707,88.379,10.742,-90.820,40.527,0
1512883181.125,-73.730,101.562,-2.930,-83.008,23.438,0
1512883181.129,-87.891,101.562,-8.301,-106.445,35.645,0
1512883181.132,-98.145,94.238,-5.371,-85.938,24.414,0
1512883181.136,-98.633,92.285,-7.812,-89.355,28.320,0
1512883181.140,-87.402,89.355,-6.348,-101.562,43.457,0
1512883181.144,-69.336,92.773,0.000,-99.609,58.594,0
1512883181.148,-52.734,100.586,-0.977,-92.773,62.988,0
1512883181.152,-34.180,100.098,-6.348,-60.547,48.828,0
1512883181.156,-36.621,93.262,-7.812,-32.715,61.035,0
1512883181.160,-44.922,83.984,-6.348,-48.828,60.547,0
1512883181.164,-14.648,74.219,-2.441,-58.105,51.270,0
1512883181.168,1.953,78.613,3.906,-36.133,33.203,0
1512883181.171,11.230,65.918,5.859,-17.578,42.480,0
1512883181.175,12.695,59.570,5.859,-13.184,27.344,0
1512883181.179,25.879,64.941,6.836,-9.277,20.996,0
1512883181.183,57.129,49.805,13.184,14.160,55.176,0
1512883181.187,60.059,41.992,16.113,27.344,69.824,0
1512883181.191,65.918,52.246,15.137,27.832,49.805,0
1512883181.195,79.102,54.688,33.203,41.016,39.062,0
1512883181.199,80.566,41.992,38.574,65.430,55.664,0
1512883181.203,83.008,27.832,21.484,59.570,80.566,0
1512883181.207,87.891,21.973,21.973,53.223,71.289,0
1512883181.211,82.520,30.273,23.438,68.359,55.176,0
1512883181.214,77.148,23.438,24.414,72.754,57.129,0
1512883181.218,84.961,9.277,26.855,64.941,40.527,0
1512883181.222,94.238,7.324,28.320,54.199,51.758,0
1512883181.226,80.566,-2.930,25.391,63.965,56.641,0
1512883181.230,72.266,-8.301,20.996,79.102,75.195,0
1512883181.234,78.125,4.883,20.996,80.078,82.031,0
1512883181.238,77.148,15.625,30.762,86.426,22.949,0
1512883181.242,72.754,2.930,32.715,80.078,15.625,0
1512883181.246,61.523,-12.207,28.320,60.547,45.410,0
1512883181.250,55.176,1.465,27.344,60.547,52.246,0
1512883181.254,50.293,6.348,18.066,56.152,34.180,0
1512883181.257,63.965,6.836,22.461,71.777,22.949,0
1512883181.261,64.453,13.672,33.203,84.961,44.922,0
1512883181.265,57.129,2.441,24.414,51.758,28.809,0
1512883181.269,67.383,1.465,20.020,22.949,36.621,0
1512883181.273,69.824,4.395,25.391,37.109,39.062,0
1512883181.277,69.336,-11.230,27.344,59.082,8.301,0
1512883181.281,67.871,-11.719,21.484,55.176,23.926,0
1512883181.285,66.895,-0.488,37.109,54.688,51.270,0
1512883181.289,72.266,4.883,41.504,58.594,41.016,0
1512883181.293,84.473,-4.883,24.414,58.594,44.434,0
1512883181.296,88.379,-9.277,31.250,65.918,34.668,0
1512883181.300,91.309,11.719,33.203,72.754,16.602,0
1512883181.304,94.238,18.555,27.344,72.266,24.414,0
1512883181.308,95.703,8.301,23.438,76.660,62.012,0
1512883181.312,97.168,6.348,24.414,86.426,43.457,0
1512883181.316,99.609,11.230,33.691,85.938,46.387,0
1512883181.320,102.539,8.301,37.598,75.195,69.824,0
1512883181.324,104.980,1.953,34.668,71.777,33.203,0
1512883181.328,98.145,12.695,41.992,87.402,56.152,0
1512883181.332,87.891,15.625,45.898,83.008,43.945,0
1512883181.336,94.238,4.395,49.805,78.125,36.621,0
1512883181.339,109.375,19.043,59.570,112.305,72.754,0
1512883181.343,110.840,30.273,69.824,133.301,56.641,0
1512883181.347,118.652,39.551,82.031,134.277,59.570,0
1512883181.351,115.234,35.645,71.289,124.512,81.543,0
1512883181.355,95.215,27.344,60.059,108.398,104.004,0
1512883181.359,90.820,40.039,65.430,104.492,88.867,0
1512883181.363,107.910,56.152,75.195,107.422,93.262,0
1512883181.367,115.234,59.082,76.172,111.816,102.539,0
1512883181.371,103.027,39.551,71.289,106.445,106.445,0
1512883181.375,97.168,39.062,67.383,97.168,104.980,0
1512883181.379,101.074,48.828,63.477,85.938,88.867,0
1512883181.382,99.609,46.875,62.012,82.520,106.934,0
1512883181.386,96.191,48.340,62.500,101.074,128.418,0
1512883181.390,98.145,41.504,61.035,98.145,94.238,0
1512883181.394,96.191,38.086,62.500,82.520,89.844,0
1512883181.398,92.773,45.898,66.895,76.172,142.090,0
1512883181.402,84.961,49.805,67.871,76.172,138.672,0
1512883181.406,79.102,38.574,63.965,86.914,104.004,0
1512883181.410,83.008,34.180,56.641,84.961,124.023,0
1512883181.414,79.102,40.039,62.012,80.078,159.668,0
1512883181.418,84.473,34.668,57.617,66.895,167.480,0
1512883181.421,102.051,41.016,45.898,72.266,161.621,0
1512883181.425,92.285,43.945,53.711,83.496,124.512,0
1512883181.429,68.359,27.832,51.758,78.125,169.434,0
1512883181.433,59.570,38.086,41.992,67.871,171.875,0
1512883181.437,67.383,38.574,38.574,67.871,152.832,0
1512883181.441,75.195,34.180,33.203,67.871,168.457,0
1512883181.445,76.660,34.668,32.715,70.801,166.016,0
1512883181.449,73.242,35.156,39.551,77.148,145.508,0
1512883181.453,70.312,42.480,43.945,69.824,126.953,0
1512883181.457,63.477,30.762,37.109,65.430,148.438,0
1512883181.461,55.664,18.066,36.621,60.547,157.227,0
1512883181.464,48.340,22.461,40.039,46.875,117.676,0
1512883181.468,42.480,22.949,39.551,53.223,100.098,0
1512883181.472,44.434,27.344,38.086,62.988,119.629,0
1512883181.476,40.039,34.668,29.785,65.430,109.863,0
1512883181.480,33.691,43.457,26.367,58.105,96.191,0
1512883181.484,37.109,39.062,30.762,51.270,87.402,0
1512883181.488,52.246,36.133,34.180,55.176,123.047,0
1512883181.492,50.293,38.574,34.180,49.805,137.207,0
1512883181.496,25.879,30.273,27.344,28.320,104.004,0
1512883181.500,24.414,24.414,26.855,26.367,107.910,0
1512883181.504,39.551,29.297,35.645,49.316,142.090,0
1512883181.507,34.180,25.391,31.250,52.246,158.203,0
1512883181.511,20.020,20.020,22.461,35.156,100.098,0
1512883181.515,17.090,29.785,22.949,41.016,105.957,0
1512883181.519,19.531,22.461,22.949,34.180,151.855,0
1512883181.523,26.367,22.461,26.367,28.320,104.004,0
1512883181.527,21.973,30.762,30.762,29.297,80.078,0
1512883181.531,26.855,40.039,32.227,34.180,127.930,0
1512883181.535,38.574,45.410,30.273,49.316,144.531,0
1512883181.539,50.293,33.691,25.391,49.316,136.230,0
1512883181.543,71.289,36.621,27.832,45.410,114.746,0
1512883181.546,54.199,46.875,30.273,42.969,125.000,0
1512883181.550,28.809,45.898,32.715,47.852,159.668,0
1512883181.554,48.340,41.016,35.156,59.082,152.344,0
1512883181.558,60.547,43.945,36.621,70.801,137.695,0
1512883181.562,47.363,48.828,36.621,65.430,131.836,0
1512883181.566,44.922,53.711,35.156,56.641,131.836,0
1512883181.570,50.781,56.641,32.227,53.711,114.746,0
1512883181.574,56.641,73.242,24.902,42.480,113.281,0
1512883181.578,58.594,75.195,25.879,40.039,129.395,0
1512883181.582,49.805,67.871,31.738,45.410,116.211,0
1512883181.586,42.969,62.988,24.902,40.527,91.309,0
1512883181.589,51.270,61.523,27.832,34.180,118.164,0
1512883181.593,43.945,73.242,34.668,43.457,118.164,0
1512883181.597,34.668,115.234,28.320,36.133,92.285,0
1512883181.601,42.480,184.082,22.461,15.625,65.918,0
1512883181.605,30.762,219.727,20.996,11.230,43.945,0
1512883181.609,7.812,226.562,25.391,18.066,58.594,0
1512883181.613,-0.488,224.609,27.344,41.992,57.617,0
1512883181.617,-3.418,238.770,20.996,27.832,59.082,0
1512883181.621,4.883,251.953,24.414,10.254,57.129,0
1512883181.625,7.324,241.699,26.367,29.297,77.148,0
1512883181.629,-1.953,233.398,21.973,25.879,60.547,0
1512883181.632,10.742,222.168,27.832,13.672,27.344,0
1512883181.636,27.344,206.543,30.273,15.625,36.621,0
1512883181.640,23.438,183.594,24.414,23.438,48.828,0
1512883181.644,15.137,174.316,26.367,30.273,41.016,0
1512883181.648,13.184,181.641,28.320,52.734,7.324,0
1512883181.652,28.809,182.617,17.578,47.363,7.812,0
1512883181.656,54.688,177.734,22.461,14.648,20.020,0
1512883181.660,53.223,152.832,34.180,32.715,14.648,0
1512883181.664,30.762,129.883,36.621,43.457,-1.953,0
1512883181.668,23.438,132.812,33.203,20.020,20.996,0
1512883181.671,40.527,141.602,24.414,31.738,57.617,0
1512883181.675,46.387,133.789,23.926,48.340,48.340,0
1512883181.679,42.480,120.605,20.996,34.180,28.320,0
1512883181.683,48.340,125.488,34.180,18.066,26.367,0
1512883181.687,54.688,122.559,39.062,18.066,25.879,0
1512883181.691,51.270,95.703,28.320,35.645,-9.766,0
1512883181.695,39.062,61.523,-2.930,40.527,-4.395,0
1512883181.699,56.152,73.242,-15.625,57.129,35.156,0
1512883181.703,65.430,84.961,19.531,64.941,27.832,0
1512883181.707,35.156,78.125,22.949,47.363,33.691,0
1512883181.711,41.504,92.285,27.344,35.645,56.641,0
1512883181.714,65.430,90.820,-10.742,39.551,41.992,0
1512883181.718,49.805,75.684,-50.781,52.246,10.742,0
1512883181.722,28.809,69.336,10.742,34.668,8.301,0
1512883181.726,20.508,55.176,71.777,15.137,26.855,0
1512883181.730,36.133,67.383,91.309,21.484,21.484,0
1512883181.734,39.062,64.941,76.660,47.852,-4.883,0
1512883181.738,29.297,58.105,21.484,38.574,-0.488,0
1512883181.742,65.430,103.516,-7.812,41.504,15.137,0
1512883181.746,70.312,74.219,20.020,55.664,8.301,0
1512883181.750,57.129,31.738,77.148,58.594,5.859,0
1512883181.754,18.066,34.180,74.219,14.648,-8.301,0
1512883181.757,-31.250,24.902,38.574,-44.922,-5.371,0
1512883181.761,-10.254,53.223,8.301,-26.367,11.719,0
1512883181.765,4.395,75.195,-11.230,7.812,2.441,0
1512883181.769,6.836,85.938,-0.977,8.301,6.348,0
1512883181.773,-5.371,75.684,20.996,-7.324,34.180,0
1512883181.777,-62.500,63.477,36.133,-51.758,57.617,0
1512883181.781,-121.094,75.684,0.977,-125.977,30.273,0
1512883181.785,-48.828,121.582,7.812,-61.035,18.555,0
1512883181.789,32.715,138.184,44.922,25.391,38.574,0
1512883181.793,-58.594,76.660,-43.945,-55.664,25.879,0
1512883181.796,-148.926,16.602,-137.207,-156.738,-6.348,0
1512883181.800,-158.203,79.102,-64.941,-192.871,-4.883,0
1512883181.804,-156.738,125.000,-30.273,-194.336,26.855,0
1512883181.808,-116.211,124.023,-53.223,-125.000,26.367,0
1512883181.812,-62.500,153.809,-23.926,-68.359,16.602,0
1512883181.816,-113.770,113.770,-42.969,-137.695,3.906,0
1512883181.820,-152.344,62.500,-69.824,-185.547,10.742,0
1512883181.824,-70.312,87.891,-59.082,-102.051,0.977,0
1512883181.828,15.137,100.098,-3.418,-0.488,-0.488,0
1512883181.832,-17.578,32.227,-1.465,-39.062,3.418,0
1512883181.836,-43.457,19.531,-64.453,-53.223,4.883,0
1512883181.839,21.973,86.914,6.836,42.480,0.977,0
1512883181.843,1.953,53.223,-7.324,-1.953,-28.320,0
1512883181.847,-49.805,1.465,-61.035,-82.520,-46.875,0
1512883181.851,-36.133,41.992,-11.230,-66.406,-9.766,0
1512883181.855,-6.836,67.383,-7.324,-26.855,-11.719,0
1512883181.859,6.836,22.949,-33.691,-26.367,-26.367,0
1512883181.863,24.902,-7.324,-9.277,-6.348,-11.230,0
1512883181.867,19.531,27.832,6.348,22.461,-12.207,0
1512883181.871,-7.812,51.758,-14.160,-9.277,-21.484,0
1512883181.875,13.184,39.551,-6.836,-32.715,-15.137,0
1512883181.879,38.574,32.227,-29.785,-7.812,-10.254,0
1512883181.882,24.414,38.086,-35.156,11.230,-29.785,0
1512883181.886,13.672,22.461,0.000,13.184,-36.133,0
1512883181.890,12.695,-4.883,20.508,15.137,-16.602,0
1512883181.894,27.344,30.273,16.602,-6.836,-2.930,0
1512883181.898,48.340,47.363,6.348,-10.254,-12.695,0
1512883181.902,22.949,39.551,7.324,-19.531,-15.137,0
1512883181.906,9.277,21.484,-1.953,-30.273,-14.160,0
1512883181.910,44.434,38.574,13.184,17.090,3.906,0
1512883181.914,68.848,50.293,23.926,25.879,-9.766,0
1512883181.918,52.734,2.441,-1.953,2.930,-12.207,0
1512883181.921,31.250,14.648,-7.812,21.484,12.207,0
1512883181.925,20.996,56.152,6.348,12.207,4.395,0
1512883181.929,21.484,54.199,6.836,-7.324,16.602,0
1512883181.933,21.484,48.340,0.000,-7.324,15.137,0
1512883181.937,18.066,62.500,2.441,-4.395,7.812,0
1512883181.941,17.090,48.340,19.531,-7.812,-1.465,0
1512883181.945,18.066,34.668,23.926,-2.930,-26.855,0
1512883181.949,20.508,47.363,13.184,27.344,-18.555,0
1512883181.953,20.996,49.316,16.602,27.344,-2.441,0
1512883181.957,21.484,36.133,18.555,11.719,5.859,0
1512883181.961,36.133,51.270,11.230,4.395,18.066,0
1512883181.964,50.781,62.012,11.230,-13.672,-1.953,0
1512883181.968,45.410,43.945,23.438,-9.277,8.301,0
1512883181.972,37.109,32.715,26.367,16.113,18.066,0
1512883181.976,27.344,24.902,19.043,26.367,-11.719,0
1512883181.980,20.020,29.297,20.508,27.832,-22.949,0
1512883181.984,10.254,62.500,14.648,-2.441,8.301,0
1512883181.988,32.715,85.449,18.066,2.930,-0.977,0
1512883181.992,60.059,67.383,39.551,34.180,-26.367,0
1512883181.996,40.039,56.152,31.738,17.578,-24.414,0
1512883182.000,18.066,56.152,32.227,20.996,-11.719,0
1512883182.004,25.879,55.664,1.953,40.527,-27.344,0
1512883182.007,30.273,68.359,-20.508,40.527,-30.762,0
1512883182.011,24.414,58.594,22.461,-1.953,-16.113,0
1512883182.015,26.855,54.688,35.645,-19.043,-23.926,0
1512883182.019,42.969,52.246,41.504,14.160,-32.227,0
1512883182.023,37.109,21.484,41.016,15.137,-45.410,0
1512883182.027,28.320,48.340,28.320,18.555,-13.184,0
1512883182.031,25.879,85.938,21.973,35.156,-20.996,0
1512883182.035,14.648,49.805,14.160,19.043,-47.363,0
1512883182.039,19.043,14.160,13.672,2.930,-41.992,0
1512883182.043,37.109,28.809,33.203,24.414,-33.691,0
1512883182.046,32.715,58.594,29.785,49.316,-8.301,0
1512883182.050,18.066,69.336,30.273,50.293,-37.109,0
1512883182.054,19.043,39.062,32.227,21.484,-65.918,0
1512883182.058,29.785,52.734,21.973,22.949,-36.621,0
1512883182.062,32.227,82.031,23.926,24.414,-36.621,0
1512883182.066,33.203,55.176,27.344,18.066,-41.504,0
1512883182.070,48.828,53.223,12.695,38.086,-34.180,0
1512883182.074,26.367,47.363,-7.812,20.020,-22.949,0
1512883182.078,9.766,15.137,29.297,38.574,-26.855,0
1512883182.082,17.578,20.508,59.570,25.879,-43.945,0
1512883182.086,41.992,70.801,47.363,7.324,-33.691,0
1512883182.089,49.805,99.609,44.434,43.457,-25.879,0
1512883182.093,37.598,54.199,42.480,36.621,-19.531,0
1512883182.097,59.082,53.223,58.105,41.504,0.488,0
1512883182.101,52.246,56.641,37.109,26.855,1.953,0
1512883182.105,31.738,29.785,5.859,22.461,9.766,0
1512883182.109,23.438,49.316,13.672,35.156,-0.488,0
1512883182.113,2.441,74.707,37.598,12.695,-20.020,0
1512883182.117,3.418,85.938,31.250,5.371,0.488,0
1512883182.121,33.691,74.707,22.461,15.625,7.812,0
1512883182.125,62.012,72.754,59.570,45.410,-6.348,0
1512883182.129,59.082,73.242,55.664,63.965,-13.184,0
1512883182.132,41.016,40.527,21.484,36.621,10.254,0
1512883182.136,52.734,33.203,37.598,51.270,29.297,2
1512883182.140,61.035,62.012,32.715,64.453,18.555,0
1512883182.144,56.152,79.590,-4.883,42.969,7.324,0
1512883182.148,40.039,80.078,1.953,17.578,19.531,0
1512883182.152,43.457,61.523,42.480,23.926,26.367,0
1512883182.156,55.176,57.129,67.871,54.688,5.371,0
1512883182.160,55.176,95.703,63.477,58.594,3.906,0
1512883182.164,42.480,83.008,31.250,26.855,23.438,0
1512883182.168,48.340,47.852,24.414,18.555,-0.977,0
1512883182.171,56.152,62.988,36.621,33.691,-17.090,0
1512883182.175,43.457,78.125,38.086,31.738,-9.277,0
1512883182.179,51.758,77.148,37.109,52.246,-14.160,0
1512883182.183,46.387,68.359,30.762,55.176,-19.043,0
1512883182.187,24.414,78.125,30.762,22.461,-27.832,0
1512883182.191,28.809,105.469,37.598,9.277,-17.090,0
1512883182.195,20.996,96.191,33.203,0.977,28.809,0
1512883182.199,25.879,62.500,36.621,26.367,2.441,0
1512883182.203,38.086,73.730,36.621,46.387,-11.230,0
1512883182.207,27.344,86.914,26.855,20.996,5.859,0
1512883182.211,20.996,81.543,23.926,21.484,10.254,0
1512883182.214,36.133,92.773,31.250,45.410,0.000,0
1512883182.218,46.387,93.262,30.273,34.668,-28.320,0
1512883182.222,40.039,85.449,23.926,29.297,4.395,0
1512883182.226,37.109,92.285,24.414,43.457,17.578,0
1512883182.230,32.227,70.801,25.391,34.668,-5.371,0
1512883182.234,43.945,56.641,30.762,26.855,-22.949,0
1512883182.238,54.199,87.891,0.000,26.367,2.930,0
1512883182.242,49.316,102.539,-14.648,12.207,-17.578,0
1512883182.246,41.016,76.660,36.621,4.883,-19.531,0
1512883182.250,30.762,82.031,54.688,16.113,-0.488,0
1512883182.254,43.457,116.211,44.434,31.738,-3.906,0
1512883182.257,39.551,102.051,40.527,27.832,10.742,0
1512883182.261,32.715,59.570,27.832,17.578,-25.391,0
1512883182.265,54.199,77.637,37.598,36.133,-37.109,0
1512883182.269,60.547,97.168,35.156,33.203,30.762,0
1512883182.273,47.363,97.656,19.043,31.250,17.090,0
1512883182.277,39.062,110.352,34.180,56.152,-14.160,0
1512883182.281,34.180,100.098,42.969,41.016,-8.789,0
1512883182.285,38.086,77.637,45.898,27.344,10.254,0
1512883182.289,34.668,82.031,43.457,31.738,5.371,0
1512883182.293,24.414,94.727,38.086,29.785,-5.859,0
1512883182.296,28.320,84.961,35.156,23.926,17.578,0
1512883182.300,31.738,92.773,20.996,17.578,0.000,0
1512883182.304,20.020,92.285,19.043,25.391,-6.836,0
1512883182.308,6.836,84.473,31.250,32.715,-10.742,0
1512883182.312,4.883,81.543,22.461,20.020,20.508,0
1512883182.316,20.020,79.102,22.949,35.645,23.438,0
1512883182.320,29.297,83.496,38.574,49.316,13.184,0
1512883182.324,9.277,85.449,39.062,47.363,20.020,0
1512883182.328,16.602,95.215,40.039,34.180,20.996,0
1512883182.332,29.785,89.844,40.527,30.762,1.465,0
1512883182.336,10.254,36.133,36.621,27.832,-20.020,0
1512883182.339,20.020,25.879,34.668,17.090,-42.480,0
1512883182.343,41.992,85.938,28.320,3.418,-16.113,0
1512883182.347,27.344,101.562,20.508,4.883,23.438,0
1512883182.351,9.277,81.055,30.273,22.461,15.625,0
1512883182.355,15.137,80.566,32.715,36.133,18.555,0
1512883182.359,39.062,84.961,32.227,45.410,46.875,0
1512883182.363,49.805,67.871,38.086,38.574,55.176,0
1512883182.367,35.645,69.824,40.527,43.945,21.973,0
1512883182.371,41.016,88.867,46.387,53.223,21.484,0
1512883182.375,53.711,84.473,37.109,43.457,25.391,0
1512883182.379,44.922,47.363,45.898,38.086,-2.441,0
1512883182.382,47.363,20.996,52.734,44.434,0.488,0
1512883182.386,43.457,51.270,22.461,47.363,9.277,0
1512883182.390,31.738,87.402,19.043,48.340,49.805,0
1512883182.394,36.133,94.727,34.668,23.926,58.105,0
1512883182.398,46.387,91.797,29.297,1.953,51.758,0
1512883182.402,55.176,102.539,29.785,19.043,77.148,0
1512883182.406,60.547,102.539,24.902,42.480,42.969,0
1512883182.410,54.688,73.730,28.809,57.617,45.898,0
1512883182.414,42.480,56.641,49.805,67.383,63.965,0
1512883182.418,38.574,57.129,64.941,65.918,48.828,0
1512883182.421,49.316,53.223,68.848,59.570,49.805,0
1512883182.425,72.754,62.988,62.988,63.477,48.340,0
1512883182.429,54.688,68.359,57.617,48.828,68.848,0
1512883182.433,19.531,69.336,35.645,47.363,68.359,0
1512883182.437,36.621,72.754,16.602,62.012,70.312,0
1512883182.441,46.387,60.059,33.203,41.016,74.219,0
1512883182.445,30.273,60.547,37.598,20.996,56.152,0
1512883182.449,43.945,65.430,47.852,45.898,71.777,0
1512883182.453,40.527,59.570,53.223,44.922,99.609,0
1512883182.457,20.508,63.477,44.922,28.809,91.797,0
1512883182.461,31.250,67.871,45.898,35.645,80.078,0
1512883182.464,27.832,62.500,41.016,36.621,45.410,0
1512883182.468,16.602,62.012,33.691,31.738,9.766,0
1512883182.472,29.297,78.125,35.156,23.926,39.062,0
1512883182.476,30.273,74.707,26.855,2.930,73.242,0
1512883182.480,21.484,63.965,21.484,-2.930,64.941,0
1512883182.484,18.555,88.379,25.391,25.391,51.758,0
1512883182.488,10.254,81.055,34.180,40.527,72.266,0
1512883182.492,13.184,60.059,38.574,10.254,62.500,0
1512883182.496,15.137,69.824,10.742,-3.418,32.227,0
1512883182.500,18.066,72.266,10.742,20.020,28.809,0
1512883182.504,29.785,57.617,40.527,35.156,38.574,0
1512883182.507,42.969,60.547,45.410,41.016,49.805,0
1512883182.511,33.203,74.219,45.410,31.250,43.457,0
1512883182.515,16.113,62.012,34.180,23.438,28.320,0
1512883182.519,26.367,70.312,19.043,36.133,19.531,0
1512883182.523,30.273,93.262,22.949,24.414,9.766,0
1512883182.527,15.625,83.008,25.879,4.883,1.465,0
1512883182.531,9.277,63.965,20.996,20.996,-7.812,0
1512883182.535,30.273,63.965,28.320,46.387,-5.371,0
1512883182.539,32.715,56.152,37.109,30.762,16.113,0
1512883182.543,2.930,60.547,27.344,34.668,8.301,0
1512883182.546,21.973,84.473,35.156,53.223,-7.812,0
1512883182.550,53.711,85.938,42.480,36.133,-20.020,0
1512883182.554,40.527,62.988,36.621,20.508,-8.789,0
1512883182.558,17.578,38.086,32.715,27.832,0.977,0
1512883182.562,8.789,57.129,15.137,23.926,-2.930,0
1512883182.566,11.230,65.430,12.207,23.926,15.137,0
1512883182.570,41.016,61.523,27.344,40.039,40.527,0
1512883182.574,50.293,61.523,32.227,36.133,46.387,0
1512883182.578,25.391,56.641,29.297,24.902,44.922,0
1512883182.582,20.996,52.246,27.832,38.574,39.062,0
1512883182.586,24.902,49.805,36.133,60.059,21.484,0
1512883182.589,14.648,51.270,42.969,33.203,-3.906,0
1512883182.593,6.836,30.762,40.039,15.625,7.324,0
1512883182.597,27.344,40.039,44.434,22.461,33.203,0
1512883182.601,41.504,60.059,41.016,14.160,45.410,0
1512883182.605,34.180,49.805,27.344,6.348,24.414,0
1512883182.609,27.344,58.105,27.832,36.621,-10.742,0
1512883182.613,13.672,62.012,40.039,48.340,-4.883,0
1512883182.617,22.461,54.199,39.062,21.973,3.906,0
1512883182.621,35.645,56.641,34.668,20.020,-1.465,0
1512883182.625,41.992,65.430,41.992,17.578,4.395,0
1512883182.629,49.805,58.105,40.039,25.391,22.949,0
1512883182.632,50.781,51.758,34.180,44.434,27.832,0
1512883182.636,38.574,40.039,40.527,34.180,6.836,3
1512883182.640,44.434,32.715,30.762,25.391,-1.465,0
1512883182.644,41.504,28.809,22.949,18.066,28.320,0
1512883182.648,27.832,30.273,22.949,14.648,23.438,0
1512883182.652,31.738,60.059,26.367,21.973,13.184,0
1512883182.656,46.875,65.918,33.203,25.391,33.691,0
1512883182.660,43.945,50.293,36.133,35.645,50.293,0
1512883182.664,24.902,51.270,35.156,33.203,29.297,0
1512883182.668,18.555,52.734,34.668,30.762,-13.672,0
1512883182.671,28.320,55.664,34.668,34.668,-8.789,0
1512883182.675,42.969,48.828,33.691,28.320,6.836,0
1512883182.679,47.363,44.922,36.621,28.809,-0.488,0
1512883182.683,37.109,46.387,35.156,26.367,-11.719,0
1512883182.687,35.156,55.664,32.715,23.438,15.137,0
1512883182.691,31.250,48.828,32.227,36.133,33.691,0
1512883182.695,32.227,43.457,42.480,50.293,20.020,0
1512883182.699,42.480,55.664,34.668,52.246,36.133,0
1512883182.703,31.250,48.340,22.949,37.598,51.270,0
1512883182.707,22.949,41.504,33.203,42.480,17.090,0
1512883182.711,36.621,57.129,42.480,52.246,-24.902,0
1512883182.714,45.410,62.988,39.062,32.227,0.977,0
1512883182.718,42.480,52.734,39.551,46.387,19.531,0
1512883182.722,43.945,51.270,44.922,38.574,13.184,0
1512883182.726,45.410,56.152,41.504,10.254,20.508,0
1512883182.730,20.508,60.059,43.945,15.137,20.996,0
1512883182.734,6.348,54.199,47.852,35.645,30.762,0
1512883182.738,-11.230,49.316,39.062,20.020,25.391,0
1512883182.742,-19.531,64.941,31.250,5.859,13.184,0
1512883182.746,7.324,73.730,33.691,27.344,23.926,0
1512883182.750,-5.859,75.195,30.762,18.066,48.828,0
1512883182.754,-53.223,89.355,18.066,-12.695,51.270,0
1512883182.757,-61.523,106.445,16.113,-31.738,37.598,0
1512883182.761,-63.965,119.141,11.230,-41.016,39.062,0
1512883182.765,-82.520,134.277,-5.859,-62.012,37.109,0
1512883182.769,-97.168,149.414,-9.277,-69.336,28.809,0
1512883182.773,-106.934,160.645,-11.719,-79.590,73.242,0
1512883182.777,-106.445,157.227,-15.625,-107.910,82.031,0
1512883182.781,-136.719,161.133,-22.949,-119.629,43.457,0
1512883182.785,-155.762,176.270,-25.391,-108.398,19.043,0
1512883182.789,-159.668,173.828,-23.438,-125.000,19.531,0
1512883182.793,-168.945,170.410,-25.879,-140.625,20.508,0
1512883182.796,-156.738,157.227,-26.367,-159.180,5.371,0
1512883182.800,-172.363,141.602,-27.832,-182.129,-0.977,0
1512883182.804,-177.246,139.648,-24.414,-159.180,9.277,0
1512883182.808,-161.133,138.672,-16.113,-140.137,21.973,0
1512883182.812,-180.176,123.535,-18.066,-159.668,27.344,0
1512883182.816,-182.129,111.816,-16.113,-154.297,41.992,0
1512883182.820,-161.133,120.117,-20.020,-139.648,36.133,0
1512883182.824,-132.812,105.957,-18.555,-119.141,37.109,0
1512883182.828,-118.652,93.262,-11.719,-105.469,14.160,0
1512883182.832,-128.906,112.305,-11.230,-114.746,2.441,0
1512883182.836,-116.211,109.863,13.184,-107.422,-9.277,0
1512883182.839,-111.816,84.961,22.949,-99.609,-20.020,0
1512883182.843,-115.723,80.078,19.531,-76.172,1.953,0
1512883182.847,-101.562,83.008,25.391,-47.852,12.695,0
1512883182.851,-86.914,83.496,14.648,-34.668,33.203,0
1512883182.855,-78.613,82.031,7.812,-37.598,35.156,0
1512883182.859,-76.172,81.055,18.066,-33.203,19.043,0
1512883182.863,-60.059,69.824,22.949,-39.551,22.461,0
1512883182.867,-54.199,45.410,13.672,-48.828,21.973,0
1512883182.871,-52.246,52.246,35.156,-37.109,17.578,0
1512883182.875,-32.715,83.008,51.758,-48.340,39.551,0
1512883182.879,-25.879,67.871,13.184,-54.688,50.781,0
1512883182.882,-22.461,74.219,11.230,-32.227,53.711,0
1512883182.886,-19.531,80.566,50.293,-26.855,41.504,0
1512883182.890,-37.109,52.246,50.781,-50.781,41.504,0
1512883182.894,-34.180,40.039,35.156,-45.410,58.594,0
1512883182.898,-4.395,25.391,35.156,-11.230,64.941,0
1512883182.902,5.371,31.250,42.480,12.207,30.762,0
1512883182.906,3.418,47.363,57.617,2.441,46.387,0
1512883182.910,3.906,63.477,64.941,-17.090,60.059,0
1512883182.914,2.930,66.406,52.246,-17.578,43.945,0
1512883182.918,14.648,46.875,47.363,-5.859,46.875,0
1512883182.921,5.859,34.668,51.270,-4.395,65.430,0
1512883182.925,0.977,32.227,51.758,5.859,48.340,0
1512883182.929,25.391,35.645,51.270,27.344,-4.883,0
1512883182.933,34.180,35.645,65.430,44.434,-0.488,0
1512883182.937,28.809,23.926,61.523,35.645,21.973,0
1512883182.941,37.109,20.996,41.504,24.902,20.996,0
1512883182.945,41.504,24.414,63.965,50.293,23.926,0
1512883182.949,37.598,7.812,83.984,64.941,33.203,0
1512883182.953,55.176,9.277,82.031,63.477,35.156,0
1512883182.957,53.223,23.438,79.590,54.688,31.250,0
1512883182.961,55.664,29.785,80.078,49.805,24.414,0
1512883182.964,78.613,38.574,68.848,58.594,22.949,0
1512883182.968,78.613,23.926,47.363,48.340,23.438,0
1512883182.972,65.918,17.578,59.082,43.945,35.645,0
1512883182.976,59.570,0.000,71.777,41.992,42.480,0
1512883182.980,68.848,-6.836,59.570,32.715,21.484,0
1512883182.984,67.871,25.391,48.828,28.320,19.043,0
1512883182.988,65.430,27.832,47.363,45.410,18.066,0
1512883182.992,71.777,21.973,54.199,62.500,-14.160,0
1512883182.996,77.637,15.137,58.594,44.434,-59.570,0
1512883183.000,70.312,10.254,62.500,46.875,-22.461,0
1512883183.004,74.707,22.949,69.824,56.641,20.020,0
1512883183.007,78.613,20.508,58.105,38.086,1.465,0
1512883183.011,79.590,22.949,39.062,32.227,-6.836,0
1512883183.015,89.844,30.273,45.898,52.246,-2.441,0
1512883183.019,67.383,20.508,57.129,39.551,11.230,0
1512883183.023,60.547,17.578,77.637,16.602,33.203,0
1512883183.027,65.430,14.160,81.543,29.297,60.059,0
1512883183.031,67.871,11.230,70.312,33.203,75.684,0
1512883183.035,70.801,10.254,63.965,31.250,51.758,0
1512883183.039,68.359,15.137,63.477,23.926,17.090,0
1512883183.043,78.613,20.996,79.102,22.461,-13.672,0
1512883183.046,95.215,20.996,60.547,45.898,-11.230,0
1512883183.050,93.262,11.719,41.016,33.203,32.715,0
1512883183.054,64.941,6.836,48.828,3.418,19.531,0
1512883183.058,49.805,11.230,45.410,-16.113,-6.836,0
1512883183.062,50.781,1.953,42.969,-11.719,22.461,0
1512883183.066,62.500,4.883,51.270,2.930,21.973,0
1512883183.070,71.289,19.043,53.223,9.766,-1.465,0
1512883183.074,66.406,6.836,56.641,7.812,33.203,0
1512883183.078,67.383,2.441,60.547,25.879,28.809,0
1512883183.082,80.078,16.113,63.477,51.270,9.766,0
1512883183.086,88.379,4.395,59.570,31.250,40.527,0
1512883183.089,88.379,-1.465,47.852,25.391,14.160,0
1512883183.093,91.309,-5.371,54.199,47.363,-10.254,0
1512883183.097,99.121,-17.578,65.430,42.969,-20.508,0
1512883183.101,108.398,6.836,62.500,48.340,-33.203,0
1512883183.105,112.793,13.672,70.312,76.660,4.395,0
1512883183.109,114.258,1.465,67.871,80.078,49.316,0
1512883183.113,117.188,-1.465,60.547,77.637,36.133,0
1512883183.117,125.000,0.000,68.359,86.914,-21.484,0
1512883183.121,134.277,-5.859,61.523,81.055,-4.883,0
1512883183.125,140.625,0.000,45.898,75.684,3.906,0
1512883183.129,130.859,5.859,52.246,69.336,4.395,0
1512883183.132,127.930,-5.859,70.312,60.547,9.766,0
1512883183.136,130.859,-9.766,74.707,64.453,-0.488,4
1512883183.140,144.043,-4.395,73.730,100.098,22.461,0
1512883183.144,147.949,9.277,68.359,104.980,93.262,0
1512883183.148,136.230,-1.465,62.988,76.172,92.285,0
1512883183.152,125.977,-16.113,67.871,57.129,9.766,0
1512883183.156,112.793,-19.531,71.289,53.711,-1.465,0
1512883183.160,113.770,-23.926,79.102,71.289,35.645,0
1512883183.164,116.211,-3.906,84.473,89.844,69.824,0
1512883183.168,88.379,8.301,79.102,72.754,-5.859,0
1512883183.171,87.891,11.230,69.336,61.523,-34.180,0
1512883183.175,102.051,-2.441,64.941,51.758,34.668,0
1512883183.179,92.285,-12.695,67.871,21.973,14.160,0
1512883183.183,85.938,-13.672,68.848,16.602,17.578,0
1512883183.187,80.078,1.953,76.172,24.414,22.949,0
1512883183.191,53.223,4.883,77.148,15.137,12.695,0
1512883183.195,45.410,-9.277,65.918,9.766,47.852,0
1512883183.199,45.410,-10.254,61.035,6.836,25.879,0
1512883183.203,36.621,-18.555,55.176,-6.348,-6.348,0
1512883183.207,41.504,-11.230,52.246,-10.254,-13.672,0
1512883183.211,41.016,-0.488,48.828,-17.578,-34.668,0
1512883183.214,46.875,1.953,53.711,-15.625,-13.184,0
1512883183.218,28.809,0.000,58.594,-26.855,-35.645,0
1512883183.222,13.672,-15.625,53.711,-29.297,-30.273,0
1512883183.226,49.805,-9.277,63.477,-5.371,38.086,0
1512883183.230,54.688,0.977,65.430,-6.836,50.293,0
1512883183.234,26.855,-5.371,51.758,-26.367,12.695,0
1512883183.238,32.715,-1.465,38.086,-18.555,-18.066,0
1512883183.242,45.410,12.695,40.039,1.465,-21.484,0
1512883183.246,27.832,4.395,49.316,-11.230,3.906,0
1512883183.250,22.461,6.348,40.039,-20.508,-5.371,0
1512883183.254,49.316,2.930,48.828,-3.418,-20.996,0
1512883183.257,52.734,-16.602,53.223,-10.254,40.527,0
1512883183.261,52.246,-8.789,51.270,-18.555,62.988,0
1512883183.265,57.129,1.953,38.086,-3.418,12.695,0
1512883183.269,76.660,-5.371,33.691,36.621,-1.953,0
1512883183.273,83.984,-7.324,55.664,55.176,39.551,0
1512883183.277,77.148,5.859,63.965,25.879,23.438,0
1512883183.281,85.938,7.812,56.641,29.785,-20.020,0
1512883183.285,90.820,-4.395,52.734,54.688,16.113,0
1512883183.289,86.426,-4.883,65.430,61.035,16.113,0
1512883183.293,84.473,3.906,74.707,65.918,12.207,0
1512883183.296,86.914,1.465,76.172,74.707,43.457,0
1512883183.300,89.355,-2.930,67.871,77.148,41.504,0
1512883183.304,109.375,-7.324,60.059,96.680,21.484,0
1512883183.308,120.117,1.953,64.453,102.539,18.555,0
1512883183.312,104.492,-24.902,62.500,67.383,25.879,0
1512883183.316,93.262,-52.734,64.453,57.617,-2.441,0
1512883183.320,76.660,-25.391,62.012,61.523,-32.715,0
1512883183.324,73.730,-8.789,53.711,57.617,-14.160,0
1512883183.328,72.754,-12.207,65.918,57.129,7.812,0
1512883183.332,85.938,-12.207,70.312,56.641,4.883,0
1512883183.336,96.191,-19.531,67.383,52.734,13.184,0
1512883183.339,71.289,-18.555,71.777,44.922,32.227,0
1512883183.343,86.426,-8.789,62.988,45.898,21.484,0
1512883183.347,79.590,-15.625,49.316,33.691,-8.789,0
1512883183.351,67.871,-12.695,56.152,26.855,-27.344,0
1512883183.355,84.961,-15.625,65.918,27.344,28.809,0
1512883183.359,66.406,-19.043,67.383,36.133,33.203,0
1512883183.363,58.105,-9.277,65.430,29.297,-19.043,0
1512883183.367,53.711,-10.742,64.941,21.973,-7.812,0
1512883183.371,38.086,-15.625,52.246,12.207,43.457,0
1512883183.375,53.711,-19.531,48.828,15.137,31.738,0
1512883183.379,60.059,-15.137,40.039,5.859,-31.738,0
1512883183.382,69.336,-0.488,37.109,0.488,-7.324,0
1512883183.386,59.082,5.859,40.039,-3.418,17.578,0
1512883183.390,62.988,4.395,43.945,-2.930,28.320,0
1512883183.394,77.148,2.930,47.363,21.484,32.227,0
1512883183.398,75.684,-4.395,41.016,42.969,31.250,0
1512883183.402,79.102,-1.465,48.340,54.199,18.066,0
1512883183.406,80.566,11.719,58.105,27.344,55.176,0
1512883183.410,72.754,-9.766,68.848,1.953,41.992,0
1512883183.414,76.660,-21.973,75.195,8.301,15.137,0
1512883183.418,74.219,-3.906,71.777,15.625,5.859,0
1512883183.421,42.969,9.277,68.848,23.926,-19.531,0
1512883183.425,44.922,21.973,74.707,17.578,24.902,0
1512883183.429,41.992,20.508,71.289,0.000,47.363,0
1512883183.433,28.320,11.719,65.430,-2.930,21.484,0
1512883183.437,25.879,7.324,72.266,-1.465,10.254,0
1512883183.441,27.344,1.465,79.102,-11.719,-2.441,0
1512883183.445,42.969,3.906,81.543,-9.277,-36.621,0
1512883183.449,49.316,16.113,85.449,12.207,-12.695,0
1512883183.453,40.039,7.324,77.148,13.184,-45.898,0
1512883183.457,41.992,3.906,63.965,2.441,-73.242,0
1512883183.461,46.387,18.555,71.777,2.930,5.859,0
1512883183.464,47.363,19.531,85.938,-0.977,14.648,0
1512883183.468,53.711,3.418,89.844,8.301,1.953,0
1512883183.472,33.691,-10.254,75.684,-1.465,39.062,0
1512883183.476,10.742,0.977,63.965,-30.273,48.828,0
1512883183.480,12.207,12.207,72.266,-20.508,2.930,0
1512883183.484,17.090,25.879,79.590,-1.953,-6.348,0
1512883183.488,30.762,36.621,90.332,-2.441,-29.297,0
1512883183.492,47.852,32.715,99.121,-3.418,-86.426,0
1512883183.496,56.152,20.996,98.633,-3.418,-73.242,0
1512883183.500,49.316,16.602,96.680,-0.488,-48.828,0
1512883183.504,42.480,10.742,92.773,1.465,-10.742,0
1512883183.507,47.363,14.160,92.773,-17.090,33.691,0
1512883183.511,51.758,24.902,90.820,-22.949,-10.254,0
1512883183.515,51.270,9.766,94.238,-5.859,-67.871,0
1512883183.519,74.707,4.395,94.238,23.926,-19.043,0
1512883183.523,80.078,4.883,94.727,26.855,57.617,0
1512883183.527,62.500,-5.371,91.797,19.531,46.875,0
1512883183.531,69.824,9.277,86.914,10.742,29.785,0
1512883183.535,72.266,17.578,95.215,-4.883,13.672,0
1512883183.539,69.336,-10.254,109.863,-13.184,-20.996,0
1512883183.543,74.219,-3.418,113.770,-5.371,-45.898,0
1512883183.546,67.871,24.414,119.629,7.324,-38.086,0
1512883183.550,73.242,26.855,128.418,-6.836,-14.648,0
1512883183.554,84.473,16.602,134.766,-15.625,61.035,0
1512883183.558,86.426,-1.465,137.207,5.371,4.395,0
1512883183.562,71.289,-14.648,131.348,26.367,-72.754,0
1512883183.566,58.594,-5.371,128.418,15.625,-30.273,0
1512883183.570,73.730,1.953,128.418,-0.488,-41.016,0
1512883183.574,92.773,11.719,139.648,14.160,-20.996,0
1512883183.578,89.844,19.043,132.324,16.602,35.156,0
1512883183.582,73.242,-8.301,123.535,14.648,36.133,0
1512883183.586,69.824,-29.785,128.906,8.789,50.293,0
1512883183.589,86.426,-8.789,120.605,7.812,47.363,0
1512883183.593,94.238,2.930,116.699,11.230,17.578,0
1512883183.597,79.102,-5.859,122.559,10.742,7.812,0
1512883183.601,72.754,0.488,135.742,-13.672,27.344,0
1512883183.605,80.078,8.789,131.348,-42.969,79.590,0
1512883183.609,82.520,5.371,123.535,-33.203,48.828,0
1512883183.613,80.078,-0.977,106.445,-19.043,-19.531,0
1512883183.617,94.238,10.254,90.332,-5.859,10.254,0
1512883183.621,98.633,9.277,104.492,-6.348,5.371,0
1512883183.625,97.168,-2.441,124.512,-8.789,-23.438,0
1512883183.629,96.680,2.930,132.324,-8.789,-14.648,0
1512883183.632,104.004,7.324,132.324,-15.137,28.809,0
1512883183.636,116.211,4.883,115.234,-1.465,-17.578,5
1512883183.640,116.699,4.883,99.121,-0.977,-8.301,0
1512883183.644,131.836,2.441,99.609,11.719,63.477,0
1512883183.648,160.645,-12.207,107.422,36.133,18.066,0
1512883183.652,168.457,0.000,107.910,39.551,-11.719,0
1512883183.656,149.902,31.738,99.121,49.805,-6.348,0
1512883183.660,153.809,34.668,103.516,67.871,21.973,0
1512883183.664,166.016,11.230,100.098,76.172,15.137,0
1512883183.668,151.367,7.324,92.773,70.312,-18.555,0
1512883183.671,150.391,8.789,90.820,42.480,-21.973,0
1512883183.675,171.875,10.254,66.895,5.859,1.953,0
1512883183.679,193.359,19.531,56.152,-1.465,38.574,0
1512883183.683,201.660,20.996,68.359,20.508,109.863,0
1512883183.687,182.129,14.160,78.125,39.551,60.059,0
1512883183.691,162.598,8.301,78.613,29.785,-22.461,0
1512883183.695,177.734,14.648,73.242,17.578,36.133,0
1512883183.699,188.477,13.184,70.312,22.949,80.078,0
1512883183.703,173.828,6.348,78.613,11.719,60.059,0
1512883183.707,167.480,0.488,73.242,12.207,-52.246,0
1512883183.711,157.715,-8.789,82.031,21.973,-76.172,0
1512883183.714,157.715,7.812,88.379,-8.789,6.836,0
1512883183.718,179.199,31.250,78.125,-8.789,23.438,0
1512883183.722,180.176,31.738,75.684,22.461,13.184,0
1512883183.726,164.551,13.672,62.988,16.602,2.441,0
1512883183.730,167.480,4.395,66.895,17.090,28.320,0
1512883183.734,175.781,3.418,74.219,29.297,11.230,0
1512883183.738,184.570,0.488,74.219,37.109,5.859,0
1512883183.742,191.895,-17.090,75.195,44.434,23.926,0
1512883183.746,202.637,-1.465,78.613,55.664,22.461,0
1512883183.750,199.219,32.715,75.195,71.777,5.859,0
1512883183.754,194.336,28.809,67.383,72.754,7.324,0
1512883183.757,200.195,32.227,68.848,58.105,23.926,0
1512883183.761,200.195,21.973,63.477,52.734,52.246,0
1512883183.765,197.266,7.324,60.547,61.523,38.086,0
1512883183.769,184.082,14.160,62.012,65.430,6.348,0
1512883183.773,183.105,19.531,61.523,74.219,19.531,0
1512883183.777,190.918,24.902,59.082,90.820,9.277,0
1512883183.781,174.316,28.809,35.645,63.965,22.949,0
1512883183.785,160.156,14.160,22.461,32.227,9.766,0
1512883183.789,144.531,-19.043,29.785,23.926,22.461,0
1512883183.793,139.160,-1.953,25.879,31.738,51.270,0
1512883183.796,152.832,21.484,27.344,49.316,24.414,0
1512883183.800,143.066,27.344,38.574,63.477,3.418,0
1512883183.804,112.305,27.344,31.738,53.711,-5.371,0
1512883183.808,99.609,9.766,19.043,49.805,17.090,0
1512883183.812,108.398,0.000,19.531,46.875,44.434,0
1512883183.816,119.629,15.625,18.555,16.602,26.367,0
1512883183.820,125.488,30.273,22.461,-8.301,-15.137,0
1512883183.824,123.535,37.109,25.391,-0.977,-8.789,0
1512883183.828,113.770,41.992,21.484,17.090,-17.578,0
1512883183.832,123.535,42.969,24.414,34.668,-6.348,0
1512883183.836,119.141,17.090,19.531,41.992,37.598,0
1512883183.839,99.609,2.441,12.207,23.926,9.277,0
1512883183.843,116.211,23.438,19.043,31.250,28.320,0
1512883183.847,110.840,35.645,25.391,35.645,60.547,0
1512883183.851,82.031,23.926,30.273,17.090,50.781,0
1512883183.855,82.031,19.531,25.879,10.742,11.719,0
1512883183.859,83.008,18.066,20.508,12.695,25.879,0
1512883183.863,66.406,14.160,12.207,8.789,64.941,0
1512883183.867,69.824,21.484,10.742,2.930,45.410,0
1512883183.871,71.777,12.695,13.672,6.348,18.555,0
1512883183.875,58.594,19.531,4.883,-1.953,7.324,0
1512883183.879,60.547,29.297,7.812,-6.836,64.941,0
1512883183.882,68.848,17.090,8.301,5.859,48.340,0
1512883183.886,69.824,19.043,4.883,4.883,-15.137,0
1512883183.890,55.176,28.320,9.277,2.930,42.480,0
1512883183.894,42.969,31.250,8.789,-5.371,53.711,0
1512883183.898,49.805,15.625,8.301,3.418,18.066,0
1512883183.902,57.617,3.418,16.602,11.230,43.945,0
1512883183.906,43.945,22.949,21.973,13.184,31.250,0
1512883183.910,35.156,32.227,10.254,28.809,-30.273,0
1512883183.914,46.387,40.527,19.043,31.738,5.859,0
1512883183.918,62.500,39.551,30.273,31.250,-6.836,0
1512883183.921,72.266,25.391,6.348,17.090,-31.738,0
1512883183.925,81.543,15.625,-0.488,-13.672,-1.465,0
1512883183.929,75.195,12.695,6.348,-22.461,-14.160,0
1512883183.933,66.895,31.738,13.672,-24.902,-11.230,0
1512883183.937,65.430,37.109,18.066,-16.602,11.230,0
1512883183.941,63.965,34.180,20.508,0.488,13.672,0
1512883183.945,72.754,30.762,20.020,7.324,-11.719,0
1512883183.949,81.055,29.297,19.043,18.066,34.668,0
1512883183.953,76.660,31.250,25.879,25.879,18.555,0
1512883183.957,69.336,29.785,19.531,30.273,34.180,0
1512883183.961,65.430,36.133,22.949,31.738,67.383,0
1512883183.964,75.684,30.273,23.438,33.203,21.484,0
1512883183.968,73.730,14.648,16.113,32.715,7.812,0
1512883183.972,75.684,9.277,33.691,33.203,-19.043,0
1512883183.976,74.219,17.090,33.203,25.879,-34.668,0
1512883183.980,61.523,32.715,36.133,21.973,30.273,0
1512883183.984,35.645,31.250,36.621,11.719,77.637,0
1512883183.988,27.344,30.273,25.879,6.836,51.758,0
1512883183.992,43.457,30.762,30.273,6.348,42.969,0
1512883183.996,32.715,27.832,28.809,-11.230,15.137,0
1512883184.000,32.227,28.320,27.832,-7.324,9.277,0
1512883184.004,43.457,23.438,34.180,17.578,40.527,0
1512883184.007,45.410,24.414,30.273,8.789,29.297,0
1512883184.011,40.527,31.738,23.438,-4.395,11.719,0
1512883184.015,32.715,30.273,23.438,8.301,-7.812,0
1512883184.019,39.551,12.207,25.391,20.996,-5.371,0
1512883184.023,53.711,14.648,33.691,21.484,0.977,0
1512883184.027,62.012,35.645,41.504,12.695,14.160,0
1512883184.031,53.223,29.785,37.598,3.906,5.371,0
1512883184.035,48.340,19.043,27.344,13.672,-18.555,0
1512883184.039,58.594,18.555,35.156,29.297,44.434,0
1512883184.043,71.289,13.184,37.598,46.875,48.828,0
1512883184.046,61.035,1.953,35.645,48.828,16.602,0
1512883184.050,53.223,11.719,39.062,37.598,81.055,0
1512883184.054,57.617,22.461,30.273,35.156,64.453,0
1512883184.058,55.176,10.742,28.809,38.086,43.945,0
1512883184.062,44.922,9.766,41.504,40.039,40.039,0
1512883184.066,24.414,14.648,42.969,24.414,8.301,0
1512883184.070,19.043,18.555,33.691,14.160,21.484,0
1512883184.074,19.531,21.973,35.645,11.230,48.340,0
1512883184.078,15.137,16.602,38.086,-2.441,76.660,0
1512883184.082,11.230,8.789,37.109,-0.977,62.012,0
1512883184.086,12.695,7.324,38.574,5.371,36.133,0
1512883184.089,22.461,10.742,36.621,6.348,-20.020,0
1512883184.093,25.391,11.719,41.992,20.020,-30.273,0
1512883184.097,39.551,14.648,51.270,36.133,19.043,0
1512883184.101,42.969,10.254,61.523,40.527,16.113,0
1512883184.105,43.457,-6.348,55.176,61.523,-0.488,0
1512883184.109,61.523,-12.695,51.270,60.547,2.930,0
1512883184.113,88.379,0.977,50.781,35.156,-0.488,0
1512883184.117,104.980,13.672,47.363,31.738,20.996,0
1512883184.121,110.352,20.020,49.316,48.340,-3.906,0
1512883184.125,116.699,14.648,20.996,38.086,-23.926,0
1512883184.129,129.395,22.461,25.391,30.273,-12.207,0
1512883184.132,127.930,13.672,52.734,34.180,3.418,0
1512883184.136,148.438,4.395,69.824,63.965,16.113,0
1512883184.140,148.438,10.742,74.707,65.430,34.180,0
1512883184.144,123.047,6.348,53.223,22.461,44.434,0
1512883184.148,130.371,18.555,50.781,48.828,35.156,0
1512883184.152,120.117,21.484,52.246,66.406,20.996,0
1512883184.156,99.121,11.719,40.039,35.645,-31.250,0
1512883184.160,97.656,3.906,50.293,34.180,-32.227,0
1512883184.164,120.605,4.883,62.012,34.180,23.926,0
1512883184.168,132.324,16.602,57.129,36.621,10.254,0
1512883184.171,103.516,11.719,51.270,30.273,8.301,0
1512883184.175,86.426,11.719,41.504,11.719,31.250,0
1512883184.179,81.055,21.973,41.992,19.531,9.766,0
1512883184.183,77.148,29.785,43.457,17.578,40.527,0
1512883184.187,79.102,20.996,54.199,31.738,76.172,0
1512883184.191,78.613,6.836,61.523,32.227,63.477,0
1512883184.195,73.730,16.113,54.688,4.883,44.434,0
1512883184.199,74.707,19.531,44.434,22.461,-12.695,0
1512883184.203,83.984,23.926,45.898,24.902,8.789,0
1512883184.207,91.309,26.855,57.617,18.066,50.293,0
1512883184.211,82.031,26.855,50.781,22.949,42.480,0
1512883184.214,94.727,31.738,51.758,20.996,67.871,0
1512883184.218,113.770,21.973,57.129,21.973,49.805,0
1512883184.222,121.094,29.297,54.199,42.969,-11.719,0
1512883184.226,106.934,33.203,46.875,47.363,-3.418,0
1512883184.230,89.355,30.762,44.434,38.574,15.137,0
1512883184.234,97.656,37.109,53.223,24.414,24.414,0
1512883184.238,114.746,23.926,45.898,27.344,23.438,0
1512883184.242,115.234,19.531,37.598,38.086,42.480,0
1512883184.246,111.328,27.344,47.363,31.250,12.695,0
1512883184.250,104.980,34.180,57.617,34.180,-30.762,0
1512883184.254,87.402,32.715,53.711,28.320,-3.906,0
1512883184.257,85.938,25.391,46.875,40.039,-32.227,0
1512883184.261,68.359,26.855,44.922,43.945,-29.297,0
1512883184.265,62.012,27.832,52.246,21.484,-20.508,0
1512883184.269,83.496,18.555,64.453,9.277,-12.207,0
1512883184.273,71.289,29.297,63.965,1.953,22.949,0
1512883184.277,47.363,30.273,61.035,4.883,32.715,0
1512883184.281,51.270,20.020,60.059,12.695,-7.324,0
1512883184.285,50.781,26.855,61.035,24.902,-33.203,0
1512883184.289,51.270,28.809,60.547,31.250,-47.852,0
1512883184.293,51.270,16.113,57.617,25.879,-8.789,0
1512883184.296,48.828,6.348,63.477,20.996,18.555,0
1512883184.300,63.477,15.625,71.777,33.203,-12.695,0
1512883184.304,62.500,36.133,67.383,50.781,25.879,0
1512883184.308,73.242,35.156,62.012,61.523,44.922,0
1512883184.312,107.910,35.645,67.383,68.359,-19.531,0
1512883184.316,109.375,43.457,62.500,43.457,-47.363,0
1512883184.320,105.957,41.504,50.293,39.551,-38.086,0
1512883184.324,121.582,41.992,59.570,68.359,-25.879,0
1512883184.328,123.047,30.273,71.777,55.176,-16.113,0
1512883184.332,125.488,16.602,75.684,52.734,-13.184,0
1512883184.336,123.535,11.230,77.637,39.551,-22.461,0
1512883184.339,120.605,25.879,69.824,29.297,9.766,0
1512883184.343,110.840,32.715,61.523,53.223,72.266,0
1512883184.347,98.633,16.113,64.941,63.965,22.949,0
1512883184.351,114.746,22.949,68.359,44.922,67.871,0
1512883184.355,118.652,35.645,66.895,30.273,94.238,0
1512883184.359,111.816,28.809,59.570,41.504,7.324,0
1512883184.363,109.375,24.902,72.266,68.848,-11.230,0
1512883184.367,104.492,23.438,85.449,83.984,-9.766,0
1512883184.371,99.609,15.137,70.801,69.336,-10.742,0
1512883184.375,91.309,15.625,69.824,59.570,-20.508,0
1512883184.379,82.520,13.672,75.195,65.430,-20.508,0
1512883184.382,94.238,21.973,67.383,70.312,27.344,0
1512883184.386,103.516,24.902,62.500,64.453,46.387,0
1512883184.390,97.656,23.926,63.965,70.801,16.113,0
1512883184.394,93.262,30.273,65.918,72.754,-20.996,0
1512883184.398,94.238,23.926,61.035,63.965,-41.016,0
1512883184.402,94.238,21.484,59.570,63.965,-20.020,0
1512883184.406,99.121,17.090,73.242,76.172,29.785,0
1512883184.410,103.027,7.812,72.266,68.848,24.902,0
1512883184.414,116.211,-9.766,49.316,59.082,25.391,0
1512883184.418,117.188,-7.812,53.223,69.336,8.301,0
1512883184.421,117.188,33.203,70.801,83.984,41.016,0
1512883184.425,132.324,41.992,66.406,100.586,63.477,0
1512883184.429,127.441,30.273,60.059,101.562,23.438,0
1512883184.433,126.465,31.250,65.918,111.328,15.625,0
1512883184.437,136.230,16.602,66.406,103.027,29.297,0
1512883184.441,153.320,10.742,62.988,67.383,17.090,0
1512883184.445,164.062,23.438,64.453,47.363,4.395,0
1512883184.449,163.574,25.391,66.406,48.828,-0.488,0
1512883184.453,154.785,12.207,61.523,68.848,42.969,0
1512883184.457,157.715,3.906,62.012,95.703,93.262,0
1512883184.461,163.574,10.254,82.520,114.746,73.242,0
1512883184.464,156.738,12.207,82.520,109.375,33.203,0
1512883184.468,160.156,9.277,63.477,95.703,0.488,0
1512883184.472,168.457,10.742,62.988,102.539,32.715,0
1512883184.476,166.992,-8.789,65.918,120.117,11.230,0
1512883184.480,168.945,-11.230,73.242,129.395,-23.926,0
1512883184.484,164.062,10.254,75.195,131.348,-9.277,0
1512883184.488,161.133,6.348,76.172,135.742,18.066,0
1512883184.492,184.082,0.977,79.102,153.809,75.195,0
1512883184.496,193.848,-5.371,76.172,158.691,52.734,0
1512883184.500,199.707,-20.020,84.961,145.996,38.574,0
1512883184.504,204.102,-12.695,90.332,149.414,-7.812,0
1512883184.507,207.520,-9.277,90.332,174.805,4.883,0
1512883184.511,207.520,-17.578,97.168,187.012,76.660,0
1512883184.515,204.590,-10.254,83.496,164.551,89.844,0
1512883184.519,195.801,-6.836,72.266,163.574,43.945,0
1512883184.523,181.152,-9.277,81.055,182.617,33.203,0
1512883184.527,184.082,-27.832,87.402,175.781,62.988,0
1512883184.531,187.012,-28.320,86.914,161.621,6.348,0
1512883184.535,180.176,-9.277,69.824,133.789,-12.207,0
1512883184.539,181.641,-4.883,68.359,112.305,24.902,0
1512883184.543,184.570,0.000,91.309,124.512,69.336,0
1512883184.546,177.246,-6.348,91.797,133.301,112.793,0
1512883184.550,187.988,-20.508,82.031,138.672,88.867,0
1512883184.554,185.547,-17.578,85.938,140.137,51.270,0
1512883184.558,173.828,-15.625,84.473,138.672,35.156,0
1512883184.562,176.758,-14.648,77.637,134.766,17.090,0
1512883184.566,184.082,0.488,80.566,136.230,47.363,0
1512883184.570,181.152,0.488,79.590,138.184,41.992,0
1512883184.574,178.711,-6.836,81.543,128.906,8.789,0
1512883184.578,179.199,-11.230,83.008,156.250,-12.207,0
1512883184.582,178.223,-13.184,77.148,172.852,-14.160,0
1512883184.586,172.852,-23.926,80.078,154.785,27.832,0
1512883184.589,187.500,-19.531,83.496,165.039,26.855,0
1512883184.593,198.730,-7.324,88.379,157.227,13.184,0
1512883184.597,186.523,-2.930,83.008,140.625,29.297,0
1512883184.601,175.293,14.648,86.426,143.555,19.043,0
1512883184.605,165.039,5.859,86.426,154.785,13.672,0
1512883184.609,151.367,-13.672,72.754,156.250,43.457,0
1512883184.613,142.578,-3.418,64.453,140.625,42.480,0
1512883184.617,143.555,3.906,69.336,121.094,28.809,0
1512883184.621,140.625,3.906,78.125,114.746,33.203,0
1512883184.625,123.047,1.953,75.684,131.348,40.039,0
1512883184.629,112.793,-3.906,70.801,123.047,54.199,0
1512883184.632,108.398,-20.020,71.777,95.703,1.465,0
1512883184.636,109.375,-12.695,87.891,82.031,-33.691,0
1512883184.640,109.863,1.953,93.262,82.520,28.320,0
1512883184.644,93.262,-0.488,79.590,85.449,42.969,0
1512883184.648,101.562,15.625,79.102,90.820,17.090,0
1512883184.652,107.910,2.930,74.707,86.426,30.273,0
1512883184.656,90.332,-17.090,72.266,83.008,40.527,0
1512883184.660,93.262,15.137,78.613,90.820,41.016,0
1512883184.664,91.797,25.391,79.102,84.473,-1.465,0
1512883184.668,88.379,12.207,72.266,80.566,0.000,0
1512883184.671,85.449,12.695,70.801,90.332,31.738,0
1512883184.675,78.125,4.883,68.848,91.797,-4.395,0
1512883184.679,91.309,10.254,69.824,84.961,-11.230,0
1512883184.683,96.680,19.531,70.801,90.332,20.508,0
1512883184.687,102.539,20.020,72.754,97.656,27.344,0
1512883184.691,115.723,14.160,79.102,99.609,11.719,0
1512883184.695,123.047,4.883,87.402,102.051,-1.953,0
1512883184.699,118.164,14.648,90.332,109.375,-3.418,0
1512883184.703,106.445,22.949,73.730,93.750,48.340,0
1512883184.707,93.750,15.137,67.383,80.078,80.078,0
1512883184.711,96.191,-1.953,69.824,87.402,52.246,0
1512883184.714,110.352,3.418,72.754,89.844,40.039,0
1512883184.718,106.934,14.648,75.684,93.262,33.203,0
1512883184.722,94.727,20.020,72.266,85.449,16.113,0
1512883184.726,83.984,26.367,70.801,58.105,12.207,0
1512883184.730,80.078,15.625,75.195,61.035,45.410,0
1512883184.734,78.613,10.254,82.031,82.031,15.625,0
1512883184.738,62.500,-5.371,83.496,80.566,28.320,0
1512883184.742,58.105,-17.578,80.078,63.965,23.438,0
1512883184.746,62.500,-1.953,70.312,42.969,46.387,0
1512883184.750,57.129,1.953,62.500,44.434,23.926,0
1512883184.754,65.430,3.418,70.312,51.758,-19.531,0
1512883184.757,68.848,16.602,78.613,61.523,16.113,0
1512883184.761,63.477,21.973,89.844,54.199,16.113,0
1512883184.765,64.453,18.066,86.426,73.242,79.102,0
1512883184.769,70.801,7.324,69.336,76.660,95.703,0
1512883184.773,82.520,4.883,72.266,57.617,34.668,0
1512883184.777,82.520,8.301,73.242,74.219,-1.465,0
1512883184.781,71.289,6.836,68.848,68.359,-10.742,0
1512883184.785,63.965,5.371,73.730,63.965,-19.043,0
1512883184.789,75.195,-2.930,76.172,67.871,12.207,0
1512883184.793,73.730,-6.836,72.266,54.199,29.785,0
1512883184.796,56.641,-7.324,66.406,54.199,21.973,0
1512883184.800,53.223,6.348,64.453,66.406,17.090,0
1512883184.804,70.801,29.297,63.477,66.895,34.668,0
1512883184.808,75.684,27.344,62.500,60.059,34.668,0
1512883184.812,55.664,17.090,62.500,60.547,-7.324,0
1512883184.816,50.781,24.414,62.988,54.688,58.594,0
1512883184.820,48.340,27.344,71.777,49.805,99.121,0
1512883184.824,44.434,16.113,65.430,60.059,44.434,0
1512883184.828,44.922,14.160,47.852,53.223,47.363,0
1512883184.832,39.551,12.695,49.316,38.086,33.203,0
1512883184.836,37.109,18.555,63.477,32.227,28.320,0
1512883184.839,37.109,22.461,72.754,32.227,31.738,0
1512883184.843,27.344,11.719,71.289,42.969,-2.930,0
1512883184.847,42.969,22.461,71.289,51.758,40.039,0
1512883184.851,49.316,37.598,69.824,59.082,71.777,0
1512883184.855,37.109,20.508,65.918,53.223,38.086,0
1512883184.859,44.434,13.184,69.336,46.875,15.625,0
1512883184.863,41.016,20.020,65.918,36.133,31.738,0
1512883184.867,23.926,19.043,64.941,38.574,53.223,0
1512883184.871,23.438,11.719,68.848,61.035,26.367,0
1512883184.875,30.273,5.859,63.965,76.172,8.789,0
1512883184.879,39.062,11.719,52.734,37.109,23.438,0
1512883184.882,50.781,14.648,50.781,5.859,13.184,0
1512883184.886,47.852,15.137,62.500,23.438,18.066,0
1512883184.890,49.316,6.348,59.570,41.016,18.066,0
1512883184.894,50.781,0.977,44.922,40.527,13.184,0
1512883184.898,32.227,7.812,41.016,29.785,25.391,0
1512883184.902,20.996,12.207,35.645,38.574,23.438,0
1512883184.906,13.184,6.348,37.109,51.270,18.555,0
1512883184.910,20.020,-3.418,48.828,55.176,5.371,0
1512883184.914,27.344,-7.324,52.246,36.621,7.324,0
1512883184.918,30.762,-10.742,52.246,39.062,36.133,0
1512883184.921,34.668,-5.371,50.293,32.227,86.914,0
1512883184.925,14.160,12.207,37.598,24.414,70.312,0
1512883184.929,10.742,12.695,44.434,31.250,71.777,0
1512883184.933,27.832,1.465,55.176,26.367,43.457,0
1512883184.937,38.574,3.906,45.898,34.668,19.043,0
1512883184.941,43.945,2.441,41.016,42.969,50.293,0
1512883184.945,36.621,-6.836,34.668,33.691,67.383,0
1512883184.949,26.367,-6.836,31.738,32.715,52.246,0
1512883184.953,21.484,-3.418,33.691,25.879,12.695,0
1512883184.957,22.461,12.207,36.621,21.484,10.742,0
1512883184.961,35.156,18.066,41.992,24.902,84.473,0
1512883184.964,50.293,2.930,36.133,24.902,64.941,0
1512883184.968,56.641,-0.977,30.273,39.551,48.828,0
1512883184.972,48.828,-4.883,40.039,53.223,24.414,0
1512883184.976,45.898,2.441,48.340,50.781,-3.418,0
1512883184.980,52.246,16.602,42.480,26.855,19.531,0
1512883184.984,52.246,13.672,38.086,16.113,33.203,0
1512883184.988,40.039,0.977,41.016,41.992,41.016,0
1512883184.992,36.133,-3.418,48.340,52.734,51.758,0
1512883184.996,43.457,-5.371,68.359,35.645,16.602,0
1512883185.000,36.133,-31.738,52.246,0.488,-17.578,0
1512883185.004,20.020,-17.090,34.668,-5.859,-9.277,0
1512883185.007,12.207,20.020,46.387,18.066,6.836,0
1512883185.011,12.207,15.137,40.527,25.391,35.156,0
1512883185.015,8.301,-3.906,39.062,12.695,47.852,0
1512883185.019,3.906,-11.230,43.457,14.648,21.973,0
1512883185.023,0.977,5.859,40.039,12.207,1.465,0
1512883185.027,12.695,16.602,44.434,8.789,28.809,0
1512883185.031,19.531,2.441,43.945,29.785,48.828,0
1512883185.035,20.508,18.066,47.363,49.316,8.301,0
1512883185.039,30.762,20.020,55.176,42.480,4.883,0
1512883185.043,24.902,2.930,41.992,25.391,40.527,0
1512883185.046,24.414,6.836,37.109,17.090,51.758,0
1512883185.050,35.645,3.418,45.410,19.043,46.387,0
1512883185.054,26.855,11.719,55.664,9.277,18.066,0
1512883185.058,38.574,25.879,65.430,27.832,29.297,0
1512883185.062,41.992,12.207,55.664,43.457,98.145,0
1512883185.066,39.062,4.883,54.688,48.828,70.312,0
1512883185.070,47.363,15.137,62.012,48.828,23.438,0
1512883185.074,42.480,17.578,67.383,45.410,25.391,0
1512883185.078,42.480,17.090,62.500,43.457,19.043,0
1512883185.082,36.133,3.906,47.852,39.062,5.859,0
1512883185.086,20.508,0.977,48.828,48.828,12.207,0
1512883185.089,15.625,11.230,58.105,49.316,49.316,0
1512883185.093,32.715,18.555,57.129,51.270,44.922,0
1512883185.097,38.086,27.344,54.688,56.152,27.832,0
1512883185.101,27.344,20.020,55.664,42.480,19.531,0
1512883185.105,21.973,10.742,56.641,31.250,31.738,0
1512883185.109,17.578,12.207,51.270,33.691,54.688,0
1512883185.113,9.766,13.184,57.617,27.832,57.617,0
1512883185.117,14.160,20.020,61.035,27.344,61.035,0
1512883185.121,13.672,14.648,49.805,32.715,99.609,0
1512883185.125,5.859,7.812,50.781,44.922,62.012,0
1512883185.129,6.348,13.672,52.246,59.082,-4.883,0
1512883185.132,8.789,16.113,48.828,39.062,20.508,0
1512883185.136,10.742,23.926,49.805,30.273,32.227,0
1512883185.140,10.742,15.625,54.199,18.066,4.395,0
1512883185.144,-9.766,15.625,43.457,-1.465,9.277,0
1512883185.148,-20.020,27.344,36.133,7.812,21.484,0
1512883185.152,-6.348,34.668,40.527,21.484,8.789,0
1512883185.156,-23.926,41.016,33.203,5.371,13.672,0
1512883185.160,-36.621,37.598,27.344,5.371,62.012,0
1512883185.164,-30.273,52.734,36.133,2.930,83.984,0
1512883185.168,-38.086,63.477,28.809,-41.504,12.695,0
1512883185.171,-54.688,54.688,13.672,-75.195,-5.371,0
1512883185.175,-89.844,58.105,4.395,-96.680,49.805,0
1512883185.179,-114.258,67.383,6.836,-97.656,30.762,0
1512883185.183,-107.422,88.867,4.883,-98.145,28.809,0
1512883185.187,-120.117,93.750,-8.301,-121.582,32.715,0
1512883185.191,-144.043,93.262,-9.766,-132.324,29.785,0
1512883185.195,-151.855,108.887,-12.207,-138.184,37.109,0
1512883185.199,-149.414,88.379,-23.438,-156.738,47.852,0
1512883185.203,-164.062,89.355,-24.414,-170.410,35.156,0
1512883185.207,-179.199,114.746,-24.414,-178.711,33.691,0
1512883185.211,-190.918,108.887,-30.273,-187.988,47.852,0
1512883185.214,-201.660,101.562,-38.086,-196.777,42.969,0
1512883185.218,-191.895,121.094,-39.062,-188.477,41.992,0
1512883185.222,-175.293,120.117,-38.574,-200.195,53.223,0
1512883185.226,-179.688,114.746,-41.504,-218.262,53.223,0
1512883185.230,-179.199,124.023,-35.156,-206.055,23.438,0
1512883185.234,-147.949,107.910,-17.578,-170.898,31.738,0
1512883185.238,-132.812,79.102,-20.996,-151.855,121.094,0
1512883185.242,-119.629,83.984,-29.785,-143.066,83.496,0
1512883185.246,-100.586,90.332,-19.043,-116.211,8.789,0
1512883185.250,-82.031,98.633,-13.184,-96.191,16.602,0
1512883185.254,-47.852,109.375,-11.719,-69.824,8.301,0
1512883185.257,-38.574,95.703,-19.531,-56.152,32.227,0
1512883185.261,-37.109,98.145,-19.043,-57.617,46.387,0
1512883185.265,-11.230,83.008,-10.254,-35.156,29.785,0
1512883185.269,2.441,59.570,-1.953,-30.762,20.996,0
1512883185.273,1.953,56.641,-4.395,-20.996,42.969,0
1512883185.277,18.555,33.203,-6.836,3.906,59.570,0
1512883185.281,30.762,18.066,5.859,19.531,44.922,0
1512883185.285,57.129,16.602,18.066,22.949,41.504,0
1512883185.289,83.984,27.832,14.160,29.297,20.020,0
1512883185.293,62.988,57.129,14.648,47.852,15.625,0
1512883185.296,65.430,49.316,22.949,62.012,42.969,0
1512883185.300,96.680,23.926,35.645,85.938,56.641,0
1512883185.304,115.723,11.230,52.734,95.215,-5.859,0
1512883185.308,117.676,-5.859,50.781,98.633,-37.109,0
1512883185.312,125.000,-14.648,40.039,125.488,75.195,0
1512883185.316,128.418,-9.277,36.133,111.328,107.422,0
1512883185.320,135.742,-10.742,37.109,78.125,48.340,0
1512883185.324,151.855,-4.883,45.898,80.078,41.992,0
1512883185.328,158.691,9.766,42.969,85.449,48.828,0
1512883185.332,169.434,8.301,45.410,104.004,22.949,0
1512883185.336,168.945,-0.977,51.270,129.883,15.625,0
1512883185.339,172.852,-8.301,54.199,135.254,45.410,0
1512883185.343,165.527,-5.371,55.176,134.277,53.223,0
1512883185.347,156.738,-18.066,53.711,124.512,24.414,0
1512883185.351,150.391,-24.414,54.199,115.234,18.555,0
1512883185.355,146.484,-18.066,59.082,130.371,41.992,0
1512883185.359,137.207,-10.254,68.359,133.789,41.992,0
1512883185.363,144.043,-10.254,63.477,113.281,47.852,0
1512883185.367,147.949,-24.414,59.570,119.629,40.039,0
1512883185.371,138.672,-15.625,69.336,123.535,37.598,0
1512883185.375,154.785,-14.160,74.219,118.164,64.453,0
1512883185.379,151.855,-25.879,69.336,122.559,71.777,0
1512883185.382,128.906,-27.344,65.918,105.957,41.992,0
1512883185.386,118.164,-31.250,64.941,105.957,30.273,0
1512883185.390,118.164,-20.020,69.336,122.070,68.848,0
1512883185.394,118.164,-17.578,72.754,123.047,56.641,0
1512883185.398,128.906,-28.320,66.406,134.766,19.043,0
1512883185.402,114.258,-31.738,62.988,121.582,3.906,0
1512883185.406,112.793,-31.738,65.430,116.699,19.531,0
1512883185.410,130.859,-19.531,73.730,114.746,12.207,0
1512883185.414,115.234,-13.184,78.125,89.355,1.465,0
1512883185.418,115.723,-35.156,69.336,91.309,37.109,0
1512883185.421,99.609,-23.926,64.941,91.797,31.738,0
1512883185.425,89.355,-11.230,65.430,92.773,-8.789,0
1512883185.429,103.027,-30.762,61.035,90.820,6.836,0
1512883185.433,105.469,-19.531,66.895,103.516,39.062,0
1512883185.437,103.027,-7.812,68.848,126.953,51.270,0
1512883185.441,102.051,-12.695,66.406,106.445,58.594,0
1512883185.445,102.051,-10.742,71.777,77.148,43.457,0
1512883185.449,117.188,-15.137,81.543,68.359,44.922,0
1512883185.453,135.254,-42.969,73.730,74.219,62.500,0
1512883185.457,126.953,-35.156,59.570,102.051,43.457,0
1512883185.461,114.258,-4.395,70.801,81.543,25.391,0
1512883185.464,120.117,4.395,65.918,72.754,42.969,0
1512883185.468,125.000,3.418,49.805,109.375,28.809,0
1512883185.472,109.375,-13.672,52.734,94.727,20.996,0
1512883185.476,93.262,-0.977,56.152,69.824,73.242,0
1512883185.480,104.004,20.508,45.410,73.730,97.168,0
1512883185.484,110.840,19.531,55.176,65.918,68.359,0
1512883185.488,103.027,13.184,91.797,52.246,49.805,0
1512883185.492,105.469,4.395,76.172,68.848,52.246,0
1512883185.496,101.074,-0.488,48.340,71.777,62.988,0
1512883185.500,87.402,-6.348,56.152,47.852,78.125,0
1512883185.504,88.379,-10.742,36.133,50.781,53.223,0
1512883185.507,106.934,-5.371,43.457,67.383,34.668,0
1512883185.511,96.680,25.391,47.363,71.289,71.289,0
1512883185.515,72.266,38.086,44.922,68.359,83.008,0
1512883185.519,95.215,30.273,36.621,67.871,46.387,0
1512883185.523,90.820,16.113,44.434,42.969,62.012,0
1512883185.527,73.730,18.066,54.199,34.180,83.984,0
1512883185.531,75.684,34.668,41.016,59.570,54.688,0
1512883185.535,87.402,10.742,69.824,81.055,37.109,0
1512883185.539,90.332,-5.859,55.664,71.289,57.617,0
1512883185.543,87.891,15.137,38.574,55.664,52.734,0
1512883185.546,90.332,22.461,46.875,71.777,30.762,0
1512883185.550,95.215,23.438,46.387,70.801,39.551,0
1512883185.554,92.285,39.551,41.992,59.082,60.059,0
1512883185.558,81.543,28.320,45.898,47.852,49.316,0
1512883185.562,76.172,24.414,55.664,50.781,41.016,0
1512883185.566,76.660,30.273,70.801,49.316,41.016,0
1512883185.570,72.266,18.555,58.105,39.062,28.809,0
1512883185.574,69.336,27.344,28.320,43.457,46.387,0
1512883185.578,86.426,28.320,42.969,57.129,61.035,0
1512883185.582,79.102,32.227,46.875,55.176,55.664,0
1512883185.586,45.410,41.016,52.246,31.250,46.387,0
1512883185.589,36.621,28.809,59.082,15.625,59.082,0
1512883185.593,54.688,13.184,46.875,37.109,73.242,0
1512883185.597,71.777,15.625,58.105,54.199,72.754,0
1512883185.601,69.824,35.645,49.316,56.152,57.129,0
1512883185.605,46.875,25.879,47.363,42.969,48.828,0
1512883185.609,60.059,8.301,46.875,30.273,34.180,0
1512883185.613,79.590,26.367,38.086,43.457,61.035,0
1512883185.617,66.895,47.363,30.762,55.664,91.797,0
1512883185.621,61.035,39.062,21.973,44.434,67.871,0
1512883185.625,51.270,15.137,45.898,24.414,43.457,0
1512883185.629,37.109,24.414,51.270,26.855,43.457,0
1512883185.632,30.762,30.762,51.270,16.602,44.434,0
1512883185.636,29.297,29.785,45.410,0.488,71.289,0
1512883185.640,7.812,49.316,24.902,-4.883,98.145,0
1512883185.644,-20.020,46.875,66.895,-13.672,66.895,0
1512883185.648,-4.883,29.297,88.379,14.648,47.363,0
1512883185.652,-1.953,48.340,41.992,2.930,58.105,0
1512883185.656,-24.414,62.500,28.809,-27.344,37.598,0
1512883185.660,-47.363,61.523,37.109,-33.203,33.691,0
1512883185.664,-68.848,79.102,23.926,-53.711,61.035,0
1512883185.668,-82.520,84.961,9.766,-62.988,51.758,0
1512883185.671,-115.723,74.219,35.645,-104.980,40.527,0
1512883185.675,-125.488,96.680,34.180,-93.750,55.664,0
1512883185.679,-130.371,103.516,41.504,-78.613,61.523,0
1512883185.683,-167.969,85.938,35.645,-125.977,61.523,0
1512883185.687,-163.574,94.238,-6.836,-127.930,64.453,0
1512883185.691,-178.223,104.004,-3.418,-151.367,77.637,0
1512883185.695,-178.711,89.844,24.902,-161.133,81.055,0
1512883185.699,-177.734,83.496,33.691,-141.602,71.289,0
1512883185.703,-189.941,91.797,0.977,-157.715,51.270,0
1512883185.707,-189.453,95.215,-21.484,-166.016,53.711,0
1512883185.711,-189.941,86.426,19.043,-161.621,64.941,0
1512883185.714,-178.711,69.336,45.410,-158.203,72.754,0
1512883185.718,-144.043,67.871,-0.488,-128.906,68.359,0
1512883185.722,-150.879,71.289,13.672,-117.676,44.434,0
1512883185.726,-157.227,82.520,4.395,-125.977,46.387,0
1512883185.730,-140.625,68.359,41.504,-130.859,79.590,0
1512883185.734,-129.395,57.129,66.895,-117.676,83.496,0
1512883185.738,-100.586,52.246,23.438,-75.195,40.527,0
1512883185.742,-79.102,44.434,36.621,-54.688,-3.906,0
1512883185.746,-42.969,48.828,41.992,-25.879,-2.441,0
1512883185.750,-35.156,41.504,62.500,-17.578,39.062,0
1512883185.754,-50.293,35.156,53.711,-35.645,39.551,0
1512883185.757,-21.484,39.551,20.508,-9.277,60.547,0
1512883185.761,-13.672,33.203,34.180,15.137,90.820,0
1512883185.765,-0.488,14.648,49.316,28.320,63.477,0
1512883185.769,-4.395,12.207,74.219,37.598,60.059,0
1512883185.773,-6.348,20.508,82.031,33.691,70.312,0
1512883185.777,39.551,10.742,56.641,39.551,60.547,0
1512883185.781,55.664,11.230,66.406,68.359,60.059,0
1512883185.785,41.992,-6.836,88.867,64.941,28.320,0
1512883185.789,36.621,-22.949,79.590,68.359,24.414,0
1512883185.793,62.988,-7.812,53.711,112.305,58.594,0
1512883185.796,86.426,-8.789,52.246,126.465,37.109,0
1512883185.800,87.891,-10.742,56.641,122.070,10.742,0
1512883185.804,91.797,-13.184,76.660,123.535,44.434,0
1512883185.808,98.633,-14.160,62.988,130.859,83.496,0
1512883185.812,88.379,-10.742,88.379,125.000,78.125,0
1512883185.816,102.539,-20.020,83.984,143.555,74.707,0
1512883185.820,119.141,-24.902,49.805,167.969,66.406,0
1512883185.824,107.910,-20.996,70.801,148.438,52.246,0
1512883185.828,124.512,-27.832,75.684,126.465,43.457,0
1512883185.832,138.672,-15.625,61.523,130.371,44.434,0
1512883185.836,114.258,-4.883,65.430,125.977,57.129,0
1512883185.839,105.469,1.953,46.875,112.793,67.383,0
1512883185.843,119.629,-5.859,52.734,129.395,50.293,0
1512883185.847,138.184,-18.066,73.242,151.855,39.062,0
1512883185.851,147.949,-8.301,57.129,141.602,68.359,0
1512883185.855,142.090,-10.254,54.688,138.184,82.520,0
1512883185.859,122.559,-25.391,78.125,115.234,80.078,0
1512883185.863,131.348,-22.949,70.312,115.234,62.500,0
1512883185.867,154.785,-4.883,43.457,152.832,46.875,0
1512883185.871,152.344,-11.230,51.270,156.738,69.336,0
1512883185.875,148.926,-24.902,58.594,142.090,45.898,0
1512883185.879,131.836,-12.695,52.734,123.535,17.090,0
1512883185.882,119.629,-2.441,52.734,124.023,21.973,0
1512883185.886,127.441,-13.184,77.148,130.371,45.410,0
1512883185.890,123.535,-7.324,73.242,130.371,58.105,0
1512883185.894,125.977,-0.488,66.406,135.742,32.227,0
1512883185.898,131.836,-0.488,53.223,129.395,34.668,0
1512883185.902,135.742,-13.672,50.293,122.559,40.527,0
1512883185.906,128.906,-8.301,53.711,136.719,31.250,0
1512883185.910,106.934,5.859,46.875,125.977,24.414,0
1512883185.914,106.445,-6.836,50.293,118.652,41.016,0
1512883185.918,112.793,-2.930,56.641,126.465,55.664,0
1512883185.921,104.980,0.000,61.035,122.070,27.832,0
1512883185.925,84.961,-11.719,42.480,113.770,6.836,0
1512883185.929,91.797,-11.230,44.922,109.375,56.152,0
1512883185.933,100.098,-8.301,61.523,106.445,59.082,0
1512883185.937,78.125,-8.789,61.523,95.703,57.129,0
1512883185.941,83.496,0.977,47.852,103.516,79.102,0
1512883185.945,90.332,6.836,45.410,106.934,69.824,0
1512883185.949,77.148,7.324,53.711,101.562,67.871,0
1512883185.953,78.125,1.953,55.664,107.910,53.711,0
1512883185.957,92.285,-6.348,55.664,110.352,51.270,0
1512883185.961,87.891,-1.953,53.711,101.074,65.918,0
1512883185.964,70.801,-2.930,50.781,95.703,64.941,0
1512883185.968,49.316,0.977,52.734,86.914,48.340,0
1512883185.972,49.805,10.742,60.547,84.961,44.434,0
1512883185.976,62.500,8.789,62.012,96.680,73.242,0
1512883185.980,47.852,-8.789,51.270,88.379,51.270,0
1512883185.984,23.438,-1.465,37.598,63.965,24.414,0
1512883185.988,38.574,14.648,33.203,58.594,62.500,0
1512883185.992,28.320,5.859,48.340,43.945,69.824,0
1512883185.996,19.531,8.301,45.898,39.551,49.805,0
1512883186.000,45.898,22.461,32.227,61.035,41.016,0
1512883186.004,36.133,24.902,41.504,57.617,74.707,0
1512883186.007,38.086,15.625,48.340,73.242,64.453,0
1512883186.011,42.969,18.066,40.039,76.660,38.086,0
1512883186.015,44.434,18.066,43.945,67.383,52.734,0
1512883186.019,59.082,13.672,41.992,70.801,44.922,0
1512883186.023,38.574,17.578,26.855,54.688,29.785,0
1512883186.027,30.762,15.625,41.504,62.012,49.805,0
1512883186.031,58.105,13.184,53.711,70.312,55.176,0
1512883186.035,51.270,22.949,30.762,62.012,48.340,0
1512883186.039,41.016,19.531,25.391,65.430,61.523,0
1512883186.043,46.387,25.879,27.832,64.941,49.805,0
1512883186.046,32.715,19.043,32.715,62.012,42.969,0
1512883186.050,23.926,12.207,39.551,45.410,64.941,0
1512883186.054,50.293,20.508,40.039,62.012,75.195,0
1512883186.058,52.734,22.461,41.992,77.148,73.242,0
1512883186.062,35.156,20.020,42.969,58.105,61.035,0
1512883186.066,20.020,9.766,43.945,55.176,59.082,0
1512883186.070,18.555,13.672,39.551,59.082,49.805,0
1512883186.074,37.598,14.160,38.574,56.641,38.086,0
1512883186.078,32.227,12.207,41.504,45.898,30.762,0
1512883186.082,19.043,22.461,31.250,40.527,59.570,0
1512883186.086,29.785,36.621,25.879,52.734,72.754,0
1512883186.089,29.297,31.738,32.227,58.594,61.523,0
1512883186.093,25.391,22.461,34.180,55.664,70.801,0
1512883186.097,26.855,26.855,27.832,43.945,57.617,0
1512883186.101,28.809,20.508,27.832,33.203,24.414,0
1512883186.105,31.250,25.391,28.809,39.062,28.809,0
1512883186.109,33.203,33.203,31.250,43.457,76.660,0
1512883186.113,33.203,20.996,27.832,37.598,78.613,0
1512883186.117,28.320,29.297,22.949,36.133,44.922,0
1512883186.121,33.203,41.016,27.832,37.109,36.621,0
1512883186.125,37.598,18.555,33.203,40.039,50.781,0
1512883186.129,35.156,4.883,38.086,48.828,51.270,0
1512883186.132,41.992,21.973,37.598,49.805,51.758,0
1512883186.136,43.945,25.391,31.250,50.781,72.754,0
1512883186.140,41.504,31.250,33.691,46.875,51.758,0
1512883186.144,30.273,36.133,38.574,40.039,65.918,0
1512883186.148,24.902,28.809,25.391,46.387,85.938,0
1512883186.152,31.250,32.227,22.949,38.086,71.289,0
1512883186.156,29.297,29.785,26.855,35.156,73.730,0
1512883186.160,23.926,30.273,22.949,39.062,45.410,0
1512883186.164,30.762,26.367,27.344,40.039,21.973,0
1512883186.168,35.156,24.414,29.297,41.992,66.895,0
1512883186.171,37.598,33.691,27.832,38.086,98.633,0
1512883186.175,43.457,25.391,28.809,35.645,66.406,0
1512883186.179,38.086,20.020,33.203,46.387,64.941,0
1512883186.183,27.344,29.785,36.621,50.781,79.590,0
1512883186.187,38.574,33.203,35.645,58.594,57.129,0
1512883186.191,44.922,29.297,35.156,44.922,45.410,0
1512883186.195,44.434,28.809,27.832,22.461,61.523,0
1512883186.199,38.086,28.320,23.438,21.484,84.473,0
1512883186.203,33.691,18.066,29.785,36.133,47.363,0
1512883186.207,34.668,13.672,32.715,44.922,31.250,0
1512883186.211,26.855,23.926,26.367,28.809,58.594,0
1512883186.214,35.645,33.691,23.926,24.902,45.410,0
1512883186.218,38.574,37.109,27.344,34.180,38.574,0
1512883186.222,28.320,34.180,30.762,39.062,31.250,0
1512883186.226,26.367,19.531,23.438,30.762,31.738,0
1512883186.230,21.973,29.297,17.578,27.832,37.598,0
1512883186.234,18.066,48.340,19.531,28.809,32.227,0
1512883186.238,35.156,49.316,20.020,30.273,32.227,0
1512883186.242,47.363,39.062,21.973,34.180,32.227,0
1512883186.246,40.527,34.668,28.809,37.598,74.707,0
1512883186.250,26.855,32.227,39.062,23.926,61.035,0
1512883186.254,24.902,25.879,40.039,37.109,17.578,0
1512883186.257,22.949,23.926,35.156,57.617,26.367,0
1512883186.261,15.137,18.066,40.527,42.969,22.461,0
1512883186.265,14.160,16.602,40.527,25.879,9.766,0
1512883186.269,8.789,12.207,41.504,20.020,24.902,0
1512883186.273,11.719,14.160,42.969,25.879,46.387,0
1512883186.277,22.461,14.648,35.645,33.691,66.406,0
1512883186.281,27.344,14.648,37.598,36.133,51.758,0
1512883186.285,29.297,19.531,41.504,41.504,43.457,0
1512883186.289,35.645,22.949,39.062,45.898,66.895,0
1512883186.293,33.203,24.414,39.062,38.086,60.059,0
1512883186.296,28.809,26.855,43.945,39.062,46.875,0
1512883186.300,27.832,20.020,43.945,36.133,57.617,0
1512883186.304,20.020,20.020,41.016,25.879,53.711,0
1512883186.308,18.555,38.574,36.621,29.297,28.809,0
1512883186.312,20.020,38.574,35.645,22.461,37.109,0
1512883186.316,21.973,30.273,33.691,21.484,63.965,0
1512883186.320,22.461,24.902,35.156,31.250,86.426,0
1512883186.324,15.137,12.695,34.180,30.273,84.961,0
1512883186.328,16.602,11.230,32.715,30.762,53.711,0
1512883186.332,27.344,19.531,36.621,33.691,67.383,0
1512883186.336,30.762,11.719,40.039,37.109,55.176,0
1512883186.339,37.109,18.066,44.434,43.945,45.898,0
1512883186.343,32.715,24.414,41.504,37.598,46.875,0
1512883186.347,23.438,19.043,27.344,29.785,49.316,0
1512883186.351,25.391,25.391,24.902,39.062,56.641,0
1512883186.355,24.414,21.484,28.809,41.016,23.926,0
1512883186.359,20.996,16.602,30.762,36.621,18.066,0
1512883186.363,21.973,22.949,28.320,36.133,37.598,0
1512883186.367,26.367,19.531,22.949,40.527,67.383,0
1512883186.371,26.367,21.484,32.227,45.410,83.496,0
1512883186.375,19.043,30.273,33.203,41.504,59.570,0
1512883186.379,20.020,28.809,27.344,29.297,62.012,0
1512883186.382,26.855,8.789,30.273,31.250,43.945,0
1512883186.386,30.762,15.625,30.762,41.016,51.758,0
1512883186.390,25.391,31.738,29.785,35.645,49.805,0
1512883186.394,27.344,26.367,28.320,38.574,33.203,0
1512883186.398,35.645,40.527,26.367,47.363,35.645,0
1512883186.402,33.203,38.574,21.973,43.457,28.809,0
1512883186.406,35.645,23.926,29.785,50.293,38.086,0
1512883186.410,37.598,22.461,35.645,45.898,45.898,0
1512883186.414,25.879,22.949,28.809,25.879,46.875,0
1512883186.418,19.531,15.137,31.738,31.250,35.645,0
1512883186.421,28.320,-4.883,34.180,42.480,41.016,0
1512883186.425,34.180,7.324,27.832,46.875,41.504,0
1512883186.429,34.668,21.973,24.902,35.645,42.480,0
1512883186.433,34.668,26.855,26.367,26.855,50.293,0
1512883186.437,38.574,26.367,30.273,36.133,77.148,0
1512883186.441,39.062,35.156,27.832,34.668,79.102,0
1512883186.445,36.133,41.016,32.715,45.898,49.316,0
1512883186.449,35.645,34.180,32.227,56.641,45.410,0
1512883186.453,35.645,35.645,22.949,46.875,83.008,0
1512883186.457,39.551,29.785,23.926,34.180,96.191,0
1512883186.461,42.480,26.367,31.250,32.227,90.332,0
1512883186.464,35.645,17.090,33.203,35.645,94.727,0
1512883186.468,27.344,16.602,28.809,33.691,78.125,0
1512883186.472,23.438,26.367,24.414,34.668,77.637,0
1512883186.476,19.531,24.414,22.461,43.457,54.688,0
1512883186.480,29.297,32.227,23.926,38.086,42.480,0
1512883186.484,34.668,32.227,24.414,33.691,65.918,0
1512883186.488,26.367,16.602,24.902,45.898,52.246,0
1512883186.492,28.809,23.438,20.020,35.645,55.176,0
1512883186.496,32.715,39.062,19.531,20.020,62.012,0
1512883186.500,37.109,42.969,24.902,30.273,63.965,0
1512883186.504,27.344,41.016,23.438,29.785,57.617,0
1512883186.507,20.020,34.180,22.461,21.973,62.988,0
1512883186.511,22.461,33.203,24.414,20.020,80.078,0
1512883186.515,9.766,30.273,17.578,18.066,63.965,0
1512883186.519,10.742,20.996,21.973,21.484,44.922,0
1512883186.523,9.766,20.996,32.715,17.578,44.434,0
1512883186.527,3.906,36.621,23.926,9.277,42.969,0
1512883186.531,3.906,35.156,13.184,10.742,52.734,0
1512883186.535,1.465,26.855,20.020,22.949,36.621,0
1512883186.539,-3.906,36.133,30.762,14.160,23.438,0
1512883186.543,-10.254,44.434,27.832,-7.324,54.199,0
1512883186.546,-23.438,45.410,20.996,-20.020,62.988,0
1512883186.550,-44.434,47.363,23.926,-31.250,53.223,0
1512883186.554,-63.477,59.082,21.973,-40.039,22.461,0
1512883186.558,-66.895,60.547,16.602,-53.711,29.297,0
1512883186.562,-83.008,62.988,12.207,-76.172,57.617,0
1512883186.566,-102.051,68.848,6.836,-95.703,18.555,0
1512883186.570,-117.676,83.008,-3.906,-118.164,12.695,0
1512883186.574,-134.766,93.262,-7.324,-137.207,58.105,0
1512883186.578,-141.113,95.215,-0.488,-139.160,57.129,0
1512883186.582,-163.086,100.586,-3.418,-155.273,32.715,0
1512883186.586,-182.617,103.027,-7.812,-172.363,25.391,0
1512883186.589,-185.059,95.703,-4.883,-154.785,22.461,0
1512883186.593,-181.641,83.008,-3.418,-162.109,38.574,0
1512883186.597,-177.246,91.309,-4.883,-188.965,19.043,0
1512883186.601,-172.852,91.797,-9.277,-197.754,30.762,0
1512883186.605,-183.105,73.730,-17.090,-201.172,64.941,0
1512883186.609,-187.012,71.289,-13.184,-197.754,41.504,0
