timestamps,TP9,AF7,AF8,TP10,Right AUX,Marker0
1512870028.373,-2.441,18.066,48.828,101.074,154.785,0
1512870028.377,9.277,2.930,155.762,28.320,182.129,0
1512870028.381,23.926,23.438,83.496,24.902,229.980,0
1512870028.385,17.090,38.574,-20.020,62.500,229.492,0
1512870028.389,7.324,4.395,35.645,68.359,202.637,0
1512870028.393,14.160,19.043,29.785,68.848,221.680,0
1512870028.397,41.016,41.016,9.277,97.656,249.512,0
1512870028.400,55.176,34.180,35.645,113.281,274.902,0
1512870028.404,44.434,25.879,79.102,67.383,256.348,0
1512870028.408,-40.527,13.672,92.773,-10.254,242.188,0
1512870028.412,-37.109,9.766,61.523,-6.348,276.367,0
1512870028.416,33.691,19.043,42.480,31.250,294.922,0
1512870028.420,10.742,14.160,96.191,36.133,308.594,0
1512870028.424,-34.180,-24.414,163.086,50.293,321.289,0
1512870028.428,12.695,-1.953,41.504,88.379,333.496,0
1512870028.432,30.762,50.293,-10.742,74.707,312.988,0
1512870028.436,10.742,30.762,88.867,67.383,270.508,0
1512870028.440,22.949,8.301,100.586,84.473,291.016,0
1512870028.443,29.785,26.855,17.578,88.379,298.828,0
1512870028.447,30.762,35.645,25.391,101.562,246.094,0
1512870028.451,32.715,21.484,32.715,78.125,226.562,0
1512870028.455,32.715,28.320,-4.883,70.312,236.328,0
1512870028.459,-12.207,16.113,57.129,52.734,237.305,0
1512870028.463,-11.230,20.020,20.020,31.250,245.605,0
1512870028.467,16.113,19.043,7.812,39.551,229.492,0
1512870028.471,-5.371,-15.137,81.543,53.711,228.027,0
1512870028.475,-10.254,-22.949,83.984,31.250,207.520,0
1512870028.479,13.184,1.953,95.703,27.344,193.848,0
1512870028.482,50.293,32.715,23.438,72.266,186.035,0
1512870028.486,55.664,20.020,-8.301,85.449,181.641,0
1512870028.490,26.367,17.578,63.477,65.430,158.203,0
1512870028.494,23.926,33.691,34.668,56.152,141.602,0
1512870028.498,11.719,4.883,105.957,41.504,168.457,0
1512870028.502,25.391,-39.062,164.551,-8.789,179.688,0
1512870028.506,57.129,-5.371,65.918,7.324,179.688,0
1512870028.510,40.527,36.133,89.844,17.090,175.293,0
1512870028.514,-6.836,6.836,170.410,-39.551,179.199,0
1512870028.518,36.621,16.113,56.641,9.277,195.801,0
1512870028.522,80.566,47.852,-46.387,43.457,216.309,0
1512870028.525,60.059,55.176,2.441,32.227,199.707,0
1512870028.529,106.445,35.156,-0.488,74.219,190.918,0
1512870028.533,98.633,6.348,44.434,101.074,199.219,0
1512870028.537,21.973,-1.953,108.398,81.543,195.312,0
1512870028.541,24.902,-12.695,134.766,40.039,207.520,0
1512870028.545,110.352,9.277,-16.602,124.023,214.844,0
1512870028.549,108.887,11.719,21.973,130.371,229.004,0
1512870028.553,85.449,14.160,82.520,73.730,246.582,0
1512870028.557,61.523,11.719,121.094,65.430,235.352,0
1512870028.561,87.891,17.578,40.527,86.426,229.004,0
1512870028.565,43.457,17.578,35.645,73.242,234.375,0
1512870028.568,-8.301,10.254,123.047,55.664,207.031,0
1512870028.572,51.270,33.203,37.109,42.480,193.848,0
1512870028.576,106.934,48.828,-77.637,93.750,219.727,0
1512870028.580,75.195,35.645,24.902,118.652,220.215,0
1512870028.584,58.105,27.832,61.523,62.988,169.434,0
1512870028.588,71.777,16.602,-2.441,98.633,173.828,0
1512870028.592,-0.488,32.227,20.020,72.754,224.121,0
1512870028.596,-15.137,46.387,33.691,31.250,204.590,0
1512870028.600,48.340,18.555,23.926,75.195,176.758,0
1512870028.604,76.172,40.527,21.973,49.316,169.922,0
1512870028.607,41.016,49.805,38.574,24.902,162.109,0
1512870028.611,40.039,16.113,40.527,40.039,111.328,0
1512870028.615,-26.367,10.254,93.750,-17.578,51.758,0
1512870028.619,-9.766,38.086,61.035,-4.883,53.223,0
1512870028.623,85.938,28.809,3.418,72.754,52.734,0
1512870028.627,47.363,27.832,-6.348,84.961,26.855,0
1512870028.631,29.785,27.832,27.832,43.945,8.789,0
1512870028.635,17.090,5.371,77.637,24.414,28.809,0
1512870028.639,-6.348,5.371,96.191,34.668,32.227,0
1512870028.643,61.035,30.273,36.621,60.059,20.508,0
1512870028.647,71.777,35.645,7.812,57.129,12.207,0
1512870028.650,34.668,20.508,20.508,45.410,18.555,0
1512870028.654,33.203,12.207,51.270,79.102,-1.465,0
1512870028.658,21.973,-0.977,108.887,64.453,-49.805,0
1512870028.662,24.902,15.137,49.805,45.410,-65.918,0
1512870028.666,17.090,34.180,16.113,97.656,-59.082,0
1512870028.670,33.203,30.762,31.250,101.074,-74.219,0
1512870028.674,57.617,27.832,68.848,81.543,-110.352,0
1512870028.678,30.762,4.395,96.191,44.922,-126.953,0
1512870028.682,5.859,5.859,19.531,27.344,-129.883,0
1512870028.686,43.945,19.043,31.250,98.633,-142.090,0
1512870028.690,33.691,22.949,117.188,81.055,-182.129,0
1512870028.693,13.672,28.320,57.617,51.270,-169.434,0
1512870028.697,42.969,6.348,25.879,64.941,-144.043,0
1512870028.701,42.480,5.859,118.164,33.203,-120.605,0
1512870028.705,-11.719,-0.488,247.070,-14.648,-112.305,0
1512870028.709,20.020,16.602,92.773,31.738,-133.301,0
1512870028.713,82.520,55.664,-140.137,97.656,-121.582,0
1512870028.717,74.219,40.039,-128.418,55.664,-114.258,0
1512870028.721,77.148,25.879,-15.137,34.180,-133.789,0
1512870028.725,57.617,23.438,74.707,53.711,-143.066,0
1512870028.729,21.484,12.695,60.547,74.219,-161.621,0
1512870028.732,63.477,8.789,66.406,82.520,-117.188,0
1512870028.736,73.242,20.508,76.172,81.055,-83.496,0
1512870028.740,33.691,25.391,78.613,62.012,-145.020,0
1512870028.744,1.465,8.301,107.910,-8.301,-146.973,0
1512870028.748,30.273,9.766,94.727,3.418,-110.840,0
1512870028.752,45.410,19.531,84.961,48.340,-130.371,0
1512870028.756,40.527,7.812,94.727,58.105,-151.367,0
1512870028.760,52.246,-12.207,83.008,54.688,-152.832,0
1512870028.764,34.180,-9.277,95.703,17.578,-130.859,0
1512870028.768,40.039,-9.277,82.031,7.812,-117.676,0
1512870028.772,70.801,45.898,-59.570,72.266,-107.422,0
1512870028.775,97.656,66.406,-52.246,119.629,-74.219,0
1512870028.779,93.262,28.320,36.133,118.164,-52.246,0
1512870028.783,52.734,-6.348,86.914,89.355,-52.246,0
1512870028.787,-2.930,-19.043,126.465,37.109,-62.988,0
1512870028.791,-4.883,9.766,48.828,44.922,-37.109,0
1512870028.795,32.715,8.301,79.102,90.820,-30.762,0
1512870028.799,46.387,-3.418,180.176,72.266,-33.691,0
1512870028.803,61.035,13.672,13.184,56.152,7.812,0
1512870028.807,18.555,35.645,-1.953,73.730,-0.488,0
1512870028.811,1.465,14.648,127.930,60.547,3.906,0
1512870028.815,71.777,6.836,11.719,106.445,55.664,0
1512870028.818,47.852,18.066,-57.129,131.348,33.203,0
1512870028.822,-1.953,24.902,25.879,51.758,16.602,0
1512870028.826,8.301,13.184,33.691,14.160,18.066,0
1512870028.830,26.367,4.395,24.902,32.715,30.762,0
1512870028.834,61.523,22.461,50.293,40.527,39.551,0
1512870028.838,79.590,36.133,36.133,76.660,61.523,0
1512870028.842,56.152,45.898,21.973,84.473,59.082,0
1512870028.846,16.113,31.738,70.312,38.086,47.363,0
1512870028.850,19.531,11.230,132.324,26.367,79.102,0
1512870028.854,46.875,11.230,87.891,61.035,84.473,0
1512870028.857,61.035,7.324,29.785,63.477,72.754,0
1512870028.861,55.664,22.461,-41.992,23.926,80.566,0
1512870028.865,36.621,39.551,-48.340,0.977,94.238,0
1512870028.869,15.625,0.000,140.625,13.184,100.098,0
1512870028.873,8.301,-11.719,102.539,42.969,93.262,0
1512870028.877,30.762,2.441,13.672,48.340,99.609,0
1512870028.881,40.527,21.973,56.152,0.977,118.164,0
1512870028.885,-17.090,16.113,98.633,-32.227,119.629,0
1512870028.889,-28.809,-8.789,92.285,-4.395,131.836,0
1512870028.893,17.578,31.250,-44.434,28.320,166.016,0
1512870028.897,51.758,34.668,-36.621,90.820,167.969,0
1512870028.900,9.277,-9.766,163.574,27.832,144.531,0
1512870028.904,-27.832,9.277,116.699,-58.594,183.594,0
1512870028.908,17.090,34.668,-139.160,24.902,172.852,0
1512870028.912,56.152,23.438,-22.949,91.309,135.254,0
1512870028.916,44.434,9.277,164.062,100.586,120.117,0
1512870028.920,44.922,11.230,95.215,94.238,156.738,0
1512870028.924,28.320,10.254,91.797,51.758,158.691,0
1512870028.928,15.137,13.184,135.742,15.137,102.539,0
1512870028.932,42.969,20.020,45.410,57.617,124.512,0
1512870028.936,19.531,21.484,-37.109,61.035,128.906,0
1512870028.940,19.531,31.738,-18.555,65.430,106.934,0
1512870028.943,66.895,34.668,21.484,92.285,80.078,0
1512870028.947,92.285,44.434,-23.438,100.098,64.941,0
1512870028.951,79.590,35.156,-23.926,93.262,93.750,0
1512870028.955,28.320,19.043,26.367,54.688,85.449,0
1512870028.959,21.484,33.203,44.922,33.691,89.844,0
1512870028.963,39.062,44.434,51.758,41.504,92.285,0
1512870028.967,-10.254,20.996,114.746,12.207,87.402,0
1512870028.971,-1.953,32.715,93.750,-1.465,82.031,0
1512870028.975,73.242,35.156,-52.246,29.785,63.477,0
1512870028.979,40.039,42.969,-41.504,20.020,31.250,0
1512870028.982,0.488,42.480,51.270,3.906,31.738,0
1512870028.986,23.438,31.738,88.379,19.043,45.898,0
1512870028.990,21.973,60.059,7.324,24.414,-13.672,0
1512870028.994,-12.695,50.293,50.781,-14.160,-8.789,0
1512870028.998,3.906,37.109,112.305,-23.438,24.902,0
1512870029.002,63.965,51.270,2.930,11.230,0.488,0
1512870029.006,69.336,37.109,66.406,47.363,-17.090,0
1512870029.010,26.367,25.391,47.852,40.039,-3.418,0
1512870029.014,0.977,35.156,21.973,13.184,-2.441,0
1512870029.018,-21.973,44.922,25.879,-6.836,-14.648,0
1512870029.022,-11.230,51.270,11.230,-17.090,-21.973,0
1512870029.025,53.711,39.062,19.531,36.621,-16.602,0
1512870029.029,67.383,22.949,62.012,75.195,-9.277,0
1512870029.033,36.621,18.555,83.984,62.012,-9.277,0
1512870029.037,16.113,25.879,49.316,46.875,-17.090,0
1512870029.041,42.480,28.320,29.785,24.414,-31.738,0
1512870029.045,40.527,30.273,41.016,12.695,-59.570,0
1512870029.049,25.879,28.809,62.012,11.719,-80.566,0
1512870029.053,58.594,22.949,60.547,34.180,-83.496,0
1512870029.057,49.805,13.672,139.648,58.105,-78.125,0
1512870029.061,50.293,30.762,73.730,83.008,-76.660,0
1512870029.065,26.855,5.371,50.781,30.762,-95.703,0
1512870029.068,31.250,1.465,38.086,20.996,-83.496,0
1512870029.072,66.406,63.965,-66.406,35.156,-85.449,0
1512870029.076,54.199,77.148,-54.199,28.320,-111.816,0
1512870029.080,68.848,51.758,-48.340,39.062,-88.379,0
1512870029.084,58.594,47.852,20.996,69.336,-90.332,0
1512870029.088,1.465,44.922,57.129,51.758,-110.352,0
1512870029.092,14.648,30.273,17.578,22.949,-97.656,0
1512870029.096,68.359,32.715,33.203,30.762,-135.742,0
1512870029.100,18.555,51.758,42.969,-9.766,-177.246,0
1512870029.104,20.508,44.922,-8.301,-15.137,-140.137,0
1512870029.107,38.574,41.992,-41.504,-7.812,-202.148,0
1512870029.111,-13.672,62.500,-70.312,-36.621,-232.422,0
1512870029.115,1.953,34.668,-66.895,-25.391,-198.730,0
1512870029.119,56.641,-0.488,54.688,-6.348,-181.152,0
1512870029.123,13.672,27.832,126.953,-20.020,-154.785,0
1512870029.127,7.324,37.598,114.258,-16.113,-179.688,0
1512870029.131,49.805,54.688,-14.648,14.648,-202.637,0
1512870029.135,19.531,63.965,9.766,14.648,-168.457,0
1512870029.139,15.137,48.340,77.148,18.066,-165.039,0
1512870029.143,42.480,46.387,25.391,14.648,-207.031,0
1512870029.147,94.238,38.086,-12.207,47.852,-208.008,0
1512870029.150,83.008,31.250,-5.371,42.480,-175.293,0
1512870029.154,23.438,41.992,48.340,12.695,-123.535,0
1512870029.158,43.945,53.711,2.441,33.203,-115.723,0
1512870029.162,26.367,32.227,135.742,-46.875,-115.234,0
1512870029.166,-11.719,7.812,220.703,-71.777,-126.465,0
1512870029.170,9.766,40.527,67.871,-0.488,-116.699,0
1512870029.174,9.766,63.477,-64.453,31.250,-84.473,0
1512870029.178,-19.531,31.250,20.996,-7.812,-103.027,0
1512870029.182,18.555,31.738,23.926,29.785,-93.262,0
1512870029.186,86.426,42.969,-112.305,95.703,-87.402,0
1512870029.190,73.242,29.785,2.441,62.988,-96.680,0
1512870029.193,45.410,35.645,-23.926,54.199,-84.961,0
1512870029.197,16.113,50.781,-83.984,23.926,-81.543,0
1512870029.201,15.625,50.293,0.488,44.434,-101.074,0
1512870029.205,27.344,46.875,66.406,51.758,-88.867,0
1512870029.209,20.020,55.176,21.973,43.945,-63.477,0
1512870029.213,1.953,37.109,-22.461,12.207,-85.938,0
1512870029.217,16.602,14.648,11.230,-49.805,-103.516,0
1512870029.221,18.555,17.578,35.156,6.348,-57.617,0
1512870029.225,14.160,54.688,-0.488,47.852,-17.578,0
1512870029.229,59.082,67.383,30.762,60.059,-40.039,0
1512870029.232,47.852,46.387,34.668,53.223,-50.781,0
1512870029.236,62.012,41.992,12.207,63.477,-36.621,0
1512870029.240,49.316,46.875,157.227,46.875,-36.621,0
1512870029.244,-11.719,46.875,208.008,-19.531,-52.246,0
1512870029.248,-15.137,45.410,70.801,3.906,-26.855,0
1512870029.252,0.000,45.410,27.344,23.438,5.371,0
1512870029.256,70.801,50.781,-47.363,59.570,-4.883,0
1512870029.260,105.957,39.062,7.324,60.059,-21.484,0
1512870029.264,40.039,28.809,51.758,14.160,-13.184,0
1512870029.268,-20.020,25.391,38.086,-0.977,2.441,0
1512870029.272,39.062,39.551,1.953,44.434,5.859,0
1512870029.275,96.191,44.922,-16.602,59.082,-12.207,0
1512870029.279,48.828,39.062,26.855,38.086,-8.301,0
1512870029.283,25.879,35.156,128.906,41.504,38.086,0
1512870029.287,24.414,20.508,182.617,35.156,62.988,0
1512870029.291,-12.695,25.879,103.516,-17.578,46.875,1
1512870029.295,41.016,32.715,-18.555,20.508,40.527,0
1512870029.299,101.562,38.574,-29.785,111.328,84.473,0
1512870029.303,77.148,46.875,48.340,107.910,66.895,0
1512870029.307,54.688,58.594,-27.344,80.566,36.621,0
1512870029.311,39.551,46.387,0.488,61.035,65.430,0
1512870029.315,25.391,45.898,55.664,68.848,84.961,0
1512870029.318,14.160,32.715,91.797,51.758,86.426,0
1512870029.322,-5.371,25.391,85.449,5.859,82.520,0
1512870029.326,3.906,41.016,18.555,6.836,106.934,0
1512870029.330,28.320,40.527,57.617,51.758,128.418,0
1512870029.334,62.988,32.715,112.305,86.426,84.473,0
1512870029.338,6.348,5.859,97.656,40.039,89.844,0
1512870029.342,-15.137,23.926,-30.273,17.090,129.395,0
1512870029.346,13.184,56.152,6.348,74.219,143.066,0
1512870029.350,-17.090,58.594,41.504,59.570,124.512,0
1512870029.354,20.508,47.852,-20.508,1.465,119.141,0
1512870029.357,50.293,29.297,26.367,34.180,163.574,0
1512870029.361,41.016,36.621,34.668,49.316,175.781,0
1512870029.365,75.195,49.316,-21.973,60.547,166.016,0
1512870029.369,34.180,31.738,22.949,74.219,201.172,0
1512870029.373,9.766,22.949,142.578,65.430,203.613,0
1512870029.377,61.035,36.621,102.051,60.547,155.273,0
1512870029.381,38.574,37.598,40.039,43.457,199.707,0
1512870029.385,8.301,30.273,32.715,66.406,239.746,0
1512870029.389,45.898,41.504,78.613,79.590,225.586,0
1512870029.393,28.809,49.805,144.531,13.672,226.074,0
1512870029.397,10.254,41.992,82.031,7.324,210.938,0
1512870029.400,43.945,27.832,-12.695,66.406,217.285,0
1512870029.404,57.129,33.691,-9.766,77.637,245.117,0
1512870029.408,35.156,37.598,12.207,38.086,255.859,0
1512870029.412,34.668,42.480,9.766,14.648,279.297,0
1512870029.416,39.551,34.668,-8.301,43.945,285.645,0
1512870029.420,-3.906,27.832,60.059,59.082,288.574,0
1512870029.424,-12.695,23.926,66.895,36.621,273.926,0
1512870029.428,31.250,38.574,-5.859,35.645,292.480,0
1512870029.432,48.828,39.551,-3.418,43.945,314.941,0
1512870029.436,28.320,16.602,112.305,18.555,297.852,0
1512870029.440,43.945,19.531,123.047,23.926,283.691,0
1512870029.443,89.844,35.645,-64.941,80.078,297.852,0
1512870029.447,114.746,36.133,-18.555,115.234,286.621,0
1512870029.451,56.641,35.645,93.750,102.051,244.629,0
1512870029.455,16.602,27.344,106.445,58.105,234.375,0
1512870029.459,50.781,61.035,-20.508,61.035,232.910,0
1512870029.463,72.266,62.012,16.602,80.078,211.914,0
1512870029.467,53.711,16.113,100.586,74.219,184.570,0
1512870029.471,3.906,19.531,41.504,38.086,175.293,0
1512870029.475,45.410,50.293,23.926,31.738,161.621,0
1512870029.479,107.910,49.316,-7.324,64.453,178.223,0
1512870029.482,121.094,29.785,2.441,38.574,179.688,0
1512870029.486,72.266,33.203,42.969,34.668,159.668,0
1512870029.490,77.148,53.223,3.906,46.875,173.340,0
1512870029.494,75.684,42.969,16.113,20.996,154.297,0
1512870029.498,74.707,35.156,57.617,70.801,131.836,0
1512870029.502,83.984,29.785,103.516,79.590,87.402,0
1512870029.506,40.039,38.574,8.789,34.668,83.008,0
1512870029.510,-6.836,32.227,54.199,6.836,108.887,0
1512870029.514,-0.488,28.809,72.754,22.461,70.312,0
1512870029.518,42.480,42.480,-10.742,44.434,29.297,0
1512870029.522,19.043,34.180,67.383,34.668,26.855,0
1512870029.525,13.184,39.551,43.457,55.664,1.465,0
1512870029.529,-19.043,17.090,100.098,29.785,-15.137,0
1512870029.533,-13.184,13.184,107.910,33.203,-11.719,0
1512870029.537,12.695,24.902,13.184,49.316,-13.672,0
1512870029.541,0.977,23.438,37.598,11.230,-36.133,0
1512870029.545,27.832,35.645,-10.254,24.414,-59.082,0
1512870029.549,9.277,23.926,55.664,22.949,-87.402,0
1512870029.553,-8.301,27.344,94.238,33.691,-67.383,0
1512870029.557,40.039,41.016,-6.348,82.031,-73.242,0
1512870029.561,45.898,32.227,16.113,46.387,-105.957,0
1512870029.565,36.133,29.785,47.363,37.598,-98.145,0
1512870029.568,40.527,28.320,69.336,72.266,-110.352,0
1512870029.572,39.062,34.180,30.762,49.316,-124.512,0
1512870029.576,48.828,32.715,-5.371,8.789,-136.230,0
1512870029.580,11.719,27.344,76.172,0.000,-135.254,0
1512870029.584,-22.461,40.527,52.734,21.484,-137.207,0
1512870029.588,7.812,42.480,-2.930,9.277,-155.273,0
1512870029.592,9.766,30.762,7.812,-3.906,-150.879,0
1512870029.596,25.391,41.016,-50.781,25.879,-125.977,0
1512870029.600,80.566,44.922,-16.113,53.223,-145.996,0
1512870029.604,67.871,25.391,4.883,20.020,-153.320,0
1512870029.607,29.785,24.902,-23.438,5.859,-127.930,0
1512870029.611,25.391,32.227,0.977,15.625,-127.930,0
1512870029.615,38.086,31.250,66.895,6.836,-130.859,0
1512870029.619,15.625,38.086,116.211,3.906,-125.488,0
1512870029.623,5.859,38.574,122.070,-24.414,-140.137,0
1512870029.627,5.371,19.043,70.312,-10.254,-139.648,0
1512870029.631,23.438,33.691,63.965,50.781,-123.535,0
1512870029.635,8.789,19.531,176.758,12.695,-131.348,0
1512870029.639,21.484,21.973,34.668,-5.859,-126.953,0
1512870029.643,61.035,56.152,-56.641,81.055,-105.469,0
1512870029.647,63.477,38.086,20.020,111.816,-105.957,0
1512870029.650,70.312,12.695,85.449,90.332,-114.258,0
1512870029.654,32.715,-4.883,66.895,61.523,-101.562,0
1512870029.658,29.297,20.996,-42.969,56.641,-60.547,0
1512870029.662,47.363,58.594,33.691,65.430,-40.527,0
1512870029.666,43.457,24.902,31.738,64.941,-29.297,0
1512870029.670,41.992,1.953,45.410,81.543,-3.906,0
1512870029.674,11.230,5.371,117.188,50.781,13.672,0
1512870029.678,20.020,18.555,55.664,39.062,1.465,0
1512870029.682,12.695,39.062,-0.488,71.777,-4.395,0
1512870029.686,-29.297,26.367,31.738,52.734,36.133,0
1512870029.690,14.648,26.367,5.371,47.363,38.086,0
1512870029.693,39.062,19.531,120.605,58.105,28.320,0
1512870029.697,-28.809,7.812,124.023,29.297,20.996,0
1512870029.701,-20.020,19.043,-3.906,14.160,72.754,0
1512870029.705,27.344,28.809,31.250,30.273,74.707,0
1512870029.709,30.762,23.438,17.578,46.387,43.945,0
1512870029.713,14.160,36.621,10.254,53.711,62.988,0
1512870029.717,-32.227,34.668,91.797,9.766,85.938,0
1512870029.721,-21.484,-9.277,135.742,-6.836,80.078,0
1512870029.725,24.414,5.371,22.949,45.410,49.805,0
1512870029.729,6.348,31.738,-5.859,48.828,64.453,0
1512870029.732,-8.301,17.090,67.383,24.902,80.566,0
1512870029.736,7.812,39.062,37.598,34.180,97.168,0
1512870029.740,-10.254,40.527,78.125,36.133,104.492,0
1512870029.744,-9.766,23.438,82.031,16.113,112.305,0
1512870029.748,10.742,31.738,-14.648,43.945,134.277,0
1512870029.752,46.387,47.852,-23.438,98.145,137.695,0
1512870029.756,71.289,43.457,71.777,97.168,132.812,0
1512870029.760,24.902,7.324,152.832,41.504,157.227,0
1512870029.764,27.832,20.508,110.840,46.387,167.480,0
1512870029.768,48.340,41.992,107.422,65.430,139.648,0
1512870029.772,61.035,41.016,30.762,75.684,155.762,0
1512870029.775,90.820,43.945,-72.754,96.191,157.715,0
1512870029.779,68.359,44.434,17.578,103.516,181.152,0
1512870029.783,10.742,50.293,49.316,97.168,156.250,0
1512870029.787,10.742,38.574,115.723,24.902,122.070,0
1512870029.791,15.625,22.949,109.863,-23.926,171.875,0
1512870029.795,-0.977,29.785,27.344,-6.836,180.664,0
1512870029.799,37.598,26.855,65.918,7.812,152.832,0
1512870029.803,30.762,35.156,-15.625,26.855,142.090,0
1512870029.807,-17.578,69.336,-20.996,41.504,146.484,0
1512870029.811,-21.484,66.406,26.367,53.711,154.785,0
1512870029.815,-18.066,17.578,63.965,51.758,138.672,0
1512870029.818,25.879,16.602,84.473,19.531,121.094,0
1512870029.822,35.645,22.461,7.324,8.789,147.461,0
1512870029.826,36.133,14.648,62.988,43.945,151.855,0
1512870029.830,45.410,29.297,73.730,83.008,129.883,0
1512870029.834,20.020,19.043,42.969,32.715,108.887,0
1512870029.838,-0.488,-7.324,125.000,-13.184,117.676,0
1512870029.842,15.625,26.855,52.246,51.270,125.977,0
1512870029.846,23.926,53.223,43.945,47.363,71.777,0
1512870029.850,-32.227,38.574,166.992,-3.906,58.105,0
1512870029.854,7.812,18.555,85.938,29.785,83.008,0
1512870029.857,63.477,39.551,-72.266,118.652,81.055,0
1512870029.861,18.066,38.086,14.648,59.570,57.617,0
1512870029.865,4.395,35.645,-30.273,-5.859,57.129,0
1512870029.869,1.465,31.250,7.324,43.457,57.617,0
1512870029.873,22.949,9.766,97.656,76.172,25.879,0
1512870029.877,18.555,23.438,41.504,42.969,-17.090,0
1512870029.881,34.668,42.480,6.836,44.434,16.113,0
1512870029.885,30.273,22.461,65.430,51.270,31.738,0
1512870029.889,-0.977,5.371,138.672,23.438,-9.277,0
1512870029.893,3.906,15.625,1.953,43.457,-39.551,0
1512870029.897,61.035,26.855,-14.648,85.449,-15.625,0
1512870029.900,59.570,39.062,63.477,77.637,5.859,0
1512870029.904,35.645,53.711,0.488,83.984,-6.348,0
1512870029.908,20.020,47.363,69.824,65.918,-17.090,0
1512870029.912,5.371,41.016,107.910,13.184,-44.434,0
1512870029.916,13.184,41.992,41.016,-16.113,-27.344,0
1512870029.920,19.043,36.621,86.426,4.883,-46.387,0
1512870029.924,29.297,16.602,81.543,41.016,-72.266,0
1512870029.928,43.457,45.410,-22.461,74.219,-26.855,0
1512870029.932,58.105,64.453,7.324,92.285,-21.973,0
1512870029.936,30.762,34.668,72.266,34.180,-46.875,0
1512870029.940,-17.090,46.875,116.211,3.418,-35.156,0
1512870029.943,20.020,62.012,15.625,43.457,-41.992,0
1512870029.947,65.918,32.715,51.758,40.527,-97.656,0
1512870029.951,33.203,12.207,109.863,17.578,-101.074,0
1512870029.955,0.000,38.574,104.492,-9.277,-51.270,0
1512870029.959,27.344,59.082,72.754,20.020,-21.973,0
1512870029.963,62.012,58.594,-82.520,113.770,-41.016,0
1512870029.967,81.543,35.156,-27.344,117.676,-68.848,0
1512870029.971,49.316,6.348,69.336,77.637,-82.520,0
1512870029.975,16.602,18.555,48.340,43.945,-82.520,0
1512870029.979,47.852,44.922,23.438,38.086,-83.984,0
1512870029.982,43.457,30.273,72.754,54.688,-60.547,0
1512870029.986,36.621,13.184,90.332,50.293,-67.871,0
1512870029.990,73.730,26.367,78.125,67.871,-79.102,0
1512870029.994,65.918,24.902,125.488,41.016,-60.059,0
1512870029.998,56.641,39.551,59.570,39.551,-33.203,0
1512870030.002,72.754,58.105,47.363,64.453,1.953,0
1512870030.006,52.246,29.785,92.285,54.199,3.906,0
1512870030.010,52.246,14.648,-2.441,69.336,-30.273,0
1512870030.014,39.062,12.695,12.695,39.551,-7.812,0
1512870030.018,64.941,26.367,23.926,41.992,40.039,0
1512870030.022,80.078,32.227,18.066,62.012,46.387,0
1512870030.025,36.133,26.855,-32.715,70.801,38.086,0
1512870030.029,35.156,39.062,-15.137,96.191,32.227,0
1512870030.033,40.527,25.879,152.344,39.551,56.152,0
1512870030.037,57.129,24.902,95.215,15.137,69.824,0
1512870030.041,50.293,47.363,-31.738,44.434,62.988,0
1512870030.045,37.598,56.641,23.438,52.734,52.734,0
1512870030.049,22.461,25.391,78.125,42.480,51.758,0
1512870030.053,48.828,-3.906,62.012,30.273,12.695,0
1512870030.057,93.750,30.273,20.508,66.406,1.953,0
1512870030.061,31.250,31.738,84.473,66.895,55.176,0
1512870030.065,44.922,45.410,3.418,43.457,56.152,0
1512870030.068,81.543,33.691,28.320,23.926,21.484,0
1512870030.072,68.848,4.395,125.977,26.367,28.809,0
1512870030.076,62.500,30.762,12.207,50.293,40.039,0
1512870030.080,19.043,47.363,28.809,39.062,29.785,0
1512870030.084,44.922,49.316,52.734,39.062,-11.719,0
1512870030.088,51.270,48.340,33.691,82.031,-34.668,0
1512870030.092,7.324,27.832,86.914,52.734,12.695,0
1512870030.096,26.855,28.809,87.891,34.180,25.391,0
1512870030.100,48.828,25.879,40.527,35.156,-10.742,0
1512870030.104,-4.395,11.719,36.133,-7.324,8.789,0
1512870030.107,10.742,22.949,39.551,35.156,65.430,0
1512870030.111,44.922,33.203,64.453,44.922,77.148,0
1512870030.115,62.012,37.598,50.293,64.453,37.109,0
1512870030.119,65.918,3.418,87.891,56.641,26.855,0
1512870030.123,58.105,10.254,37.109,53.711,68.359,0
1512870030.127,34.668,42.480,21.484,55.176,45.898,0
1512870030.131,13.672,35.156,73.730,4.395,29.785,0
1512870030.135,0.000,5.371,107.910,-4.883,66.406,0
1512870030.139,-0.977,-13.184,125.488,-4.883,45.410,0
1512870030.143,16.602,9.766,-20.020,24.902,7.324,0
1512870030.147,34.668,26.367,-59.082,61.523,10.742,0
1512870030.150,26.367,15.625,-16.602,42.480,16.602,0
1512870030.154,0.488,27.832,-29.297,36.133,54.199,0
1512870030.158,14.648,51.270,28.809,46.387,17.090,0
1512870030.162,33.691,39.551,45.898,34.180,-47.852,0
1512870030.166,48.828,7.812,29.785,29.785,8.789,0
1512870030.170,17.578,16.602,60.059,12.695,42.969,0
1512870030.174,21.973,30.273,71.777,40.527,0.977,0
1512870030.178,54.688,20.508,49.805,87.402,3.418,0
1512870030.182,48.340,11.719,174.805,54.688,70.801,0
1512870030.186,66.406,14.648,126.953,55.176,66.406,0
1512870030.190,59.570,47.363,-71.777,103.027,-2.930,0
1512870030.193,54.199,41.504,52.734,69.824,-4.395,0
1512870030.197,79.590,20.020,102.539,62.500,10.254,0
1512870030.201,129.395,40.527,14.648,120.605,-24.414,0
1512870030.205,95.703,46.875,6.348,101.074,-23.926,0
1512870030.209,37.598,43.945,29.785,77.148,3.418,0
1512870030.213,54.199,38.574,63.965,73.730,4.395,0
1512870030.217,40.039,35.645,65.430,41.016,-9.277,0
1512870030.221,78.125,18.066,27.832,52.246,-17.090,0
1512870030.225,105.469,15.625,73.242,74.707,-4.395,0
1512870030.229,45.410,27.344,130.859,49.805,3.418,0
1512870030.232,23.926,36.621,-2.930,55.176,-9.766,0
1512870030.236,26.855,35.645,22.461,38.086,-22.461,0
1512870030.240,-0.488,49.805,91.797,11.719,-25.391,0
1512870030.244,-21.484,38.574,39.062,19.043,-29.785,0
1512870030.248,44.922,27.832,-12.207,10.254,-34.668,0
1512870030.252,40.527,41.504,3.418,7.324,-34.180,0
1512870030.256,-19.531,-0.488,104.492,-22.461,-21.973,0
1512870030.260,-11.719,-14.160,125.000,-2.930,-12.695,0
1512870030.264,27.832,9.277,41.504,16.113,-10.742,0
1512870030.268,48.340,10.254,80.566,-22.461,-2.441,0
1512870030.272,65.918,29.785,9.766,43.945,-20.996,0
1512870030.275,66.895,31.250,26.855,55.664,-26.855,0
1512870030.279,47.363,21.973,-1.465,41.016,-34.180,0
1512870030.283,41.504,22.949,-17.578,50.293,-84.961,0
1512870030.287,40.039,27.832,25.391,16.113,-128.906,0
1512870030.291,24.414,37.598,-18.555,8.789,-127.930,0
1512870030.295,20.020,27.344,7.812,43.945,-112.793,0
1512870030.299,48.828,3.906,56.152,62.500,-98.145,0
1512870030.303,52.246,29.785,12.207,88.867,-135.254,0
1512870030.307,32.227,37.109,42.969,67.383,-111.328,0
1512870030.311,20.508,34.668,0.488,29.297,-85.449,0
1512870030.315,1.953,15.137,47.852,-12.695,-93.750,0
1512870030.318,29.297,22.461,67.871,-3.418,-114.258,0
1512870030.322,48.828,39.062,11.719,64.941,-129.395,0
1512870030.326,46.387,31.250,17.090,75.195,-114.746,0
1512870030.330,96.191,23.438,-7.812,46.875,-126.465,0
1512870030.334,53.223,14.648,7.324,57.617,-101.074,0
1512870030.338,5.371,36.621,56.152,33.691,-88.379,0
1512870030.342,20.508,22.949,144.043,-11.230,-122.070,0
1512870030.346,64.453,24.902,66.895,30.273,-88.379,0
1512870030.350,65.430,42.969,-3.418,46.875,-61.523,0
1512870030.354,50.293,34.668,-1.953,43.457,-85.449,0
1512870030.357,74.219,20.020,-0.488,58.105,-88.379,0
1512870030.361,41.016,5.859,97.656,30.762,-93.750,0
1512870030.365,-11.230,-16.113,91.309,-8.789,-61.523,0
1512870030.369,57.129,-12.207,14.648,28.809,-23.438,0
1512870030.373,62.012,4.395,38.574,47.852,-42.480,0
1512870030.377,14.648,13.672,-4.395,33.691,-87.402,0
1512870030.381,-7.324,30.762,-10.742,20.508,-83.496,0
1512870030.385,-20.996,20.020,149.902,0.488,-13.672,0
1512870030.389,18.555,32.227,34.668,41.504,-7.324,0
1512870030.393,27.344,33.203,13.672,32.715,-9.766,0
1512870030.397,29.785,6.348,97.168,55.176,-33.691,0
1512870030.400,67.383,21.484,-24.414,80.566,-45.410,0
1512870030.404,55.664,19.531,46.875,43.457,-2.441,0
1512870030.408,20.508,10.254,89.844,42.480,-6.348,0
1512870030.412,18.555,22.461,1.953,45.898,12.207,0
1512870030.416,25.391,22.461,-21.484,55.664,36.621,0
1512870030.420,23.926,12.695,14.160,78.125,21.484,0
1512870030.424,25.879,-13.672,110.840,62.988,27.832,0
1512870030.428,15.625,-10.254,110.840,41.016,67.383,0
1512870030.432,25.879,28.809,-5.371,40.039,54.199,0
1512870030.436,15.625,42.969,26.367,16.602,17.578,0
1512870030.440,35.645,34.668,48.340,56.641,32.227,0
1512870030.443,41.992,19.531,61.523,80.566,8.301,0
1512870030.447,15.137,33.203,71.777,54.688,2.930,0
1512870030.451,-13.672,9.766,144.043,17.578,50.293,0
1512870030.455,-18.066,-17.090,77.148,-6.348,48.340,0
1512870030.459,37.598,18.555,-14.648,29.297,44.922,0
1512870030.463,66.406,40.527,6.836,52.734,65.430,0
1512870030.467,44.434,15.137,3.418,58.105,62.012,0
1512870030.471,14.648,8.301,74.707,49.316,57.129,0
1512870030.475,22.949,41.016,93.750,22.461,48.828,0
1512870030.479,17.090,47.852,3.418,31.250,49.316,0
1512870030.482,37.109,43.457,-55.664,64.941,67.871,0
1512870030.486,53.223,30.762,67.383,49.316,99.609,0
1512870030.490,54.688,11.230,128.906,29.785,83.008,0
1512870030.494,66.406,16.602,78.613,29.297,61.035,0
1512870030.498,23.438,35.156,53.711,30.273,47.363,0
1512870030.502,2.441,39.062,31.738,55.664,6.348,0
1512870030.506,34.180,30.762,20.020,52.734,10.742,0
1512870030.510,70.801,28.809,39.062,40.039,54.688,0
1512870030.514,67.871,22.461,114.258,34.668,56.152,0
1512870030.518,18.555,16.602,115.234,20.508,44.434,0
1512870030.522,26.367,25.391,32.715,16.602,49.805,0
1512870030.525,69.824,36.133,-10.254,22.461,52.734,0
1512870030.529,89.355,24.902,-33.203,74.219,55.664,0
1512870030.533,79.590,14.648,12.207,59.570,33.691,0
1512870030.537,7.812,6.348,106.445,-9.277,18.555,0
1512870030.541,34.180,14.648,110.352,57.617,77.148,0
1512870030.545,85.449,45.410,11.719,115.723,85.449,0
1512870030.549,63.477,52.734,-17.090,91.309,67.383,0
1512870030.553,42.969,51.758,-18.555,59.082,58.594,0
1512870030.557,-1.953,19.043,161.621,2.441,81.055,2
1512870030.561,-1.953,6.836,190.430,17.090,95.703,0
1512870030.565,8.301,37.598,85.938,33.691,41.016,0
1512870030.568,65.430,46.875,-10.742,65.918,38.574,0
1512870030.572,50.293,34.180,-27.832,80.078,49.316,0
1512870030.576,37.109,33.203,-0.488,64.941,65.430,0
1512870030.580,28.809,36.133,9.766,41.016,57.617,0
1512870030.584,2.930,16.602,68.848,-1.953,79.102,0
1512870030.588,46.387,27.344,52.734,37.109,105.469,0
1512870030.592,36.133,42.969,26.855,77.148,97.656,0
1512870030.596,83.496,50.293,-17.090,94.238,103.027,0
1512870030.600,41.016,41.992,79.590,27.344,85.449,0
1512870030.604,-29.785,11.230,155.273,6.348,80.078,0
1512870030.607,2.441,20.508,44.922,42.969,67.871,0
1512870030.611,24.414,27.832,16.602,60.547,23.926,0
1512870030.615,62.012,27.344,53.223,85.449,-11.719,0
1512870030.619,62.988,46.387,-16.113,87.402,26.367,0
1512870030.623,34.668,44.922,-25.879,68.359,38.086,0
1512870030.627,42.480,35.156,33.691,44.922,11.230,0
1512870030.631,49.316,35.645,78.125,63.477,43.945,0
1512870030.635,50.781,27.832,79.590,85.938,71.289,0
1512870030.639,49.316,25.879,106.934,78.125,48.828,0
1512870030.643,31.738,20.020,145.508,25.879,-7.324,0
1512870030.647,24.414,28.809,25.391,21.484,11.230,0
1512870030.650,-12.207,30.273,41.504,15.625,34.668,0
1512870030.654,-20.020,-3.906,155.273,-8.301,-12.695,0
1512870030.658,20.020,10.742,7.812,48.340,5.859,0
1512870030.662,47.363,34.668,-20.996,77.148,30.273,0
1512870030.666,62.988,40.527,43.945,98.145,23.926,0
1512870030.670,30.762,16.602,6.836,83.008,14.648,0
1512870030.674,25.391,2.930,-7.812,14.160,-13.672,0
1512870030.678,58.105,31.250,56.152,27.832,-20.996,0
1512870030.682,51.270,46.875,85.938,65.430,17.578,0
1512870030.686,55.664,31.250,69.336,54.688,-22.461,0
1512870030.690,53.711,29.785,61.523,18.066,-72.754,0
1512870030.693,5.859,36.133,50.293,2.930,-21.484,0
1512870030.697,31.250,14.160,44.434,50.781,-11.719,0
1512870030.701,89.844,20.020,42.480,62.012,-69.824,0
1512870030.705,64.941,26.367,23.438,49.805,-66.895,0
1512870030.709,35.156,3.418,43.457,31.738,-39.062,0
1512870030.713,25.391,30.762,22.949,16.602,-74.707,0
1512870030.717,-1.465,26.367,49.805,-9.766,-64.453,0
1512870030.721,46.875,2.930,46.387,21.973,-56.641,0
1512870030.725,92.773,41.992,-52.734,106.445,-59.082,0
1512870030.729,50.781,57.129,-1.465,75.195,-48.828,0
1512870030.732,36.621,43.457,67.383,17.578,-33.203,0
1512870030.736,32.227,47.363,60.547,20.508,-37.109,0
1512870030.740,17.090,40.527,29.297,32.715,-20.508,0
1512870030.744,48.340,21.484,23.438,48.828,18.555,0
1512870030.748,51.270,29.297,77.637,54.199,-1.465,0
1512870030.752,2.930,26.367,56.152,34.180,-23.438,0
1512870030.756,-7.812,6.348,102.539,-2.441,4.883,0
1512870030.760,52.246,16.602,47.363,20.020,34.668,0
1512870030.764,45.898,19.531,-2.930,35.156,40.527,0
1512870030.768,34.180,7.812,57.617,26.855,41.992,0
1512870030.772,43.945,25.391,-22.949,41.016,26.367,0
1512870030.775,35.156,39.062,-14.648,41.992,39.551,0
1512870030.779,23.926,60.059,-4.883,45.898,-3.906,0
1512870030.783,24.902,57.129,-31.738,48.828,-60.547,0
1512870030.787,-14.160,25.879,96.191,2.930,-31.738,0
1512870030.791,-25.879,21.973,59.570,-8.789,-35.156,0
1512870030.795,11.230,25.391,-41.992,26.855,7.324,0
1512870030.799,-1.953,40.527,-13.184,-32.227,17.578,0
1512870030.803,51.758,59.082,24.414,-13.184,8.789,0
1512870030.807,27.832,28.320,132.812,19.531,22.949,0
1512870030.811,19.043,4.395,30.762,11.719,-1.465,0
1512870030.815,16.113,12.695,107.910,23.926,-27.344,0
1512870030.818,-20.996,17.578,176.270,-5.859,-15.625,0
1512870030.822,62.500,34.668,-8.789,21.973,-16.602,0
1512870030.826,88.379,50.293,-20.020,67.871,-62.988,0
1512870030.830,91.797,68.848,-32.227,60.547,-46.875,0
1512870030.834,76.660,80.078,-21.973,98.145,-20.508,0
1512870030.838,49.316,44.922,121.094,80.566,-36.621,0
1512870030.842,33.203,40.039,69.824,5.859,-25.879,0
1512870030.846,30.273,57.129,9.766,22.949,-15.625,0
1512870030.850,87.402,37.109,23.438,67.383,-20.020,0
1512870030.854,72.266,45.410,-68.848,70.312,20.508,0
1512870030.857,24.414,47.363,-3.418,30.273,18.555,0
1512870030.861,34.668,41.016,11.719,33.203,-28.809,0
1512870030.865,24.902,52.246,-8.789,46.387,-41.992,0
1512870030.869,-3.418,31.738,49.316,12.207,-82.520,0
1512870030.873,19.531,-3.418,83.496,6.836,-90.332,0
1512870030.877,38.086,-1.953,96.191,36.621,-67.383,0
1512870030.881,28.320,19.531,66.406,46.875,-65.918,0
1512870030.885,20.996,54.199,10.254,29.785,-86.914,0
1512870030.889,25.391,47.852,68.848,41.504,-116.211,0
1512870030.893,34.180,15.625,42.969,56.152,-122.070,0
1512870030.897,27.832,11.719,8.789,53.223,-102.051,0
1512870030.900,11.719,12.695,66.406,28.809,-121.094,0
1512870030.904,-2.441,32.227,82.520,8.789,-133.301,0
1512870030.908,13.184,74.707,1.953,31.738,-116.211,0
1512870030.912,30.762,57.617,8.301,56.152,-136.230,0
1512870030.916,33.691,18.066,83.496,42.480,-194.336,0
1512870030.920,19.531,15.137,37.109,27.344,-190.918,0
1512870030.924,-9.766,24.902,64.941,20.508,-139.160,0
1512870030.928,-17.578,32.227,33.203,11.230,-136.230,0
1512870030.932,-5.371,32.715,-19.531,31.250,-152.344,0
1512870030.936,-6.348,30.762,-15.137,48.828,-170.410,0
1512870030.940,-3.906,11.719,-12.695,57.617,-184.570,0
1512870030.943,5.859,5.371,37.598,45.898,-171.387,0
1512870030.947,22.461,-0.977,67.871,31.738,-101.562,0
1512870030.951,18.555,5.371,30.762,35.645,-112.305,0
1512870030.955,31.738,19.531,3.418,35.645,-143.555,0
1512870030.959,40.527,33.691,53.711,46.875,-139.648,0
1512870030.963,-3.906,46.387,63.477,32.715,-151.367,0
1512870030.967,-47.363,24.414,55.176,-8.789,-156.250,0
1512870030.971,-2.930,25.879,-38.086,0.488,-146.973,0
1512870030.975,18.066,46.875,-54.688,27.832,-117.676,0
1512870030.979,-3.906,12.207,124.512,-16.113,-75.195,0
1512870030.982,41.992,26.855,39.551,-17.090,-59.570,0
1512870030.986,48.340,56.152,-60.059,52.734,-61.523,0
1512870030.990,26.855,12.695,30.273,38.086,-103.516,0
1512870030.994,32.715,10.254,50.293,24.902,-106.445,0
1512870030.998,66.895,44.434,93.750,77.637,-3.906,0
1512870031.002,87.891,57.129,63.965,81.543,3.418,0
1512870031.006,66.406,35.645,-6.348,60.547,-30.273,0
1512870031.010,73.730,29.297,-18.555,78.613,-55.664,0
1512870031.014,90.820,35.645,55.664,85.449,-26.855,0
1512870031.018,43.457,7.812,116.211,24.902,-34.668,0
1512870031.022,19.531,20.508,70.801,5.859,-60.547,0
1512870031.025,51.270,41.016,62.012,76.172,-76.660,0
1512870031.029,35.645,38.086,119.629,60.547,-70.801,0
1512870031.033,17.578,25.879,135.254,47.852,-51.758,0
1512870031.037,36.133,20.996,16.113,57.617,-81.055,0
1512870031.041,60.059,34.180,-68.848,82.031,-66.895,0
1512870031.045,73.730,42.480,-16.113,112.793,-37.109,0
1512870031.049,58.105,18.066,40.527,83.008,-30.762,0
1512870031.053,23.926,0.977,12.695,50.293,0.000,0
1512870031.057,12.695,8.789,62.500,43.457,4.395,0
1512870031.061,31.738,29.785,83.008,75.195,53.223,3
1512870031.065,69.824,37.109,7.812,81.543,85.449,0
1512870031.068,57.129,28.809,24.902,79.102,100.586,0
1512870031.072,30.762,32.715,34.180,55.176,105.957,0
1512870031.076,-19.043,24.902,83.984,23.926,88.379,0
1512870031.080,-68.359,4.395,224.609,-11.230,107.910,0
1512870031.084,-10.742,3.418,128.906,-2.441,115.234,0
1512870031.088,44.922,0.977,-61.035,60.547,110.352,0
1512870031.092,36.133,6.348,-29.785,86.914,90.820,0
1512870031.096,34.668,43.945,-24.414,52.734,98.633,0
1512870031.100,1.465,50.781,-43.945,46.387,145.996,0
1512870031.104,26.367,36.133,29.785,64.941,108.398,0
1512870031.107,31.738,22.949,38.086,50.781,124.023,0
1512870031.111,15.137,14.648,15.625,41.016,191.406,0
1512870031.115,0.000,6.836,134.766,31.250,140.137,0
1512870031.119,-24.414,19.531,138.184,2.930,166.992,0
1512870031.123,-16.113,12.695,112.793,4.395,220.703,0
1512870031.127,16.602,-14.160,110.352,65.430,187.500,0
1512870031.131,30.762,-6.836,51.270,88.867,124.023,0
1512870031.135,8.301,33.203,-64.453,80.566,138.672,0
1512870031.139,16.602,35.156,-51.758,90.332,226.074,0
1512870031.143,31.250,28.320,57.129,86.426,191.895,0
1512870031.147,30.762,33.691,78.613,64.941,190.430,0
1512870031.150,47.852,27.344,-19.531,56.152,227.051,0
1512870031.154,50.293,26.367,34.180,81.055,195.801,0
1512870031.158,60.059,11.719,66.406,104.004,146.484,0
1512870031.162,34.668,8.301,24.414,56.641,176.270,0
1512870031.166,4.883,25.879,16.113,59.570,259.766,0
1512870031.170,21.484,41.504,41.504,49.316,237.793,0
1512870031.174,42.969,63.477,1.465,37.109,219.727,0
1512870031.178,-2.441,33.203,87.891,48.340,294.922,0
1512870031.182,9.277,-11.230,93.750,46.875,267.578,0
1512870031.186,83.008,-3.418,-47.363,47.852,212.402,0
1512870031.190,34.668,27.344,37.109,38.086,262.695,0
1512870031.193,-3.906,30.762,18.555,36.133,245.117,0
1512870031.197,15.625,23.926,-22.461,83.008,245.605,0
1512870031.201,20.508,38.574,43.945,82.031,268.555,0
1512870031.205,15.137,20.508,124.023,18.066,243.164,0
1512870031.209,-4.883,2.441,162.109,12.695,228.516,0
1512870031.213,6.348,35.156,72.266,49.316,231.934,0
1512870031.217,-25.879,36.133,37.109,35.156,257.812,0
1512870031.221,1.953,12.695,-21.973,52.734,250.000,0
1512870031.225,49.805,18.066,-41.016,89.844,176.758,0
1512870031.229,19.531,16.602,36.133,67.383,166.504,0
1512870031.232,23.438,15.625,-12.207,45.410,174.805,0
1512870031.236,42.480,17.578,27.344,52.246,127.441,0
1512870031.240,1.465,-1.465,132.324,39.062,124.023,0
1512870031.244,-16.113,18.066,19.531,23.926,153.809,0
1512870031.248,6.836,50.781,-58.105,47.363,161.621,0
1512870031.252,0.000,43.457,23.438,32.715,114.258,0
1512870031.256,7.812,6.348,110.352,17.090,64.453,0
1512870031.260,6.836,-0.977,125.000,20.508,122.070,0
1512870031.264,-13.184,28.809,65.918,14.160,115.234,0
1512870031.268,-39.551,27.832,59.082,-7.324,8.789,0
1512870031.272,-37.598,24.414,24.414,-21.973,14.160,0
1512870031.275,-23.926,52.246,-83.496,-41.016,85.449,0
1512870031.279,-35.645,38.086,-39.062,-5.859,81.055,0
1512870031.283,-15.625,22.461,-4.883,37.109,25.391,0
1512870031.287,-1.465,28.809,-2.441,4.883,23.438,0
1512870031.291,-21.484,3.906,110.840,-15.625,1.465,0
1512870031.295,-46.875,-1.953,129.883,3.906,-4.883,0
1512870031.299,12.695,28.809,20.996,20.996,31.738,0
1512870031.303,37.109,61.035,-46.875,20.020,16.602,0
1512870031.307,-23.926,62.500,-11.230,-5.859,4.395,0
1512870031.311,-2.930,33.203,3.418,-21.973,-15.625,0
1512870031.315,49.805,25.879,84.473,12.207,-40.527,0
1512870031.318,57.617,49.316,111.328,40.039,-3.418,0
1512870031.322,47.852,62.012,-86.914,31.250,63.965,0
1512870031.326,18.066,33.203,-19.043,36.133,46.875,0
1512870031.330,18.555,16.602,75.195,19.043,-16.113,0
1512870031.334,-4.395,35.156,53.711,-6.836,-7.324,0
1512870031.338,16.113,18.066,109.863,15.137,12.207,0
1512870031.342,58.105,43.945,-19.043,19.043,9.766,0
1512870031.346,8.789,48.340,27.832,-12.695,9.277,0
1512870031.350,11.230,0.000,181.641,7.812,-9.277,0
1512870031.354,55.176,19.531,65.918,18.555,-19.043,0
1512870031.357,44.434,40.039,-63.965,-1.953,-56.641,0
1512870031.361,6.836,61.035,-4.395,0.000,-101.562,0
1512870031.365,27.344,50.781,-0.488,28.320,-33.203,0
1512870031.369,43.457,18.555,-65.430,29.785,-56.641,0
1512870031.373,23.926,23.438,27.832,15.625,-104.004,0
1512870031.377,16.113,19.043,125.488,20.508,-115.723,0
1512870031.381,-9.766,14.160,95.703,-17.090,-129.395,0
1512870031.385,23.438,36.133,-84.961,-0.977,-53.223,0
1512870031.389,39.551,37.109,-39.062,38.574,-40.039,0
1512870031.393,10.742,22.949,57.617,16.602,-95.215,0
1512870031.397,22.461,28.320,44.434,23.926,-115.234,0
1512870031.400,41.016,44.922,41.504,53.223,-125.977,0
1512870031.404,31.250,58.594,1.953,22.949,-136.230,0
1512870031.408,50.293,48.828,32.715,41.016,-97.168,0
1512870031.412,46.875,31.738,76.660,60.547,-95.215,0
1512870031.416,24.414,29.785,74.219,49.316,-104.980,0
1512870031.420,39.551,35.645,47.852,46.875,-98.145,0
1512870031.424,61.035,33.203,38.574,51.758,-83.984,0
1512870031.428,73.242,43.457,28.320,61.523,-95.703,0
1512870031.432,49.316,39.551,4.883,54.688,-92.773,0
1512870031.436,43.945,27.344,-0.977,61.035,-66.406,0
1512870031.440,51.758,17.090,46.387,33.691,-29.297,0
1512870031.443,-3.418,9.277,133.789,-44.434,-13.672,0
1512870031.447,-35.645,7.812,142.090,-76.660,-41.992,0
1512870031.451,11.230,20.508,36.621,7.324,-74.219,0
1512870031.455,30.762,31.250,33.691,41.504,-70.801,0
1512870031.459,24.902,44.922,-24.902,36.133,-62.500,0
1512870031.463,-6.348,35.156,28.809,0.977,-35.645,0
1512870031.467,2.441,28.809,118.652,-28.809,-23.438,0
1512870031.471,48.340,53.711,34.668,58.105,15.625,0
1512870031.475,74.707,41.504,11.719,117.676,-11.719,0
1512870031.479,64.941,21.973,41.016,25.879,-63.477,0
1512870031.482,50.781,32.227,29.785,7.812,17.090,0
1512870031.486,7.812,13.184,103.516,29.785,61.523,0
1512870031.490,22.949,25.391,49.805,28.809,40.527,0
1512870031.494,44.922,52.246,-17.578,71.777,36.621,0
1512870031.498,-12.695,33.203,-2.441,60.547,-3.906,0
1512870031.502,30.273,13.184,-12.207,66.406,25.391,0
1512870031.506,64.941,5.371,132.324,37.109,110.840,0
1512870031.510,62.988,-5.371,211.914,16.113,98.145,0
1512870031.514,36.621,-6.836,112.793,56.152,85.449,0
1512870031.518,-31.738,19.043,102.539,51.758,125.488,0
1512870031.522,9.766,41.992,-49.805,114.258,131.348,0
1512870031.525,51.270,32.227,-65.430,98.633,127.930,0
1512870031.529,32.227,18.555,1.953,53.711,107.910,0
1512870031.533,19.531,6.348,15.625,32.715,139.648,0
1512870031.537,9.766,-10.742,109.375,6.836,156.738,0
1512870031.541,56.641,10.254,43.457,123.535,145.996,0
1512870031.545,74.707,22.949,49.316,177.246,156.250,0
1512870031.549,46.875,-0.488,166.016,121.094,167.969,0
1512870031.553,65.918,-4.395,152.344,67.871,192.871,0
1512870031.557,43.457,17.578,59.570,45.410,228.516,0
1512870031.561,54.688,26.367,-18.066,38.574,217.773,4
1512870031.565,65.918,15.137,-35.156,40.527,141.113,0
1512870031.568,66.895,15.625,-11.719,75.684,130.371,0
1512870031.572,73.730,20.996,-9.766,89.355,169.434,0
1512870031.576,41.016,38.086,7.324,65.430,178.711,0
1512870031.580,22.461,23.926,31.250,47.852,158.691,0
1512870031.584,-7.812,-4.395,100.098,29.297,184.082,0
1512870031.588,21.973,5.371,81.543,37.109,200.684,0
1512870031.592,10.254,-5.371,146.973,-1.953,169.922,0
1512870031.596,9.277,-16.113,136.719,-3.418,129.883,0
1512870031.600,12.207,-9.766,28.320,20.020,137.695,0
1512870031.604,19.043,3.418,-46.875,22.461,180.664,0
1512870031.607,21.484,22.949,-100.586,36.621,200.684,0
1512870031.611,48.828,38.086,-48.828,71.289,205.078,0
1512870031.615,62.500,23.926,82.520,85.449,202.148,0
1512870031.619,33.203,16.602,77.637,26.855,166.992,0
1512870031.623,43.457,20.508,17.578,10.742,137.207,0
1512870031.627,3.906,29.297,22.949,51.270,144.531,0
1512870031.631,-20.020,16.113,45.410,55.664,145.020,0
1512870031.635,9.766,10.254,43.457,50.293,117.676,0
1512870031.639,6.836,30.762,50.781,22.949,145.508,0
1512870031.643,47.363,17.578,63.965,36.133,78.125,0
1512870031.647,25.879,0.488,-1.953,52.246,43.457,0
1512870031.650,-22.949,10.742,7.812,10.254,42.480,0
1512870031.654,24.414,15.625,74.219,24.902,69.824,0
1512870031.658,7.812,9.277,140.625,23.926,109.375,0
1512870031.662,49.316,19.531,-39.551,11.719,100.098,0
1512870031.666,67.383,42.969,-87.891,33.203,67.871,0
1512870031.670,3.906,22.461,38.574,6.348,27.344,0
1512870031.674,16.113,19.531,17.090,20.508,45.898,0
1512870031.678,35.645,48.340,47.852,48.828,30.273,0
1512870031.682,42.480,41.992,10.254,1.465,70.312,0
1512870031.686,75.684,39.062,-68.848,50.293,89.844,0
1512870031.690,78.613,20.508,7.812,108.398,99.121,0
1512870031.693,46.387,17.090,118.652,71.289,103.027,0
1512870031.697,15.625,50.293,86.426,45.898,75.684,0
1512870031.701,43.457,47.852,38.574,51.758,69.824,0
1512870031.705,33.203,33.203,49.316,-2.441,83.984,0
1512870031.709,35.645,35.156,19.531,-14.648,45.410,0
1512870031.713,45.410,15.137,58.594,13.184,62.012,0
1512870031.717,39.062,44.434,-48.828,35.156,65.430,0
1512870031.721,14.160,44.922,78.613,20.508,39.551,0
1512870031.725,5.371,-10.254,171.875,24.902,37.598,0
1512870031.729,62.500,25.391,-35.156,101.074,53.223,0
1512870031.732,43.457,39.551,29.297,56.152,47.363,0
1512870031.736,66.406,36.133,24.902,71.289,37.598,0
1512870031.740,67.383,31.738,-48.828,113.770,59.082,0
1512870031.744,36.621,0.000,41.504,71.777,0.977,0
1512870031.748,37.598,-13.672,125.000,9.277,27.832,0
1512870031.752,38.574,-6.836,133.301,0.000,69.336,0
1512870031.756,54.688,26.855,68.848,20.020,-4.395,0
1512870031.760,34.180,50.293,-27.832,35.645,-23.438,0
1512870031.764,4.883,39.062,9.766,27.344,-17.090,0
1512870031.768,-2.930,22.949,105.957,25.391,-26.855,0
1512870031.772,15.625,26.367,89.355,4.395,-29.785,0
1512870031.775,31.250,33.203,-2.930,-19.043,2.930,0
1512870031.779,34.668,42.480,9.277,40.527,-23.438,0
1512870031.783,23.926,32.227,74.707,65.918,-89.844,0
1512870031.787,-6.348,0.000,78.125,52.246,-89.844,0
1512870031.791,-3.906,-10.742,16.602,38.574,-57.617,0
1512870031.795,27.344,17.578,-30.273,20.508,-94.238,0
1512870031.799,11.719,51.758,10.254,24.902,-104.492,0
1512870031.803,0.977,40.039,58.594,40.527,-62.500,0
1512870031.807,26.855,23.926,79.590,47.363,-7.324,0
1512870031.811,40.039,19.043,65.430,56.641,-20.996,0
1512870031.815,-3.906,1.953,85.449,32.715,-62.500,0
1512870031.818,-20.020,18.066,6.836,34.668,-44.434,0
1512870031.822,-30.762,27.832,69.824,18.555,-69.336,0
1512870031.826,18.066,29.785,76.660,34.668,-63.965,0
1512870031.830,45.898,35.645,-31.250,60.059,-35.156,0
1512870031.834,9.766,28.809,107.422,36.133,-52.734,0
1512870031.838,28.809,19.043,56.641,37.109,-27.344,0
1512870031.842,41.504,0.488,0.000,14.160,-4.395,0
1512870031.846,75.195,9.277,44.434,10.742,0.977,0
1512870031.850,56.641,31.738,74.707,40.527,-7.812,0
1512870031.854,3.906,38.086,147.949,27.344,6.836,0
1512870031.857,12.695,36.621,91.309,37.598,-14.160,0
1512870031.861,58.105,32.715,64.453,38.086,-31.738,0
1512870031.865,111.328,40.527,-5.371,38.086,-35.156,0
1512870031.869,101.074,43.945,-17.090,52.246,-34.668,0
1512870031.873,60.547,56.641,12.695,52.734,-21.973,0
1512870031.877,24.414,47.852,51.758,23.438,-19.043,0
1512870031.881,29.297,58.594,2.930,35.645,-22.461,0
1512870031.885,33.203,42.969,114.746,47.363,-81.543,0
1512870031.889,21.973,21.484,127.930,8.301,-79.590,0
1512870031.893,58.594,53.711,-12.207,37.109,-31.250,0
1512870031.897,39.551,63.477,-47.852,64.941,-15.137,0
1512870031.900,-9.766,50.293,-2.930,18.555,-38.574,0
1512870031.904,-14.160,48.828,119.141,32.227,-73.730,0
1512870031.908,27.832,66.895,83.496,59.082,-61.523,0
1512870031.912,38.574,68.359,7.324,35.645,-82.031,0
1512870031.916,8.789,66.406,-2.441,25.391,-85.449,0
1512870031.920,-1.465,51.758,101.074,21.973,-46.387,0
1512870031.924,20.508,65.430,51.270,41.992,-62.012,0
1512870031.928,7.812,45.898,63.965,26.367,-0.488,0
1512870031.932,-20.508,20.996,53.711,-5.371,36.621,0
1512870031.936,0.977,52.246,-28.320,15.137,-4.883,0
1512870031.940,-0.488,65.918,12.207,10.742,-4.883,0
1512870031.943,3.418,70.801,-32.715,40.527,26.855,0
1512870031.947,23.926,43.457,31.738,20.020,8.789,0
1512870031.951,55.176,7.812,180.176,-8.789,24.414,0
1512870031.955,36.621,26.855,125.977,48.828,75.684,0
1512870031.959,7.324,47.363,46.387,42.480,-7.324,0
1512870031.963,5.371,40.527,23.926,-5.371,-18.066,0
1512870031.967,31.250,36.133,5.859,5.371,5.859,0
1512870031.971,54.199,38.086,42.969,10.254,-66.895,0
1512870031.975,29.785,63.477,-25.391,16.602,-71.777,0
1512870031.979,-2.441,45.410,-3.906,11.230,-53.223,0
1512870031.982,-4.395,20.996,124.512,-36.621,-54.199,0
1512870031.986,41.992,41.016,21.973,20.508,-32.715,0
1512870031.990,30.273,46.387,37.598,47.363,-58.105,0
1512870031.994,9.277,24.902,175.293,16.113,-31.738,0
1512870031.998,44.434,18.555,-6.836,64.453,-47.852,0
1512870032.002,63.965,50.293,-71.777,101.074,-110.352,0
1512870032.006,40.039,56.641,57.617,58.105,-93.262,0
1512870032.010,7.324,27.832,95.703,-0.977,-64.941,0
1512870032.014,-4.395,17.090,64.453,15.625,-45.898,0
1512870032.018,50.293,38.086,-7.324,32.715,3.906,0
1512870032.022,90.332,67.871,-18.066,40.039,-28.320,0
1512870032.025,64.941,43.457,0.977,30.273,-84.473,0
1512870032.029,30.762,13.184,-41.992,38.086,-66.406,0
1512870032.033,25.391,36.133,33.203,23.438,-83.496,0
1512870032.037,0.977,44.434,104.980,11.230,-88.379,0
1512870032.041,-10.254,26.367,34.180,19.043,-66.895,0
1512870032.045,46.387,30.762,15.137,42.480,-85.449,0
1512870032.049,42.480,40.527,76.660,53.223,-94.727,0
1512870032.053,-0.977,21.973,104.004,-5.859,-47.363,0
1512870032.057,22.461,35.645,34.668,31.738,-57.617,0
1512870032.061,27.344,53.223,-31.250,54.688,-95.215,5
1512870032.065,-18.555,28.320,31.250,5.371,-99.121,0
1512870032.068,-6.836,0.488,20.020,23.438,-76.660,0
1512870032.072,-4.395,30.273,-16.602,10.742,-48.340,0
1512870032.076,-3.418,9.277,81.055,2.441,-50.781,0
1512870032.080,-41.992,-20.020,166.504,4.883,-41.016,0
1512870032.084,-67.383,5.371,76.172,-15.625,6.348,0
1512870032.088,-28.320,33.691,-29.785,-0.977,-7.812,0
1512870032.092,-1.953,44.434,33.691,27.832,-39.551,0
1512870032.096,15.137,47.363,-4.883,32.715,-34.180,0
1512870032.100,-20.996,48.340,-19.531,33.203,-43.457,0
1512870032.104,-10.254,25.879,121.582,53.711,-46.875,0
1512870032.107,-3.906,25.879,106.934,53.711,-47.852,0
1512870032.111,-3.906,46.387,26.855,62.988,-23.926,0
1512870032.115,49.805,42.969,-21.973,72.266,-62.500,0
1512870032.119,49.805,21.484,13.184,14.648,-86.426,0
1512870032.123,24.902,5.859,67.383,20.508,-33.203,0
1512870032.127,28.320,39.062,7.324,47.852,-0.977,0
1512870032.131,60.547,14.160,59.570,23.438,-4.883,0
1512870032.135,58.105,-19.043,141.602,20.996,-35.645,0
1512870032.139,74.707,18.066,-12.695,119.141,-13.672,0
1512870032.143,76.660,34.668,-38.574,142.090,0.000,0
1512870032.147,64.453,39.062,50.293,67.383,2.441,0
1512870032.150,58.105,15.625,182.617,25.391,15.137,0
1512870032.154,26.855,11.230,92.285,43.945,6.348,0
1512870032.158,41.016,29.297,-17.578,78.125,69.824,0
1512870032.162,50.293,20.020,21.484,54.199,76.660,0
1512870032.166,36.621,26.367,18.066,64.941,59.570,0
1512870032.170,1.953,32.227,59.082,54.199,153.320,0
1512870032.174,-0.977,-2.441,148.438,1.953,80.566,0
1512870032.178,30.273,-9.277,117.188,0.488,14.160,0
1512870032.182,71.289,23.438,-38.086,68.359,56.152,0
1512870032.186,59.082,41.504,-45.898,73.730,115.234,0
1512870032.190,-30.762,39.551,18.555,24.902,94.238,0
1512870032.193,-6.348,18.555,35.645,40.527,97.656,0
1512870032.197,86.426,16.602,36.621,75.195,102.539,0
1512870032.201,79.102,11.719,51.270,59.570,66.895,0
1512870032.205,19.043,-26.855,140.137,55.664,126.953,0
1512870032.209,-16.602,-24.414,175.293,0.977,133.789,0
1512870032.213,-14.648,1.465,84.961,-14.160,139.648,0
1512870032.217,35.156,24.902,19.531,78.125,141.113,0
1512870032.221,94.727,56.152,-75.195,115.723,130.371,0
1512870032.225,60.547,42.969,-9.277,77.637,145.996,0
1512870032.229,29.785,26.855,88.867,60.547,112.793,0
1512870032.232,31.738,29.785,75.684,64.453,110.840,0
1512870032.236,18.066,16.602,73.730,43.945,152.344,0
1512870032.240,25.391,23.438,61.035,39.551,139.648,0
1512870032.244,42.480,40.039,38.574,60.059,140.625,0
1512870032.248,6.836,33.203,-34.668,57.617,126.465,0
1512870032.252,20.020,20.996,-20.996,44.922,73.242,0
1512870032.256,54.199,26.855,48.828,57.617,36.621,0
1512870032.260,13.184,14.648,109.863,25.391,66.895,0
1512870032.264,-9.277,12.207,153.320,-8.789,103.516,0
1512870032.268,-12.695,19.531,134.277,11.230,89.355,0
1512870032.272,3.418,22.949,82.031,54.199,117.188,0
1512870032.275,31.738,24.902,-33.203,47.363,93.262,0
1512870032.279,18.066,-3.906,89.355,-2.930,89.844,0
1512870032.283,88.867,27.832,23.438,55.176,96.680,0
1512870032.287,116.211,72.754,-85.938,104.004,95.215,0
1512870032.291,46.387,62.012,0.488,59.082,94.727,0
1512870032.295,23.926,42.969,53.711,42.969,34.668,0
1512870032.299,33.203,38.574,20.996,51.758,83.984,0
1512870032.303,54.688,20.508,46.387,46.875,120.117,0
1512870032.307,52.246,14.648,58.105,26.367,59.570,0
1512870032.311,53.223,21.484,12.207,41.016,68.359,0
1512870032.315,57.129,35.645,-41.016,58.105,101.562,0
1512870032.318,62.988,39.551,-15.137,36.133,69.336,0
1512870032.322,19.043,-0.977,126.465,-4.883,32.227,0
1512870032.326,-16.602,18.555,79.590,-3.906,47.363,0
1512870032.330,27.344,64.941,-7.812,50.293,76.172,0
1512870032.334,48.340,53.711,-11.230,48.340,26.367,0
1512870032.338,59.570,10.742,26.855,49.805,26.855,0
1512870032.342,80.566,-9.766,-1.465,46.875,76.660,0
1512870032.346,36.133,23.926,21.973,15.137,79.590,0
1512870032.350,-1.465,32.227,138.184,18.555,23.926,0
1512870032.354,22.461,13.672,118.652,48.828,13.672,0
1512870032.357,35.645,9.277,80.566,58.594,1.465,0
1512870032.361,28.320,9.277,45.410,23.926,-11.230,0
1512870032.365,19.531,24.414,2.930,20.508,-8.301,0
1512870032.369,26.855,37.598,28.809,34.668,-35.645,0
1512870032.373,0.488,51.270,55.664,39.551,-62.012,0
1512870032.377,-13.672,27.832,137.695,21.484,-38.574,0
1512870032.381,74.707,2.930,79.102,65.430,-4.395,0
1512870032.385,91.309,24.414,-60.059,81.055,-20.020,0
1512870032.389,60.059,32.715,18.066,32.715,-18.066,0
1512870032.393,40.039,9.766,115.723,28.320,-18.066,0
1512870032.397,24.902,22.949,27.832,26.367,-19.043,0
1512870032.400,52.734,31.250,-14.648,44.434,24.414,0
1512870032.404,49.316,23.926,22.461,61.523,47.363,0
1512870032.408,57.129,31.250,7.812,66.406,51.270,0
1512870032.412,37.109,25.879,30.273,66.406,72.266,0
1512870032.416,53.223,16.113,101.562,60.059,92.285,0
1512870032.420,15.137,29.297,89.844,26.367,125.977,0
1512870032.424,-46.387,24.902,157.715,-5.859,152.344,0
1512870032.428,25.879,19.531,97.168,19.043,112.305,0
1512870032.432,27.832,27.832,-20.508,53.711,64.453,0
1512870032.436,9.766,32.227,2.930,93.750,40.527,0
1512870032.440,80.566,19.531,36.133,82.520,10.742,0
1512870032.443,75.195,24.414,40.039,40.039,20.996,0
1512870032.447,58.105,39.062,-1.953,46.875,48.828,0
1512870032.451,-20.996,4.883,191.895,-2.930,61.035,0
1512870032.455,-8.301,21.484,100.098,44.922,96.191,0
1512870032.459,45.410,36.621,-39.062,84.961,158.691,0
1512870032.463,23.926,14.160,88.867,51.758,135.254,0
1512870032.467,17.090,27.344,99.609,34.668,90.820,0
1512870032.471,32.227,24.902,-13.184,30.273,137.695,0
1512870032.475,6.348,9.766,61.523,16.602,141.113,0
1512870032.479,18.555,35.156,58.594,76.660,147.461,0
1512870032.482,95.703,35.645,-53.711,145.508,163.086,0
1512870032.486,77.148,26.855,9.766,91.309,124.512,0
1512870032.490,31.738,13.184,27.832,46.387,113.770,0
1512870032.494,25.879,3.906,94.238,49.805,124.512,0
1512870032.498,41.016,20.508,83.984,35.645,133.789,0
1512870032.502,14.160,15.137,105.957,3.418,151.855,0
1512870032.506,12.695,34.180,66.895,15.137,137.695,0
1512870032.510,-15.137,27.344,21.973,44.434,174.316,0
1512870032.514,6.348,8.789,15.625,15.625,196.289,0
1512870032.518,64.453,7.812,30.273,10.742,154.785,0
1512870032.522,30.273,29.297,79.102,59.082,151.855,0
1512870032.525,38.574,41.992,-43.457,90.820,181.641,0
1512870032.529,36.621,12.207,-11.230,50.781,141.113,0
1512870032.533,28.809,7.324,42.480,34.668,132.324,0
1512870032.537,48.828,1.465,142.090,52.246,156.250,0
1512870032.541,20.020,25.391,136.719,25.391,129.883,0
1512870032.545,46.875,45.410,-28.809,50.293,153.809,0
1512870032.549,57.617,23.438,10.742,68.359,164.551,0
1512870032.553,41.016,15.137,37.109,63.477,155.762,0
1512870032.557,53.223,22.461,61.035,58.594,175.293,0
1512870032.561,56.641,24.902,92.773,67.871,157.227,0
1512870032.565,60.547,21.973,117.188,83.984,170.898,0
1512870032.568,32.715,25.391,86.426,28.809,174.805,0
1512870032.572,48.340,54.199,10.742,62.500,172.852,0
1512870032.576,75.195,41.992,49.805,101.562,189.453,0
1512870032.580,62.012,6.836,63.965,50.781,201.172,0
1512870032.584,17.090,3.906,89.844,20.508,175.293,0
1512870032.588,25.879,28.809,16.113,43.945,158.691,0
1512870032.592,70.312,41.016,-51.758,58.594,167.480,0
1512870032.596,27.344,20.996,-4.883,48.340,191.895,0
1512870032.600,27.344,28.320,13.672,55.664,205.566,0
1512870032.604,23.926,2.441,94.238,32.227,201.172,0
1512870032.607,20.996,4.395,3.906,2.930,192.383,0
1512870032.611,33.203,35.156,9.277,-20.020,173.340,0
1512870032.615,-6.348,7.324,170.898,-33.691,171.875,0
1512870032.619,-5.371,26.855,-41.992,-1.953,147.949,0
1512870032.623,6.348,11.719,38.574,0.977,127.930,0
1512870032.627,53.711,-4.883,145.020,65.430,145.020,0
1512870032.631,65.430,23.438,-14.648,124.023,136.230,0
1512870032.635,49.805,27.344,1.953,91.797,154.297,0
1512870032.639,75.195,23.438,14.160,68.848,183.594,0
1512870032.643,39.062,9.766,85.938,19.531,124.023,0
1512870032.647,3.418,28.320,85.449,21.484,79.590,0
1512870032.650,30.762,40.039,109.375,42.480,88.867,0
1512870032.654,42.969,15.137,85.938,40.527,93.750,0
1512870032.658,23.438,10.254,45.898,53.223,94.727,0
1512870032.662,17.090,10.742,-18.555,32.227,57.617,0
1512870032.666,20.020,24.902,-74.219,40.527,14.648,0
1512870032.670,25.391,46.875,-20.020,72.266,50.293,0
1512870032.674,22.461,45.898,49.316,66.895,90.820,0
1512870032.678,15.137,37.109,50.293,98.633,54.688,0
1512870032.682,6.348,17.090,51.758,56.641,20.508,0
1512870032.686,22.461,18.555,18.066,7.812,55.176,0
1512870032.690,10.742,7.812,-6.836,36.133,38.086,0
1512870032.693,-35.156,-12.695,68.848,24.414,18.555,0
1512870032.697,-40.039,21.484,62.988,30.762,41.504,0
1512870032.701,-49.805,23.926,13.672,21.973,13.184,0
1512870032.705,-17.090,-12.207,118.164,12.695,-15.625,0
1512870032.709,11.230,22.461,105.957,20.508,-42.480,0
1512870032.713,-5.859,29.297,48.340,-30.273,-26.367,0
1512870032.717,-6.836,2.441,48.340,1.465,-24.902,0
1512870032.721,-31.738,23.926,1.953,53.711,-31.738,0
1512870032.725,-42.969,45.410,27.344,19.531,-54.199,0
1512870032.729,-18.066,20.508,83.008,-0.977,-70.801,0
1512870032.732,4.395,-2.441,72.266,1.465,-32.715,0
1512870032.736,2.441,11.230,58.105,-11.719,-34.668,0
1512870032.740,4.395,16.113,63.965,-6.348,-61.523,0
1512870032.744,-7.324,41.016,4.883,35.645,-41.504,0
1512870032.748,-3.906,57.617,-2.930,46.875,-21.484,0
1512870032.752,21.973,32.715,63.477,29.785,-23.438,0
1512870032.756,43.945,25.391,58.105,17.090,-34.180,0
1512870032.760,52.246,15.137,30.273,42.480,-39.062,0
1512870032.764,66.895,23.438,-22.949,92.285,-46.875,0
1512870032.768,43.457,12.695,10.742,49.316,-25.391,0
1512870032.772,6.348,19.043,15.137,-28.320,-14.648,0
1512870032.775,31.738,41.504,57.129,-5.371,13.184,0
1512870032.779,100.586,43.945,60.059,96.191,-20.508,0
1512870032.783,120.605,63.477,56.152,131.836,-77.148,0
1512870032.787,69.336,41.992,107.910,86.914,-23.438,0
1512870032.791,50.293,15.137,52.246,48.340,-0.488,0
1512870032.795,49.316,12.207,49.805,7.812,-16.113,0
1512870032.799,70.312,20.508,51.270,47.852,-14.160,0
1512870032.803,92.773,35.156,33.691,70.312,-5.371,0
1512870032.807,98.633,44.434,18.555,77.637,-20.508,0
1512870032.811,62.012,21.484,87.402,36.621,-0.488,0
1512870032.815,62.012,24.902,43.945,21.484,-0.977,0
1512870032.818,21.973,28.320,34.180,23.438,-22.949,0
1512870032.822,2.441,27.832,43.945,2.930,52.246,0
1512870032.826,33.691,45.410,22.461,20.020,42.480,0
1512870032.830,-23.438,5.859,147.461,-41.992,8.301,0
1512870032.834,-8.789,21.484,69.824,-49.316,59.570,0
1512870032.838,45.410,46.387,-11.719,8.301,94.238,0
1512870032.842,31.738,22.949,-14.648,2.441,71.289,0
1512870032.846,41.016,26.855,-25.391,12.695,84.961,0
1512870032.850,50.781,13.184,10.254,63.965,103.516,0
1512870032.854,19.531,21.973,98.145,78.613,85.449,0
1512870032.857,-17.090,35.645,180.664,41.992,93.262,0
1512870032.861,17.090,13.672,65.430,41.992,126.465,0
1512870032.865,52.246,29.297,-28.809,57.129,135.742,0
1512870032.869,-30.273,20.508,39.062,9.277,122.559,0
1512870032.873,-32.227,1.953,99.609,-9.277,104.492,0
1512870032.877,-18.555,14.648,50.293,7.324,92.285,0
1512870032.881,4.395,17.578,-20.996,16.113,106.934,0
1512870032.885,64.453,12.207,12.695,70.801,124.023,0
1512870032.889,21.484,1.953,77.148,33.691,121.582,0
1512870032.893,32.227,25.391,66.895,25.879,121.582,0
1512870032.897,30.273,48.340,14.160,23.926,137.695,0
1512870032.900,-7.324,48.340,-19.043,10.254,140.137,0
1512870032.904,53.711,36.621,17.578,64.453,98.633,0
1512870032.908,46.875,3.906,83.984,34.668,89.844,0
1512870032.912,25.391,-1.465,108.398,12.695,136.230,0
1512870032.916,27.344,32.715,51.758,19.531,125.977,0
1512870032.920,20.996,54.199,1.465,14.160,120.605,0
1512870032.924,30.762,38.086,-6.348,7.324,129.395,0
1512870032.928,26.367,34.180,-22.949,19.043,139.648,0
1512870032.932,30.273,22.949,88.867,-10.742,128.906,0
1512870032.936,43.457,9.766,165.039,-15.137,109.375,0
1512870032.940,61.523,28.809,58.594,15.137,98.633,0
1512870032.943,78.125,56.641,-33.203,31.250,95.215,0
1512870032.947,41.504,60.059,-18.555,76.660,101.074,0
1512870032.951,27.832,26.367,52.734,77.637,85.449,0
1512870032.955,-13.672,2.930,191.406,-6.836,101.074,0
1512870032.959,0.000,30.273,85.938,-10.742,118.652,0
1512870032.963,58.105,39.551,-61.523,50.293,83.496,0
1512870032.967,38.086,37.598,-41.992,32.715,50.781,0
1512870032.971,48.340,64.941,-20.508,39.062,96.191,0
1512870032.975,70.312,70.312,0.488,69.336,94.727,0
1512870032.979,74.707,52.246,-0.977,79.590,74.707,0
1512870032.982,57.129,39.551,34.668,70.801,83.008,0
1512870032.986,37.109,23.926,57.617,46.387,59.082,0
1512870032.990,53.223,25.879,79.590,61.035,51.758,0
1512870032.994,49.316,34.668,82.520,43.945,27.832,0
1512870032.998,34.180,19.531,67.383,0.488,8.301,0
1512870033.002,35.156,37.109,34.180,6.836,29.785,0
1512870033.006,26.855,43.945,24.902,-18.066,24.414,0
1512870033.010,4.883,26.367,87.402,-23.438,6.836,0
1512870033.014,16.602,39.551,6.348,33.691,10.742,0
1512870033.018,26.855,40.039,-22.949,22.949,4.883,0
1512870033.022,28.320,36.621,18.555,11.230,-23.926,0
1512870033.025,17.090,32.715,15.137,38.086,-20.996,0
1512870033.029,-2.441,34.668,38.574,23.438,-6.836,0
1512870033.033,18.555,43.945,51.758,1.953,-20.508,0
1512870033.037,30.273,38.086,14.648,4.395,-21.484,0
1512870033.041,31.250,24.902,65.430,-17.578,-42.480,0
1512870033.045,20.996,28.320,120.605,-42.480,-21.973,0
1512870033.049,39.551,40.527,-0.977,4.883,35.645,0
1512870033.053,37.598,32.715,5.859,48.340,13.672,0
1512870033.057,11.230,18.066,-0.977,7.324,-11.230,0
1512870033.061,15.625,6.836,-8.789,16.602,22.461,0
1512870033.065,27.832,12.695,58.105,57.129,22.461,0
1512870033.068,9.277,14.160,30.273,30.273,16.113,0
1512870033.072,14.648,36.133,-15.625,27.832,7.324,0
1512870033.076,30.762,33.691,7.324,20.996,3.906,0
1512870033.080,12.695,15.137,55.664,8.789,0.000,0
1512870033.084,23.926,29.785,38.574,26.855,-8.301,0
1512870033.088,20.020,23.438,97.168,19.531,2.441,0
1512870033.092,20.020,17.578,88.379,24.414,19.531,0
1512870033.096,34.180,24.414,27.832,54.199,16.113,0
1512870033.100,32.227,35.156,39.062,73.242,-16.113,0
1512870033.104,68.848,32.227,-0.977,74.219,-33.203,0
1512870033.107,78.613,41.504,1.953,58.594,0.000,0
1512870033.111,37.598,50.781,12.207,48.828,-1.953,0
1512870033.115,34.180,25.391,30.762,39.551,-39.062,0
1512870033.119,26.367,-3.906,75.195,39.062,-34.180,0
1512870033.123,-5.371,-1.465,119.141,28.320,-23.926,0
1512870033.127,29.297,-2.441,72.266,35.645,-32.715,0
1512870033.131,41.992,0.488,-33.691,38.086,-51.270,0
1512870033.135,13.184,7.324,10.254,18.555,-51.270,0
1512870033.139,47.852,14.160,57.129,38.086,-16.602,0
1512870033.143,65.430,35.645,66.895,49.316,-20.508,0
1512870033.147,52.246,23.926,114.258,39.551,-29.297,0
1512870033.150,60.547,10.254,-8.301,50.781,1.465,0
1512870033.154,34.668,8.789,19.531,50.293,-1.465,0
1512870033.158,23.438,10.254,98.633,78.125,-34.668,0
1512870033.162,66.406,32.715,-19.531,99.609,-7.812,0
1512870033.166,54.688,16.113,10.254,64.453,50.293,0
1512870033.170,42.480,19.043,70.801,52.246,41.992,0
1512870033.174,21.484,27.344,86.426,41.016,21.484,0
1512870033.178,15.625,12.207,17.578,70.801,36.133,0
1512870033.182,17.578,15.137,55.176,52.246,45.898,0
1512870033.186,17.090,7.324,89.355,36.133,52.246,0
1512870033.190,31.738,9.277,59.570,54.688,28.320,0
1512870033.193,39.551,-0.488,92.773,41.016,12.207,0
1512870033.197,74.219,14.160,-3.906,58.105,55.176,0
1512870033.201,61.035,52.246,34.668,57.129,72.266,0
1512870033.205,46.875,31.738,67.871,75.684,46.875,0
1512870033.209,71.289,17.090,22.461,83.008,80.566,0
1512870033.213,38.086,23.926,106.445,20.996,90.332,0
1512870033.217,20.020,36.621,35.645,9.277,63.477,0
1512870033.221,38.086,48.340,20.996,61.523,42.969,0
1512870033.225,36.133,9.766,-12.207,15.625,41.992,0
1512870033.229,17.578,-7.324,-67.871,-23.926,62.988,0
1512870033.232,-5.371,27.344,72.754,-4.883,20.508,0
1512870033.236,26.367,50.293,32.715,20.996,-11.719,0
1512870033.240,58.105,32.715,13.672,45.410,7.812,0
1512870033.244,17.090,19.531,74.707,32.715,14.648,0
1512870033.248,12.695,38.086,73.730,16.113,0.488,0
1512870033.252,14.160,36.133,34.668,24.414,-16.113,0
1512870033.256,3.418,6.348,81.055,14.648,5.859,0
1512870033.260,3.906,37.109,109.863,15.137,10.742,0
1512870033.264,34.668,62.012,61.035,29.785,9.277,0
1512870033.268,59.082,37.109,23.926,76.660,8.301,0
1512870033.272,59.082,41.504,-18.066,106.445,14.648,0
1512870033.275,48.340,53.223,6.836,92.773,33.691,0
1512870033.279,42.969,52.246,71.289,50.293,-0.488,0
1512870033.283,57.129,10.742,62.012,33.203,-1.465,0
1512870033.287,71.777,-28.809,58.594,77.148,40.039,0
1512870033.291,62.012,17.578,59.570,95.215,6.836,0
1512870033.295,44.434,34.180,75.684,59.570,-22.461,0
1512870033.299,90.820,36.133,0.000,92.285,-3.418,0
1512870033.303,116.211,47.852,43.945,116.699,-16.602,0
1512870033.307,100.098,11.719,73.242,124.023,-36.133,0
1512870033.311,72.754,13.184,6.348,137.695,-38.574,0
1512870033.315,61.523,30.762,81.543,104.492,-38.574,0
1512870033.318,80.566,-2.930,99.121,83.984,-30.273,0
1512870033.322,76.660,-53.711,106.445,45.410,-45.410,0
1512870033.326,67.871,-49.805,86.914,18.066,-48.340,0
1512870033.330,103.516,40.527,46.387,87.402,-25.879,0
1512870033.334,124.023,86.914,92.773,121.582,-46.387,0
1512870033.338,81.055,59.082,73.242,99.121,-77.637,0
1512870033.342,108.887,32.715,9.766,90.332,-83.496,0
1512870033.346,126.953,14.160,44.922,75.684,-69.824,0
1512870033.350,88.379,-26.367,97.656,41.504,-94.727,0
1512870033.354,93.750,0.977,28.809,50.293,-106.934,0
1512870033.357,96.680,36.621,15.137,80.566,-92.773,0
1512870033.361,78.613,19.043,94.727,60.547,-90.820,0
1512870033.365,118.164,11.719,41.992,48.828,-106.445,0
1512870033.369,144.531,-10.254,85.449,65.918,-135.254,0
1512870033.373,117.676,-34.668,109.863,71.777,-151.367,0
1512870033.377,86.426,-40.527,104.492,46.387,-105.469,0
1512870033.381,112.793,10.254,113.770,72.266,-48.828,0
1512870033.385,125.977,26.367,65.918,119.141,-33.691,0
1512870033.389,100.098,-59.570,92.285,98.633,-41.016,0
1512870033.393,125.977,-51.270,79.102,106.445,-40.527,0
1512870033.397,128.906,-24.902,63.477,118.652,-52.734,0
1512870033.400,79.102,-28.320,163.086,101.074,-60.547,0
1512870033.404,70.312,65.918,94.238,59.570,-47.852,0
1512870033.408,120.605,66.895,2.441,77.637,-61.035,0
1512870033.412,162.598,17.090,25.391,146.484,-79.102,0
1512870033.416,166.992,20.996,41.992,145.020,-70.801,0
1512870033.420,139.160,34.668,41.016,123.535,-67.383,0
1512870033.424,115.723,36.621,19.531,119.629,-18.555,0
1512870033.428,122.559,-0.488,85.449,109.375,-27.344,0
1512870033.432,129.395,-6.348,108.398,110.840,-65.430,0
1512870033.436,106.445,-0.488,76.660,127.930,-40.039,0
1512870033.440,163.086,13.184,81.055,185.059,-17.578,0
1512870033.443,210.938,81.055,194.336,176.270,-27.344,0
1512870033.447,177.734,87.891,253.906,119.629,-46.387,0
1512870033.451,186.523,55.664,150.391,123.047,-60.059,0
1512870033.455,181.641,85.449,138.184,124.023,-54.199,0
1512870033.459,174.805,84.961,122.070,137.695,-25.391,0
1512870033.463,188.477,62.012,56.152,153.320,-22.949,0
1512870033.467,152.832,41.992,147.949,130.371,-35.156,0
1512870033.471,105.469,37.109,181.152,88.867,2.441,0
1512870033.475,104.004,38.086,115.234,104.492,45.410,0
1512870033.479,116.211,-3.418,113.770,104.004,46.387,0
1512870033.482,102.051,-4.395,41.016,65.918,23.438,0
1512870033.486,66.895,-2.441,-0.488,49.805,16.602,0
1512870033.490,60.547,9.766,92.285,45.410,61.523,0
1512870033.494,77.148,55.176,24.414,68.359,79.102,0
1512870033.498,66.406,84.961,-42.480,84.473,49.805,0
1512870033.502,56.152,27.344,70.312,79.590,72.754,0
1512870033.506,60.059,-63.965,210.449,60.547,102.539,0
1512870033.510,66.406,1.465,154.297,63.477,81.543,0
1512870033.514,55.664,53.711,-33.203,118.652,100.098,0
1512870033.518,99.121,-6.348,49.316,123.047,170.898,0
1512870033.522,95.215,4.883,8.789,104.004,150.879,0
1512870033.525,26.855,10.742,14.648,112.305,127.930,0
1512870033.529,50.293,4.883,99.609,102.051,113.770,0
1512870033.533,49.805,23.438,122.070,73.242,143.066,0
1512870033.537,14.648,3.418,146.484,51.758,178.223,0
1512870033.541,50.781,10.742,142.578,41.504,158.691,0
1512870033.545,71.289,40.039,49.805,104.980,199.707,0
1512870033.549,88.867,51.270,1.953,166.504,197.266,0
1512870033.553,120.605,38.086,53.711,141.113,183.105,0
1512870033.557,89.844,29.785,83.496,99.121,241.211,0
1512870033.561,57.617,15.625,145.996,69.336,194.824,0
1512870033.565,41.504,3.906,125.488,56.641,222.656,0
1512870033.568,93.262,26.855,60.547,73.242,222.656,0
1512870033.572,160.156,27.344,45.898,116.699,172.852,0
1512870033.576,170.898,25.879,9.277,127.930,206.543,0
1512870033.580,118.652,9.277,53.223,82.520,257.812,0
1512870033.584,71.777,-21.484,69.824,53.223,224.609,0
1512870033.588,78.613,-4.883,-56.641,83.496,210.449,0
1512870033.592,77.148,36.133,-16.602,86.426,262.695,0
1512870033.596,102.051,45.410,54.199,111.328,210.449,0
1512870033.600,90.820,1.465,77.637,143.555,164.551,0
1512870033.604,92.285,-13.672,161.133,95.215,200.195,0
1512870033.607,119.629,11.719,82.520,87.402,230.469,0
1512870033.611,122.559,36.621,16.602,111.328,270.996,0
1512870033.615,86.914,13.672,101.562,69.336,282.715,0
1512870033.619,41.504,-8.789,38.086,36.133,245.117,0
1512870033.623,68.359,24.414,64.453,96.191,257.812,0
1512870033.627,81.543,17.090,145.996,129.395,271.973,0
1512870033.631,41.992,11.230,100.586,86.914,279.785,0
1512870033.635,39.551,18.555,10.742,65.430,267.090,0
1512870033.639,32.715,9.277,138.672,98.633,231.445,0
1512870033.643,28.809,15.625,187.012,89.355,240.234,0
1512870033.647,56.641,42.480,2.441,80.078,248.535,0
1512870033.650,51.270,55.176,12.695,97.656,223.633,0
1512870033.654,16.113,18.066,61.035,83.008,236.816,0
1512870033.658,31.250,-32.715,82.520,86.426,223.633,0
1512870033.662,63.965,-15.137,67.383,91.797,223.145,0
1512870033.666,66.406,20.508,1.953,89.355,268.555,0
1512870033.670,65.430,24.414,9.277,111.816,215.820,0
1512870033.674,19.531,27.832,14.160,66.895,170.410,0
1512870033.678,33.691,27.344,24.414,14.160,196.777,0
1512870033.682,63.965,8.301,87.891,49.316,178.711,0
1512870033.686,43.457,-15.625,61.523,76.660,162.109,0
1512870033.690,39.551,-40.039,83.496,85.938,185.059,0
1512870033.693,42.480,0.977,139.160,89.355,172.852,0
1512870033.697,81.543,60.059,67.383,108.887,201.660,0
1512870033.701,98.145,49.805,78.613,91.797,260.254,0
1512870033.705,85.938,47.852,14.160,71.289,226.074,0
1512870033.709,58.594,27.344,9.277,90.332,173.340,0
1512870033.713,23.438,-4.395,50.293,75.195,163.574,0
1512870033.717,61.523,-33.203,91.309,67.383,233.887,0
1512870033.721,87.402,-32.227,93.262,58.594,221.191,0
1512870033.725,131.348,34.668,-42.480,71.777,210.938,0
1512870033.729,109.863,53.711,82.520,57.617,215.332,0
1512870033.732,30.762,10.254,235.352,62.988,196.289,0
1512870033.736,40.527,20.508,94.727,67.871,198.242,0
1512870033.740,72.266,27.344,-2.441,52.246,120.117,0
1512870033.744,69.336,5.859,58.105,48.340,146.973,0
1512870033.748,70.801,12.207,36.621,55.664,206.055,0
1512870033.752,68.848,-18.066,53.711,43.457,217.773,0
1512870033.756,53.711,-36.133,124.512,52.246,216.797,0
1512870033.760,40.039,8.789,8.789,65.430,209.473,0
1512870033.764,19.531,16.602,-42.969,45.410,180.664,0
1512870033.768,73.242,23.438,-58.594,90.332,137.207,0
1512870033.772,64.453,13.672,58.594,106.445,121.094,0
1512870033.775,32.715,-2.930,145.508,52.734,147.949,0
1512870033.779,42.480,-3.418,103.516,44.922,163.574,0
1512870033.783,62.500,20.020,-1.953,80.566,143.555,0
1512870033.787,23.438,9.277,32.227,27.344,151.855,0
1512870033.791,0.000,-0.977,139.160,-13.184,130.371,0
1512870033.795,25.879,27.832,70.312,42.969,53.223,0
1512870033.799,26.367,18.555,-26.367,83.008,42.969,0
1512870033.803,26.855,18.066,-21.973,68.848,92.285,0
1512870033.807,55.176,46.875,23.438,82.031,101.074,0
1512870033.811,57.617,62.988,50.781,48.340,109.375,0
1512870033.815,44.922,42.969,56.641,25.879,85.449,0
1512870033.818,36.133,43.457,10.742,81.055,49.805,0
1512870033.822,19.043,24.414,109.375,72.266,27.832,0
1512870033.826,5.859,13.184,167.969,13.184,6.348,0
1512870033.830,44.922,28.809,34.180,27.832,20.996,0
1512870033.834,88.379,20.996,-22.461,52.734,16.113,0
1512870033.838,25.391,-8.301,84.961,-19.531,47.852,0
1512870033.842,78.613,31.738,27.344,3.906,71.289,0
1512870033.846,101.074,74.219,26.367,37.109,22.949,0
1512870033.850,67.383,69.824,20.020,32.715,-11.719,0
1512870033.854,68.359,72.754,-2.441,47.852,10.254,0
1512870033.857,56.641,50.781,46.387,21.973,19.531,0
1512870033.861,72.266,48.828,-25.879,13.672,-29.297,0
1512870033.865,65.918,34.180,-0.488,13.184,9.766,0
1512870033.869,67.383,16.602,64.453,24.414,7.812,0
1512870033.873,42.480,32.715,19.043,42.969,-55.176,0
1512870033.877,10.254,44.434,95.215,18.066,-22.949,0
1512870033.881,19.043,9.277,126.953,-12.695,-9.766,0
1512870033.885,82.031,19.043,-5.859,56.152,-99.121,0
1512870033.889,73.242,35.645,74.219,93.750,-50.781,0
1512870033.893,39.551,46.875,47.363,27.832,18.066,0
1512870033.897,28.809,31.738,24.414,19.531,1.465,0
1512870033.900,10.254,-15.137,38.086,28.320,30.762,0
1512870033.904,2.441,20.508,-6.348,39.551,17.578,0
1512870033.908,44.434,65.430,8.301,88.867,-17.578,0
1512870033.912,84.961,38.086,22.949,82.520,-46.875,0
1512870033.916,103.516,-2.930,20.020,60.547,-20.996,0
1512870033.920,86.426,0.000,-17.578,59.082,12.207,0
1512870033.924,52.246,20.508,42.969,50.293,19.531,0
1512870033.928,41.504,31.738,142.578,71.777,18.066,0
1512870033.932,80.566,51.758,87.402,100.586,7.812,0
1512870033.936,136.230,48.340,125.000,125.488,-10.254,0
1512870033.940,178.711,52.246,61.523,165.527,-2.441,0
1512870033.943,185.547,49.805,32.227,184.570,-14.648,0
1512870033.947,143.555,10.742,112.793,105.957,20.996,0
1512870033.951,92.285,-9.766,204.102,-11.230,23.926,0
1512870033.955,115.723,39.062,130.859,43.457,21.484,0
1512870033.959,160.645,82.031,-18.555,102.051,47.852,0
1512870033.963,170.898,75.195,-4.395,124.512,18.066,0
1512870033.967,188.477,71.777,17.090,164.551,47.852,0
1512870033.971,160.645,8.789,145.996,102.051,42.480,0
1512870033.975,163.086,0.488,88.867,99.609,-20.020,0
1512870033.979,175.781,33.203,-68.359,115.234,-20.996,0
1512870033.982,140.137,30.762,64.941,109.375,41.992,0
1512870033.986,140.625,41.992,94.238,111.816,50.781,0
1512870033.990,132.324,25.879,62.012,72.754,13.672,0
1512870033.994,109.863,2.441,130.371,45.898,-2.930,0
1512870033.998,59.570,18.066,139.160,-3.418,3.906,0
1512870034.002,44.922,41.504,34.668,-5.859,15.137,0
1512870034.006,87.402,26.367,34.668,50.293,53.223,0
1512870034.010,88.867,15.137,67.383,78.125,87.402,0
1512870034.014,62.988,0.977,59.570,81.543,142.090,0
1512870034.018,62.500,-4.883,50.293,64.941,185.059,0
1512870034.022,46.387,10.742,-11.719,67.871,143.066,0
1512870034.025,73.730,14.160,-4.395,97.168,102.539,0
1512870034.029,88.379,15.137,45.898,120.117,129.395,0
1512870034.033,52.734,-20.508,70.312,82.520,132.324,0
1512870034.037,72.266,10.742,43.457,54.199,138.184,0
1512870034.041,70.312,52.734,20.508,100.586,167.480,0
1512870034.045,70.312,7.812,16.602,91.797,137.207,0
1512870034.049,65.430,-25.879,33.691,52.246,118.652,0
1512870034.053,37.598,15.137,66.895,70.312,122.559,0
1512870034.057,73.242,31.250,59.082,42.969,80.566,0
1512870034.061,71.289,22.461,107.422,11.719,59.082,0
1512870034.065,56.641,36.621,141.113,55.664,71.289,0
1512870034.068,45.898,21.484,63.965,56.641,99.609,0
1512870034.072,71.289,24.902,-48.828,40.527,120.117,0
1512870034.076,91.309,31.738,43.945,57.617,56.641,0
1512870034.080,43.945,20.996,89.844,33.691,45.898,0
1512870034.084,56.641,28.809,36.621,46.875,74.707,0
1512870034.088,68.359,43.457,62.500,67.383,63.965,0
1512870034.092,50.781,52.734,35.645,55.176,34.180,0
1512870034.096,31.250,62.500,51.270,28.809,69.824,0
1512870034.100,31.250,37.109,124.512,9.277,104.004,0
1512870034.104,54.199,21.973,86.914,27.832,135.254,0
1512870034.107,60.059,0.488,-13.184,62.500,140.137,0
1512870034.111,67.871,-14.160,-1.953,81.055,119.629,0
1512870034.115,79.590,1.953,59.082,75.684,107.910,0
1512870034.119,60.547,3.906,8.789,65.430,87.402,0
1512870034.123,47.363,32.227,27.832,47.852,81.543,0
1512870034.127,37.109,27.832,64.453,12.207,104.004,0
1512870034.131,-0.488,8.301,61.035,28.809,160.156,0
1512870034.135,19.043,16.113,99.609,71.289,147.949,0
1512870034.139,19.531,24.902,124.023,67.871,126.953,0
1512870034.143,10.254,24.902,101.074,61.523,126.953,0
1512870034.147,0.000,23.926,51.270,25.391,123.535,0
1512870034.150,0.000,35.156,-20.996,9.277,153.809,0
1512870034.154,33.691,47.852,-41.504,41.504,169.434,0
1512870034.158,77.148,41.504,33.691,79.590,76.660,0
1512870034.162,79.590,-0.977,48.340,104.492,87.402,0
1512870034.166,63.477,-6.348,-6.836,98.145,135.742,0
1512870034.170,9.766,8.789,94.238,16.602,66.406,0
1512870034.174,6.348,60.059,89.844,38.086,81.543,0
1512870034.178,46.875,86.914,43.457,72.266,80.078,0
1512870034.182,65.918,75.195,-53.223,55.176,16.113,0
1512870034.186,47.363,27.832,-39.062,55.664,35.645,0
1512870034.190,-7.812,-18.555,165.527,16.113,7.812,0
1512870034.193,6.348,18.555,108.887,13.672,5.859,0
1512870034.197,31.738,64.941,-62.012,41.016,31.250,0
1512870034.201,43.945,36.133,-14.648,56.152,7.324,0
1512870034.205,32.227,6.348,74.219,13.184,19.043,0
1512870034.209,30.273,25.391,78.613,-5.859,46.387,0
1512870034.213,67.383,3.906,93.750,43.457,100.098,0
1512870034.217,53.223,2.441,39.062,59.082,99.121,0
1512870034.221,51.270,21.973,54.688,56.152,69.824,0
1512870034.225,87.891,45.898,80.078,88.379,97.168,0
1512870034.229,49.316,14.648,43.945,26.855,61.523,0
1512870034.232,38.574,3.418,17.578,17.090,68.359,0
1512870034.236,88.867,29.297,-14.160,79.102,86.914,0
1512870034.240,73.730,24.902,40.527,17.578,76.172,0
1512870034.244,33.203,48.340,-94.727,5.859,68.848,0
1512870034.248,58.594,30.273,-84.473,56.641,-1.465,0
1512870034.252,121.582,5.371,98.145,112.793,35.156,0
1512870034.256,113.770,15.625,60.059,122.070,103.516,0
1512870034.260,54.688,17.090,124.023,37.109,16.113,0
1512870034.264,18.555,19.531,144.531,2.930,4.883,0
1512870034.268,15.625,26.855,30.273,18.555,50.781,0
1512870034.272,53.223,22.949,-11.230,70.801,22.949,0
1512870034.275,68.848,22.949,36.133,106.934,41.016,0
1512870034.279,63.477,13.672,83.008,80.566,66.895,0
1512870034.283,81.055,34.668,-27.832,87.891,79.590,0
1512870034.287,64.453,47.363,-19.043,21.484,20.020,0
1512870034.291,28.320,29.297,104.492,-47.363,39.062,0
1512870034.295,45.410,14.160,31.738,22.949,46.875,0
1512870034.299,58.105,-6.348,104.492,24.902,19.531,0
1512870034.303,65.918,17.578,70.801,23.926,-3.418,0
1512870034.307,65.430,23.926,-52.734,56.152,-43.457,0
1512870034.311,24.414,22.949,62.988,41.992,11.230,0
1512870034.315,31.250,28.320,47.852,21.973,50.293,0
1512870034.318,63.965,49.805,-76.660,18.066,32.715,0
1512870034.322,87.891,52.246,-42.480,46.875,25.879,0
1512870034.326,85.938,24.414,50.781,32.227,13.184,0
1512870034.330,47.363,26.855,66.895,19.043,-21.484,0
1512870034.334,37.109,11.230,112.793,-12.695,-62.988,0
1512870034.338,50.293,12.207,94.238,-46.875,-62.012,0
1512870034.342,75.195,39.551,-81.543,-3.418,-14.160,0
1512870034.346,86.426,51.758,-125.488,52.246,-41.016,0
1512870034.350,90.332,41.016,15.625,65.430,-75.195,0
1512870034.354,113.281,-8.789,54.688,45.410,-70.312,0
1512870034.357,94.238,-16.602,97.168,35.645,-78.125,0
1512870034.361,72.266,26.367,51.758,33.203,-51.758,0
1512870034.365,36.133,25.391,130.859,-23.438,5.859,0
1512870034.369,56.641,43.945,128.418,-23.438,-8.301,0
1512870034.373,94.238,37.109,23.926,19.043,-69.336,0
1512870034.377,58.105,39.062,-0.977,34.668,-53.711,0
1512870034.381,73.242,61.035,-51.758,45.898,-50.781,0
1512870034.385,99.121,40.039,28.809,33.203,-80.078,0
1512870034.389,80.566,37.598,81.055,29.785,-20.508,0
1512870034.393,22.949,42.480,56.152,2.930,-22.949,0
1512870034.397,16.113,9.766,34.668,-26.855,-12.695,0
1512870034.400,8.789,-0.977,57.617,-67.871,-1.953,0
1512870034.404,20.508,21.973,135.742,-46.387,-8.789,0
1512870034.408,65.918,26.367,49.805,46.875,20.020,0
1512870034.412,82.031,20.996,-19.043,54.688,60.059,0
1512870034.416,100.098,28.809,-58.105,34.180,104.004,0
1512870034.420,95.703,35.156,-89.844,94.727,139.160,0
1512870034.424,61.523,31.738,64.941,92.773,137.207,0
1512870034.428,25.391,56.152,96.191,51.758,137.695,0
1512870034.432,-4.395,59.082,60.059,4.883,82.031,0
1512870034.436,4.883,35.645,-0.488,9.277,28.809,0
1512870034.440,37.109,17.578,100.098,31.738,15.137,0
1512870034.443,5.371,23.926,133.301,-3.906,-29.785,0
1512870034.447,-52.246,29.297,-11.230,-51.270,-27.832,0
1512870034.451,24.902,31.738,11.719,-47.852,-18.066,0
1512870034.455,52.246,43.945,15.137,-27.832,-81.055,0
1512870034.459,29.785,36.621,56.152,0.977,-92.285,0
1512870034.463,27.832,49.316,86.914,-14.648,-13.672,0
1512870034.467,78.613,77.637,-34.180,-5.371,41.016,0
1512870034.471,85.449,65.918,12.695,6.836,45.898,0
1512870034.475,29.785,62.988,38.574,12.695,98.633,0
1512870034.479,-16.602,74.707,10.254,1.953,153.809,0
1512870034.482,26.855,76.172,-8.301,-37.598,205.078,0
1512870034.486,66.406,96.191,-47.363,-18.066,222.168,0
1512870034.490,34.180,96.680,2.930,-27.832,243.164,0
1512870034.494,57.617,67.871,67.871,-26.855,264.648,0
1512870034.498,29.297,59.082,41.504,-45.898,285.645,0
1512870034.502,21.484,68.848,-12.695,-50.293,264.160,0
1512870034.506,28.320,102.051,-47.363,-16.602,178.223,0
1512870034.510,14.648,102.539,74.219,-61.523,160.645,0
1512870034.514,11.230,84.961,88.867,-48.828,150.391,0
1512870034.518,-36.621,79.590,-23.926,-35.645,97.656,0
1512870034.522,-70.801,76.660,61.523,-85.449,87.891,0
1512870034.525,-8.301,92.773,-52.246,-64.941,154.297,0
1512870034.529,15.625,94.727,-140.137,-27.344,163.086,0
1512870034.533,31.738,103.027,-44.922,24.414,187.500,0
1512870034.537,29.785,108.887,-21.973,49.805,244.141,0
1512870034.541,-22.949,88.379,16.113,-12.695,224.609,0
1512870034.545,-13.184,63.965,139.160,-32.715,218.750,0
1512870034.549,35.156,62.500,20.508,19.043,231.934,0
1512870034.553,37.598,60.547,-66.406,9.766,228.027,0
1512870034.557,13.184,48.828,65.918,-24.902,240.234,0
1512870034.561,9.277,69.824,-12.695,-83.496,247.070,0
1512870034.565,17.090,76.172,-36.621,-53.223,204.102,0
1512870034.568,88.379,56.641,56.641,67.383,140.137,0
1512870034.572,81.055,47.363,33.691,42.969,167.480,0
1512870034.576,24.414,20.020,80.566,-3.418,203.125,0
1512870034.580,42.480,20.508,115.723,16.113,186.523,0
1512870034.584,59.082,29.785,-6.836,15.625,194.336,0
1512870034.588,62.012,9.766,52.246,-0.488,255.859,0
1512870034.592,91.797,9.766,102.051,44.434,242.188,0
1512870034.596,120.117,10.254,38.574,70.801,183.594,0
1512870034.600,114.746,1.953,4.395,75.684,214.844,0
1512870034.604,140.625,17.090,-23.438,105.957,226.562,0
1512870034.607,126.953,-0.977,84.961,96.191,215.332,0
1512870034.611,82.031,-11.230,102.539,55.664,244.629,0
1512870034.615,79.590,-21.484,85.938,62.500,237.305,0
1512870034.619,65.430,-21.973,35.645,51.270,208.008,0
1512870034.623,131.348,-8.301,-34.180,58.594,238.770,0
1512870034.627,131.836,-14.648,129.883,70.312,170.898,0
1512870034.631,123.047,6.348,80.566,96.680,100.586,0
1512870034.635,158.691,10.254,-33.203,81.543,164.551,0
1512870034.639,74.707,-39.062,201.172,0.488,137.207,0
1512870034.643,65.918,-12.695,82.520,47.363,104.004,0
1512870034.647,111.816,-13.672,-64.453,73.242,169.434,0
1512870034.650,138.672,-49.805,13.184,51.270,137.207,0
1512870034.654,190.430,-5.859,150.391,87.402,88.867,0
1512870034.658,128.418,4.883,204.590,22.461,89.355,0
1512870034.662,92.285,5.371,84.473,-19.043,4.883,0
1512870034.666,118.164,-8.789,14.648,33.203,8.789,0
1512870034.670,156.738,10.742,-61.523,77.637,29.785,0
1512870034.674,249.023,14.648,-40.527,128.418,21.484,0
1512870034.678,229.492,18.066,-21.973,159.180,60.059,0
1512870034.682,97.168,5.859,64.453,50.781,36.133,0
1512870034.686,69.824,-27.344,71.289,-25.391,11.719,0
1512870034.690,129.395,1.465,9.766,-7.324,-5.371,0
1512870034.693,160.156,4.395,4.883,53.711,35.645,0
1512870034.697,139.648,-7.812,18.066,85.938,-6.836,0
1512870034.701,149.902,7.324,69.336,39.062,-49.805,0
1512870034.705,168.945,-4.883,114.746,18.066,23.438,0
1512870034.709,151.855,-10.742,132.812,13.184,12.207,0
1512870034.713,112.305,10.254,98.145,22.461,-40.527,0
1512870034.717,89.355,15.625,52.246,6.348,-9.766,0
1512870034.721,123.535,-3.906,55.176,14.648,-23.438,0
1512870034.725,160.156,-28.809,73.730,26.367,-41.016,0
1512870034.729,166.016,-34.668,63.965,7.812,10.254,0
1512870034.732,169.434,9.766,-15.137,46.387,5.371,0
1512870034.736,176.758,41.504,-2.930,54.688,-29.297,0
1512870034.740,133.789,27.344,26.367,28.809,-16.113,0
1512870034.744,114.746,32.227,-60.059,-21.484,-16.602,0
1512870034.748,137.207,52.246,-123.535,22.949,42.480,0
1512870034.752,137.207,59.570,33.203,63.965,80.566,0
1512870034.756,160.645,38.086,66.895,49.316,74.219,0
1512870034.760,190.918,-5.859,-14.160,68.848,86.914,0
1512870034.764,124.023,-28.809,152.344,33.691,58.594,0
1512870034.768,114.258,-17.578,169.922,6.348,-1.465,0
1512870034.772,144.531,20.996,-20.508,33.203,75.684,0
1512870034.775,95.215,5.859,18.555,15.137,84.961,0
1512870034.779,154.297,20.996,58.594,19.043,36.133,0
1512870034.783,209.961,33.691,65.430,63.965,33.203,0
1512870034.787,166.504,6.836,56.152,81.543,78.613,0
1512870034.791,153.320,13.184,19.531,53.223,96.680,0
1512870034.795,121.094,26.855,72.754,28.809,6.836,0
1512870034.799,134.277,45.898,-4.395,35.645,-25.391,0
1512870034.803,140.137,45.410,-20.508,47.852,-15.137,0
1512870034.807,112.793,21.484,86.914,57.617,11.719,0
1512870034.811,118.164,-7.812,88.379,46.387,48.340,0
1512870034.815,156.738,-23.926,9.766,46.875,86.914,0
1512870034.818,161.621,1.953,-87.891,63.477,77.148,0
1512870034.822,124.512,44.434,-14.648,70.312,3.418,0
1512870034.826,89.844,17.578,107.422,52.734,11.719,0
1512870034.830,78.125,-18.555,94.238,14.160,56.152,0
1512870034.834,103.027,20.508,22.949,20.996,-2.441,0
1512870034.838,84.961,53.223,26.367,15.625,-5.371,0
1512870034.842,57.617,47.363,45.898,-27.344,17.578,0
1512870034.846,68.848,46.387,24.902,-4.395,21.973,0
1512870034.850,62.012,27.832,99.609,18.555,-11.230,0
1512870034.854,14.160,-1.953,148.926,24.902,-49.316,0
1512870034.857,70.801,26.367,-11.230,65.918,6.836,0
1512870034.861,123.535,25.391,-41.504,55.664,34.180,0
1512870034.865,83.496,-30.273,54.688,27.344,35.645,0
1512870034.869,107.422,0.488,-36.133,51.270,33.203,0
1512870034.873,56.152,64.941,-21.973,29.297,-9.277,0
1512870034.877,63.477,59.570,34.668,36.621,-2.930,0
1512870034.881,106.445,42.480,86.914,37.598,89.355,0
1512870034.885,25.879,27.832,176.758,-50.293,129.395,0
1512870034.889,-4.395,0.000,164.551,-76.172,208.984,0
1512870034.893,46.875,12.207,31.738,-32.715,408.203,0
1512870034.897,98.633,37.109,-82.520,36.621,568.359,0
1512870034.900,62.012,41.992,-76.172,38.086,682.617,0
1512870034.904,83.008,51.758,21.484,23.926,829.102,0
1512870034.908,89.355,26.855,90.332,28.320,947.754,0
1512870034.912,40.527,34.180,34.668,49.805,998.047,0
1512870034.916,33.691,37.109,90.820,47.363,998.047,0
1512870034.920,59.570,8.301,85.449,34.180,998.535,0
1512870034.924,103.027,28.809,12.695,69.824,999.512,0
1512870034.928,89.355,40.039,-26.367,85.938,999.512,0
1512870034.932,57.617,50.293,-80.566,57.129,999.512,0
1512870034.936,86.914,40.039,-27.832,35.156,999.512,0
1512870034.940,102.539,28.320,1.953,41.016,999.512,0
1512870034.943,99.121,27.832,78.125,65.430,999.512,0
1512870034.947,141.602,20.996,92.285,123.535,999.512,0
1512870034.951,65.430,11.719,95.703,71.289,999.512,0
1512870034.955,49.316,35.156,62.012,3.906,999.512,0
1512870034.959,87.891,37.598,96.680,62.500,999.512,0
1512870034.963,79.590,22.949,100.586,79.590,999.512,0
1512870034.967,76.660,28.809,10.254,25.879,999.512,0
1512870034.971,64.453,10.254,63.477,11.230,999.512,0
1512870034.975,68.848,24.902,29.297,41.016,999.512,0
1512870034.979,78.125,23.926,-28.320,60.547,999.512,0
1512870034.982,81.543,2.930,64.453,79.590,999.512,0
1512870034.986,82.520,14.648,120.117,85.938,999.512,0
1512870034.990,108.887,29.297,51.758,82.520,999.512,0
1512870034.994,109.375,26.855,33.691,105.469,999.512,0
1512870034.998,83.496,-7.324,115.723,74.707,999.512,0
1512870035.002,38.574,-20.508,38.086,22.461,999.512,0
1512870035.006,53.711,6.836,0.000,58.594,999.512,0
1512870035.010,81.055,24.902,28.809,72.266,999.512,0
1512870035.014,85.938,30.762,-84.961,58.594,999.512,0
1512870035.018,105.957,16.602,-2.930,72.266,999.512,0
1512870035.022,118.164,11.230,-1.953,70.801,999.512,0
1512870035.025,84.961,-11.719,38.574,28.809,999.512,0
1512870035.029,66.895,-6.348,141.602,-8.789,999.512,0
1512870035.033,107.910,24.902,12.207,53.711,999.512,0
1512870035.037,130.859,15.625,-22.949,129.883,999.512,0
1512870035.041,126.465,19.531,52.734,103.027,999.512,0
1512870035.045,94.727,13.672,187.500,57.617,999.512,0
1512870035.049,66.895,11.719,72.754,37.598,999.512,0
1512870035.053,39.551,-12.207,82.520,32.715,998.047,0
1512870035.057,67.871,-40.527,94.727,42.480,996.582,0
1512870035.061,142.578,3.418,-91.797,101.074,-995.605,0
1512870035.065,186.523,48.828,-14.160,120.117,919.434,0
1512870035.068,159.180,54.688,83.008,89.355,831.055,0
1512870035.072,108.887,32.227,37.598,89.844,795.410,0
1512870035.076,64.453,15.625,138.672,23.926,753.418,0
1512870035.080,45.898,55.664,149.414,-10.742,683.105,0
1512870035.084,95.215,84.961,-8.301,61.523,606.934,0
1512870035.088,123.535,67.383,-86.426,95.703,566.895,0
1512870035.092,127.930,62.988,-15.625,88.867,497.070,0
1512870035.096,18.066,39.551,148.926,6.348,450.684,0
1512870035.100,-13.672,41.016,80.078,-11.230,412.598,0
1512870035.104,34.180,46.387,-17.578,53.223,374.512,0
1512870035.107,74.219,59.082,21.973,62.500,350.586,0
1512870035.111,86.426,101.074,24.902,66.895,320.312,0
1512870035.115,13.672,81.543,107.422,24.902,333.008,0
1512870035.119,38.086,49.316,39.062,9.277,305.664,0
1512870035.123,87.402,39.551,36.621,46.387,260.742,0
1512870035.127,110.352,149.414,42.480,118.164,259.766,0
1512870035.131,131.836,219.238,44.922,101.562,262.695,0
1512870035.135,174.316,203.613,116.699,67.871,265.137,0
1512870035.139,189.453,129.395,195.801,75.684,239.258,0
1512870035.143,160.156,106.934,322.754,31.250,218.262,0
1512870035.147,153.320,254.395,99.609,64.453,230.957,0
1512870035.150,130.859,312.500,68.359,78.125,241.699,0
1512870035.154,92.285,260.254,55.664,53.711,245.605,0
1512870035.158,85.449,206.055,1.465,61.035,255.371,0
1512870035.162,118.164,175.293,34.668,72.754,275.879,0
1512870035.166,117.188,130.371,43.945,125.488,277.344,0
1512870035.170,93.750,102.539,138.672,56.641,248.535,0
1512870035.174,42.969,143.555,34.668,-79.102,251.465,0
1512870035.178,61.523,114.258,16.113,-37.598,265.625,0
1512870035.182,161.133,81.055,107.910,48.340,241.699,0
1512870035.186,112.305,109.375,195.801,7.324,221.191,0
1512870035.190,54.199,120.605,274.414,-63.965,218.262,0
1512870035.193,124.512,158.691,86.426,50.781,203.125,0
1512870035.197,131.348,175.293,-59.570,124.023,182.129,0
1512870035.201,110.840,47.363,27.344,23.438,134.766,0
1512870035.205,112.793,-72.266,89.844,-26.367,123.047,0
1512870035.209,10.742,-5.859,121.582,-65.918,114.258,0
1512870035.213,-40.039,89.844,-4.395,-150.879,83.984,0
1512870035.217,4.883,105.957,-113.281,-129.395,94.727,0
1512870035.221,80.078,50.293,27.832,-7.324,112.305,0
1512870035.225,158.691,21.973,110.840,112.305,72.754,0
1512870035.229,139.648,38.086,94.727,149.414,28.320,0
1512870035.232,59.082,27.832,168.945,78.613,2.441,0
1512870035.236,12.695,-25.879,348.145,-67.383,-20.508,0
1512870035.240,109.375,6.836,135.254,-34.668,-62.988,0
1512870035.244,152.832,30.762,-25.879,75.684,-111.328,0
1512870035.248,78.613,8.301,71.289,61.035,-110.840,0
1512870035.252,15.137,7.324,-21.484,26.855,-144.043,0
1512870035.256,-26.367,-5.859,-32.715,5.371,-205.566,0
1512870035.260,108.398,21.973,46.875,38.574,-279.297,0
1512870035.264,133.789,68.848,141.602,48.340,-353.027,0
1512870035.268,17.578,53.223,76.172,41.992,-377.930,0
1512870035.272,6.836,-3.418,104.492,38.086,-438.965,0
1512870035.275,37.109,-34.668,82.520,36.133,-512.207,0
1512870035.279,70.801,11.719,3.906,34.180,-588.867,0
1512870035.283,148.926,10.742,19.531,70.312,-662.598,0
1512870035.287,110.352,-65.918,94.238,32.715,-732.910,0
1512870035.291,23.926,-75.195,52.246,-25.879,-808.105,0
1512870035.295,51.270,24.902,26.855,124.023,-859.863,0
1512870035.299,36.133,105.469,178.711,176.270,-933.105,0
1512870035.303,21.484,20.508,83.984,137.207,-970.215,0
1512870035.307,-75.195,-31.250,68.848,47.852,-964.844,0
1512870035.311,-150.391,-1.465,193.848,-26.367,-966.797,0
1512870035.315,-42.480,52.246,151.855,67.383,-967.285,0
1512870035.318,15.137,-0.977,168.945,77.637,-966.797,0
1512870035.322,-5.859,-69.824,31.738,35.645,-966.797,0
1512870035.326,-26.367,-35.645,-81.543,3.906,-966.797,0
1512870035.330,-65.430,-10.254,114.258,-21.973,-966.797,0
1512870035.334,-89.355,0.977,145.020,-6.836,-966.797,0
1512870035.338,-66.406,-15.625,-39.551,39.062,-967.285,0
1512870035.342,-88.867,-8.301,43.457,60.059,-966.797,0
1512870035.346,-163.086,-3.418,30.273,-15.137,-967.285,0
1512870035.350,-123.047,-32.715,-137.695,-29.297,-966.797,0
1512870035.354,-28.809,-50.781,-27.832,21.973,-967.285,0
1512870035.357,-65.918,-10.742,-9.277,31.738,-967.285,0
1512870035.361,-159.668,-4.883,63.477,22.461,-966.797,0
1512870035.365,-133.301,-80.566,105.957,77.148,-966.797,0
1512870035.369,-58.594,-33.203,-14.160,73.242,-967.285,0
1512870035.373,-69.824,20.508,15.137,64.453,-966.797,0
1512870035.377,-82.031,-34.668,91.797,74.219,-966.797,0
1512870035.381,-73.242,-88.379,141.113,18.066,-966.797,0
1512870035.385,-70.312,-55.664,-31.738,-10.742,-967.285,0
1512870035.389,-18.066,-21.973,-123.047,27.832,-966.797,0
1512870035.393,-67.383,-58.105,103.027,11.230,-965.332,0
1512870035.397,-133.301,-17.578,69.824,0.000,-970.703,0
1512870035.400,-95.215,11.230,-65.430,52.734,-927.246,0
1512870035.404,-85.938,-48.340,49.316,23.438,-896.973,0
1512870035.408,-85.449,-87.891,24.902,-0.977,-860.352,0
1512870035.412,-73.730,-1.953,-30.273,14.160,-755.859,0
1512870035.416,-117.188,28.809,-89.844,-22.461,-713.867,0
1512870035.420,-112.305,-42.480,-134.277,40.039,-664.062,0
1512870035.424,-66.406,-65.430,103.516,74.707,-585.938,0
1512870035.428,-122.559,-73.242,148.438,-26.367,-557.617,0
1512870035.432,-136.230,-18.066,-17.090,-56.152,-555.176,0
1512870035.436,-88.867,-24.414,-6.836,-11.719,-530.273,0
1512870035.440,-75.684,-69.336,69.336,37.598,-487.305,0
1512870035.443,-68.848,-52.246,114.746,35.156,-454.102,0
1512870035.447,-93.262,-11.230,-59.570,-9.766,-376.953,0
1512870035.451,-106.934,4.395,-114.258,-38.574,-308.105,0
1512870035.455,-28.320,6.348,-32.227,4.395,-307.617,0
1512870035.459,-19.531,-47.363,-96.680,66.895,-325.684,0
1512870035.463,-129.395,-73.730,-65.918,19.531,-302.734,0
1512870035.467,-158.691,-21.973,25.879,-1.953,-268.555,0
1512870035.471,-104.492,-18.555,-117.188,53.711,-203.613,0
1512870035.475,-31.250,-23.438,23.438,57.129,-133.301,0
1512870035.479,-26.367,-85.449,164.551,0.488,-133.301,0
1512870035.482,-37.598,-80.566,-56.152,20.020,-93.262,0
1512870035.486,-37.598,11.719,-21.973,31.250,-30.273,0
1512870035.490,-25.879,-29.297,95.215,30.762,-5.859,0
1512870035.494,-36.621,-94.238,41.992,23.926,-20.508,0
1512870035.498,-43.945,-62.012,-25.879,-4.883,-8.789,0
1512870035.502,-54.688,-8.301,-6.348,-10.742,17.578,0
1512870035.506,-44.922,-31.250,-62.988,46.875,82.031,0
1512870035.510,-77.637,-167.480,-54.688,69.336,92.773,0
1512870035.514,-158.691,-112.793,22.461,6.348,81.543,0
1512870035.518,-83.496,-21.484,-21.484,41.016,77.637,0
1512870035.522,-5.371,-81.055,-82.520,84.473,61.035,0
1512870035.525,-6.348,-33.691,32.227,-5.371,49.805,0
1512870035.529,-34.668,25.879,40.039,-47.363,97.656,0
1512870035.533,-42.969,-3.418,-72.754,0.977,114.258,0
1512870035.537,-24.414,-0.488,-97.168,59.082,112.305,0
1512870035.541,-14.648,51.758,-92.773,68.359,157.227,0
1512870035.545,-25.391,-20.020,-30.762,31.738,121.094,0
1512870035.549,-51.270,-140.137,54.688,-55.664,88.867,0
1512870035.553,-59.082,-104.980,35.645,-78.613,134.766,0
1512870035.557,-26.855,4.883,4.883,64.941,115.723,0
1512870035.561,-41.016,-73.242,-80.078,82.031,65.918,0
1512870035.565,-47.852,-87.402,-111.816,50.293,81.543,0
1512870035.568,-52.734,32.227,2.441,0.977,82.520,0
1512870035.572,-98.633,-41.504,67.383,-73.730,112.305,0
1512870035.576,-62.988,-120.605,-69.336,-39.551,128.906,0
1512870035.580,-27.344,-70.312,-107.910,-29.297,145.020,0
1512870035.584,-89.355,9.766,19.531,34.668,99.609,0
1512870035.588,-105.469,18.555,16.602,29.785,45.898,0
1512870035.592,-125.977,-57.617,-36.621,-44.922,74.707,0
1512870035.596,-142.578,-101.562,-17.090,9.277,90.820,0
1512870035.600,-105.469,-101.074,72.754,22.949,48.340,0
1512870035.604,-54.199,-101.562,12.207,-60.059,74.219,0
1512870035.607,-42.969,-67.871,-64.453,-80.566,54.688,0
1512870035.611,-88.867,-38.086,9.277,-123.047,34.668,0
1512870035.615,-82.520,-54.688,96.191,-105.957,34.180,0
1512870035.619,-57.617,-41.504,-7.812,-14.648,45.898,0
1512870035.623,-17.090,-52.246,-112.793,-15.625,71.777,0
1512870035.627,-24.414,-84.473,-102.539,-43.457,76.660,0
1512870035.631,-73.730,-96.680,58.594,-15.137,66.406,0
1512870035.635,-75.195,-108.398,139.648,3.418,74.707,0
1512870035.639,-92.773,-96.680,30.762,7.324,66.406,0
1512870035.643,-77.637,-38.574,-15.625,-15.625,63.477,0
1512870035.647,-35.645,-35.645,-151.367,-50.293,88.867,0
1512870035.650,-22.461,-92.285,-167.969,3.418,86.914,0
1512870035.654,-77.148,-104.980,-21.973,-7.812,145.020,0
1512870035.658,-66.895,-42.969,15.137,-18.066,137.695,0
1512870035.662,-37.109,-58.594,0.977,29.297,126.465,0
1512870035.666,-119.141,-107.422,142.578,-50.781,269.043,0
1512870035.670,-110.840,-87.402,18.066,-55.176,564.453,0
1512870035.674,-114.258,-89.355,-39.062,-11.719,867.676,0
1512870035.678,-89.844,-93.750,16.113,-11.719,996.582,0
1512870035.682,36.621,-107.910,-88.867,-11.719,994.629,0
1512870035.686,-49.316,-91.797,-87.891,-8.789,997.559,0
1512870035.690,-105.469,-33.691,-23.926,-42.480,-1000.000,0
1512870035.693,-120.117,-108.398,146.484,-126.953,999.512,0
1512870035.697,-88.379,-106.445,43.945,-30.273,999.512,0
1512870035.701,-84.473,-74.707,9.766,10.254,999.512,0
1512870035.705,-140.137,-112.305,-62.988,-22.461,999.512,0
1512870035.709,-129.883,-56.641,-49.805,20.996,999.512,0
1512870035.713,-116.211,-63.477,22.461,-15.137,999.512,0
1512870035.717,-31.250,-114.746,-42.480,-51.758,999.512,0
1512870035.721,-35.645,-126.953,-49.316,-88.379,999.512,0
1512870035.725,-168.457,-79.590,-20.508,-130.371,999.512,0
1512870035.729,-159.180,-37.109,-87.891,-60.547,999.512,0
1512870035.732,-73.242,-47.852,26.855,-22.461,999.512,0
1512870035.736,-63.965,-94.238,97.656,-45.898,999.512,0
1512870035.740,-99.609,-107.422,-23.438,-2.930,999.512,0
1512870035.744,-150.391,-83.984,-41.504,-58.105,999.512,0
1512870035.748,-108.887,-69.336,-97.656,-122.070,999.512,0
1512870035.752,-57.617,-92.773,-26.855,-48.340,999.512,0
1512870035.756,-62.988,-109.863,26.367,59.570,999.512,0
1512870035.760,-92.773,-72.754,102.539,34.668,999.512,0
1512870035.764,-83.984,-23.926,-22.461,20.996,999.512,0
1512870035.768,-83.984,-74.707,-77.637,37.109,999.512,0
1512870035.772,-144.043,-107.910,-7.812,-6.836,999.512,0
1512870035.775,-138.672,-93.750,-35.645,-50.293,999.512,0
1512870035.779,-68.359,-61.035,-36.133,-64.941,999.512,0
1512870035.783,-14.160,-73.242,-58.105,-18.066,999.512,0
1512870035.787,-26.855,-115.723,20.020,-41.504,999.512,0
1512870035.791,-56.152,-108.398,-19.531,-90.332,999.512,0
1512870035.795,-68.848,-101.074,-64.941,-59.082,999.512,0
1512870035.799,-136.719,-84.473,152.344,-66.895,999.512,0
1512870035.803,-142.578,-44.922,80.566,-65.430,999.512,0
1512870035.807,-96.680,-72.266,18.066,-57.129,999.512,0
1512870035.811,-37.109,-102.539,39.551,-73.730,999.512,0
1512870035.815,22.461,-86.426,-25.391,-0.488,999.512,0
1512870035.818,-29.297,-68.848,-98.145,84.473,999.023,0
1512870035.822,-101.074,-50.781,-3.418,26.855,996.582,0
1512870035.826,-103.516,-49.316,73.242,-104.980,-998.535,0
1512870035.830,-42.969,-44.434,-100.098,-91.797,942.871,0
1512870035.834,-32.715,-94.727,-11.230,-23.926,800.781,0
1512870035.838,-66.895,-125.977,86.426,-15.137,660.156,0
1512870035.842,-20.996,-68.359,-128.906,46.387,507.324,0
1512870035.846,-66.895,-42.969,-86.426,-44.434,333.984,0
1512870035.850,-125.488,-30.762,-52.734,-111.328,211.914,0
1512870035.854,-77.148,-71.289,-36.133,-68.848,99.609,0
1512870035.857,-61.035,-112.793,72.266,-24.414,-61.035,0
1512870035.861,-63.477,-53.711,-20.020,-24.414,-203.613,0
1512870035.865,-93.262,-43.945,71.289,-87.891,-328.125,0
1512870035.869,-61.523,-40.039,-12.695,-35.645,-452.637,0
1512870035.873,2.441,-45.898,-98.633,65.430,-637.207,0
1512870035.877,5.371,-62.500,19.043,35.156,-831.543,0
1512870035.881,-46.875,-24.414,-9.277,-39.551,-930.664,0
1512870035.885,-115.234,-32.227,59.570,-88.867,-966.797,0
1512870035.889,-26.855,-57.617,19.043,-66.406,-965.332,0
1512870035.893,30.762,-24.902,-78.613,-4.395,-966.797,0
1512870035.897,-66.406,-22.949,18.555,12.695,-967.285,0
1512870035.900,-81.543,-54.688,-21.484,36.133,-966.797,0
1512870035.904,-38.086,-23.926,25.879,-15.137,-966.797,0
1512870035.908,-5.371,-44.434,104.004,-21.973,-966.797,0
1512870035.912,52.734,-107.910,63.477,49.805,-967.285,0
1512870035.916,28.320,-37.109,4.395,-11.719,-966.797,0
1512870035.920,7.812,27.832,-21.484,-35.645,-966.797,0
1512870035.924,8.789,34.180,-11.230,-17.578,-966.797,0
1512870035.928,-5.371,28.809,-31.250,-41.504,-966.797,0
1512870035.932,27.344,12.207,-21.484,-7.812,-966.797,0
1512870035.936,-9.277,-26.855,67.383,0.488,-966.797,0
1512870035.940,-15.137,-29.297,-9.277,-28.809,-966.797,0
1512870035.943,23.438,5.371,45.410,-26.855,-966.797,0
1512870035.947,-20.996,11.719,118.164,-35.156,-966.797,0
1512870035.951,-55.176,-24.414,135.254,-73.730,-966.797,0
1512870035.955,-19.043,-19.531,94.238,-72.266,-967.285,0
1512870035.959,2.441,3.906,11.230,-51.758,-965.332,0
1512870035.963,15.625,-8.789,-81.543,-54.199,-967.285,0
1512870035.967,17.090,-10.254,-149.902,-35.645,-962.891,0
1512870035.971,13.672,-0.977,39.551,-2.930,-894.531,0
1512870035.975,-15.625,6.348,217.285,-61.035,-801.758,0
1512870035.979,-15.137,46.875,24.414,-45.410,-800.293,0
1512870035.982,43.945,88.379,-151.855,39.062,-784.668,0
1512870035.986,29.785,61.035,-67.383,21.973,-680.664,0
1512870035.990,7.324,17.578,53.711,14.648,-645.508,0
1512870035.994,-32.715,19.531,86.914,-14.160,-673.340,0
1512870035.998,-28.320,-1.465,14.648,-53.223,-614.258,0
1512870036.002,-35.156,-10.742,8.301,-50.781,-522.461,0
1512870036.006,-44.922,-12.207,44.922,-77.637,-508.789,0
1512870036.010,-13.672,-40.039,80.078,-56.152,-502.441,0
1512870036.014,31.250,0.000,32.715,21.973,-451.660,0
1512870036.018,57.617,48.828,4.395,48.828,-398.438,0
1512870036.022,34.180,53.223,15.625,32.715,-378.418,0
1512870036.025,-13.184,17.090,127.441,-31.738,-376.953,0
1512870036.029,-95.703,25.879,166.016,-97.656,-319.336,0
1512870036.033,-85.938,60.059,-3.418,-40.527,-276.367,0
1512870036.037,-19.531,20.020,34.180,19.531,-249.512,0
1512870036.041,-1.953,5.371,118.652,-15.137,-189.453,0
1512870036.045,20.508,28.320,61.035,-18.555,-157.227,0
1512870036.049,43.457,20.508,34.180,38.574,-148.926,0
1512870036.053,19.531,37.598,87.402,23.438,-144.043,0
1512870036.057,-34.668,43.457,104.492,-49.805,-151.855,0
1512870036.061,5.371,55.176,-31.250,-51.758,-137.695,0
1512870036.065,31.738,82.031,-44.922,-9.277,-77.148,0
1512870036.068,37.109,70.312,14.648,-8.301,-46.875,0
1512870036.072,58.105,26.367,13.184,-6.348,-8.789,0
1512870036.076,27.832,24.414,71.777,-14.648,26.855,0
1512870036.080,27.832,55.176,78.125,-3.418,28.809,0
1512870036.084,41.016,71.289,56.641,31.738,27.344,0
1512870036.088,19.531,36.621,236.816,-14.648,33.203,0
1512870036.092,-42.480,41.016,184.570,-80.078,81.543,0
1512870036.096,0.000,68.359,50.781,21.484,127.441,0
1512870036.100,106.445,61.523,6.836,117.676,142.578,0
1512870036.104,83.008,80.566,43.945,69.336,131.836,0
1512870036.107,47.363,100.098,209.961,9.277,163.086,0
1512870036.111,69.824,95.703,98.145,36.621,190.430,0
1512870036.115,84.961,89.355,-79.102,115.723,181.152,0
1512870036.119,75.684,82.031,25.391,104.004,219.238,0
1512870036.123,73.730,57.617,107.910,59.570,248.047,0
1512870036.127,35.156,40.527,140.625,26.367,228.027,0
1512870036.131,51.270,40.527,54.688,55.176,217.773,0
1512870036.135,62.988,57.129,-7.324,55.176,264.648,0
1512870036.139,29.785,67.383,69.824,49.316,280.762,0
1512870036.143,86.914,31.250,38.086,111.816,263.184,0
1512870036.147,69.336,-7.812,190.430,74.707,284.668,0
1512870036.150,-14.648,54.688,206.055,40.039,314.453,0
1512870036.154,-1.953,102.051,53.223,75.684,316.895,0
1512870036.158,66.406,92.285,13.672,61.035,306.152,0
1512870036.162,85.938,53.223,45.410,56.641,311.523,0
1512870036.166,94.238,63.965,20.996,88.379,338.867,0
1512870036.170,96.680,80.566,87.402,73.730,341.797,0
1512870036.174,79.590,42.480,178.711,73.730,336.426,0
1512870036.178,25.879,62.500,133.789,78.613,344.238,0
1512870036.182,46.875,61.035,89.844,93.262,352.051,0
1512870036.186,66.895,43.945,107.422,93.262,360.840,0
1512870036.190,62.500,66.406,57.617,72.754,372.559,0
1512870036.193,66.895,95.703,47.852,120.117,344.238,0
1512870036.197,21.484,77.148,173.340,96.191,317.383,0
1512870036.201,48.340,35.645,63.477,78.613,329.590,0
1512870036.205,100.098,-12.207,92.773,76.660,350.098,0
1512870036.209,78.125,-7.324,104.980,68.359,339.844,0
1512870036.213,62.988,47.852,-1.953,61.035,331.543,0
1512870036.217,66.895,85.449,-22.461,69.824,311.523,0
1512870036.221,45.898,113.281,15.137,110.352,269.531,0
1512870036.225,74.219,62.500,230.957,105.957,249.512,0
1512870036.229,78.613,26.367,165.039,112.305,253.418,0
1512870036.232,87.402,50.781,78.613,92.773,229.980,0
1512870036.236,76.660,58.105,81.055,107.910,209.473,0
1512870036.240,87.402,55.664,3.418,176.758,199.707,0
1512870036.244,63.965,30.273,137.207,109.375,185.547,0
1512870036.248,33.691,47.852,90.332,41.016,147.949,0
1512870036.252,37.598,64.453,92.285,73.242,96.680,0
1512870036.256,103.027,68.848,36.133,129.883,99.121,0
1512870036.260,82.031,71.289,31.738,117.676,108.398,0
1512870036.264,-21.484,48.340,254.883,38.574,104.004,0
1512870036.268,8.301,50.293,221.680,9.277,69.824,0
1512870036.272,61.523,47.852,21.484,77.148,71.777,0
1512870036.275,86.914,27.344,1.465,122.559,39.062,0
1512870036.279,84.473,30.762,59.570,116.211,-36.133,0
1512870036.283,94.238,36.133,51.758,115.723,-57.617,0
1512870036.287,121.094,62.500,1.465,122.559,-38.086,0
1512870036.291,79.590,71.777,42.480,112.305,-46.387,0
1512870036.295,51.758,52.734,157.227,91.309,-83.008,0
1512870036.299,34.180,48.340,138.672,106.934,-114.746,0
1512870036.303,72.754,42.969,-35.156,104.492,-82.520,0
1512870036.307,50.293,45.410,36.621,42.480,-95.703,0
1512870036.311,41.504,15.137,186.035,60.059,-160.156,0
1512870036.315,61.523,1.953,104.980,113.770,-170.410,0
1512870036.318,69.824,46.387,26.855,108.887,-166.992,0
1512870036.322,95.215,47.852,41.992,93.750,-177.246,0
1512870036.326,92.285,29.297,156.250,109.375,-218.750,0
1512870036.330,96.680,71.777,121.582,97.168,-226.074,0
1512870036.334,12.207,62.988,147.461,14.648,-199.219,0
1512870036.338,24.414,54.199,72.266,49.316,-232.910,0
1512870036.342,105.469,83.496,10.742,105.957,-258.301,0
1512870036.346,44.434,63.965,219.727,59.570,-238.770,0
1512870036.350,40.039,76.172,99.121,83.984,-261.719,0
1512870036.354,43.945,78.613,33.691,74.219,-265.137,0
1512870036.357,39.551,39.062,130.859,79.102,-234.375,0
1512870036.361,62.012,21.973,69.824,114.746,-264.648,0
1512870036.365,62.500,46.387,102.539,37.109,-282.227,0
1512870036.369,55.176,85.449,73.730,71.289,-296.387,0
1512870036.373,35.645,68.848,104.004,128.418,-311.523,0
1512870036.377,98.633,55.176,139.648,87.402,-284.180,0
1512870036.381,97.168,85.449,91.797,53.223,-293.457,0
1512870036.385,35.645,82.031,0.488,30.762,-329.590,0
1512870036.389,48.828,79.102,-27.832,42.969,-347.656,0
1512870036.393,94.238,92.773,49.316,98.633,-348.633,0
1512870036.397,99.121,64.453,70.801,130.859,-347.168,0
1512870036.400,71.289,53.711,80.566,81.055,-342.773,0
1512870036.404,64.941,48.340,143.066,13.672,-350.586,0
1512870036.408,75.684,47.852,16.602,61.523,-378.906,0
1512870036.412,84.473,56.152,87.402,102.051,-414.062,0
1512870036.416,53.223,58.594,111.816,21.973,-421.387,0
1512870036.420,53.711,77.148,129.395,25.391,-402.344,0
1512870036.424,67.383,79.590,230.469,58.594,-415.527,0
1512870036.428,90.332,72.754,162.598,72.754,-436.035,0
1512870036.432,80.078,68.848,72.266,119.141,-413.574,0
1512870036.436,132.324,81.055,-46.387,130.371,-380.371,0
1512870036.440,176.270,86.914,-28.320,98.633,-401.855,0
1512870036.443,130.859,74.707,21.484,86.914,-446.289,0
1512870036.447,46.875,38.086,254.395,38.086,-451.172,0
1512870036.451,12.695,23.926,205.078,-0.977,-419.434,0
1512870036.455,41.504,90.332,-38.086,31.250,-423.828,0
1512870036.459,47.852,110.840,36.621,30.273,-421.387,0
1512870036.463,71.289,105.469,4.883,41.504,-389.160,0
1512870036.467,81.543,118.164,-23.926,46.875,-360.840,0
1512870036.471,99.609,95.215,0.000,49.316,-357.422,0
1512870036.475,85.449,68.359,35.156,78.613,-373.047,0
1512870036.479,74.707,79.102,5.859,67.871,-350.098,0
1512870036.482,56.641,89.844,47.363,49.316,-291.016,0
1512870036.486,-7.812,86.914,192.383,2.930,-276.367,0
1512870036.490,4.395,84.961,179.199,22.949,-296.387,0
1512870036.494,27.832,24.414,236.816,49.805,-270.996,0
1512870036.498,51.270,-0.488,117.676,65.430,-213.379,0
1512870036.502,92.773,67.871,20.996,131.836,-217.773,0
1512870036.506,112.793,98.145,32.227,104.004,-200.195,0
1512870036.510,91.797,63.477,85.938,49.805,-176.270,0
1512870036.514,40.527,60.059,95.703,26.855,-162.109,0
1512870036.518,68.848,98.633,32.227,75.684,-132.812,0
1512870036.522,101.562,110.840,41.016,97.656,-139.648,0
1512870036.525,80.566,98.633,9.277,110.840,-126.465,0
1512870036.529,53.223,73.730,7.812,106.445,-105.957,0
1512870036.533,57.129,42.480,40.527,69.824,-127.930,0
1512870036.537,88.379,30.762,170.410,74.219,-130.859,0
1512870036.541,37.109,41.016,168.945,47.852,-101.562,0
1512870036.545,32.715,58.594,-60.059,76.660,-69.336,0
1512870036.549,66.895,72.266,116.699,83.984,-65.430,0
1512870036.553,61.035,62.012,218.750,97.168,-92.285,0
1512870036.557,57.617,27.832,124.023,82.031,-74.707,0
1512870036.561,85.449,52.246,103.027,76.172,-47.852,0
1512870036.565,84.961,105.469,1.465,153.320,-63.477,0
1512870036.568,50.293,86.914,-11.230,106.445,-57.129,0
1512870036.572,17.578,23.926,221.680,35.156,-33.691,0
1512870036.576,4.883,58.105,179.688,87.891,-27.344,0
1512870036.580,18.555,104.004,-115.234,139.160,-42.969,0
1512870036.584,51.270,65.430,-42.969,109.863,-30.762,0
1512870036.588,67.871,48.828,96.191,70.801,-13.672,0
1512870036.592,62.500,60.547,110.840,63.477,-58.105,0
1512870036.596,63.477,45.410,143.555,32.227,-64.453,0
1512870036.600,26.855,68.848,125.488,36.133,-75.195,0
1512870036.604,47.852,103.027,13.184,97.656,-89.355,0
1512870036.607,45.410,42.969,176.270,81.543,-77.148,0
1512870036.611,41.016,14.160,184.082,71.777,-72.266,0
1512870036.615,62.988,80.078,-73.242,113.281,-66.895,0
1512870036.619,67.383,93.262,-15.625,78.125,-50.781,0
1512870036.623,80.078,46.875,116.211,97.168,-54.688,0
1512870036.627,64.941,22.949,126.953,137.695,-62.988,0
1512870036.631,24.902,55.664,77.148,53.223,-55.176,0
1512870036.635,47.852,93.262,60.059,70.312,-39.062,0
1512870036.639,105.957,71.289,70.801,155.273,-30.273,0
1512870036.643,113.770,39.551,23.438,182.617,-52.734,0
1512870036.647,75.684,51.270,-59.570,155.273,-62.500,0
1512870036.650,57.617,62.012,62.500,81.055,-64.453,0
1512870036.654,67.383,64.453,181.641,82.520,-72.754,0
1512870036.658,32.227,60.059,42.480,152.832,-106.445,0
1512870036.662,-2.441,51.758,52.734,166.016,-106.445,0
1512870036.666,46.875,42.969,136.230,109.375,-76.660,0
1512870036.670,62.988,52.734,174.805,64.453,-73.730,0
1512870036.674,58.105,57.129,118.652,117.676,-71.289,0
1512870036.678,90.820,61.035,-2.930,196.289,-63.965,0
1512870036.682,38.574,73.730,37.598,129.395,-89.355,0
1512870036.686,-7.324,73.242,117.188,64.941,-122.559,0
1512870036.690,12.207,65.430,114.258,58.105,-104.004,0
1512870036.693,48.828,80.566,86.914,77.637,-82.031,0
1512870036.697,60.547,66.406,-41.504,127.441,-112.793,0
1512870036.701,45.898,65.430,-16.602,130.371,-151.367,0
1512870036.705,45.898,36.133,141.113,105.957,-168.945,0
1512870036.709,50.293,-22.461,141.113,70.312,-157.227,0
1512870036.713,113.281,4.883,66.406,77.148,-142.090,0
1512870036.717,97.656,24.902,125.977,80.078,-182.129,0
1512870036.721,17.090,29.785,12.695,75.195,-149.414,0
1512870036.725,5.371,44.434,34.180,42.480,-126.465,0
1512870036.729,26.367,50.293,69.824,56.641,-169.922,0
1512870036.732,64.941,64.453,35.645,132.812,-163.086,0
1512870036.736,85.449,64.941,78.125,165.039,-121.094,0
1512870036.740,53.223,40.527,112.305,142.090,-138.184,0
1512870036.744,43.457,47.363,145.020,116.699,-200.195,0
1512870036.748,69.824,62.012,-88.379,112.793,-219.238,0
1512870036.752,77.637,26.855,7.812,137.207,-190.430,0
1512870036.756,82.031,14.160,241.211,135.254,-183.594,0
1512870036.760,121.094,27.344,95.703,124.512,-225.586,0
1512870036.764,94.238,18.555,136.230,100.098,-225.586,0
1512870036.768,59.570,3.906,164.062,81.543,-187.988,0
1512870036.772,110.352,65.918,7.812,126.465,-221.680,0
1512870036.775,128.906,104.980,-31.738,130.859,-287.109,0
1512870036.779,60.547,85.938,-19.531,93.750,-259.277,0
1512870036.783,16.602,82.031,83.496,114.258,-209.961,0
1512870036.787,63.965,48.828,258.301,124.512,-218.262,0
1512870036.791,77.148,16.113,197.266,48.828,-225.586,0
1512870036.795,51.758,-26.367,-17.578,118.164,-210.938,0
1512870036.799,-3.418,-4.883,50.293,158.203,-185.059,0
1512870036.803,-41.992,74.219,59.082,48.340,-196.777,0
1512870036.807,28.809,95.703,-71.289,33.691,-251.953,0
1512870036.811,60.059,64.941,-32.715,53.711,-237.793,0
1512870036.815,75.195,51.758,92.773,92.773,-188.965,0
1512870036.818,80.078,49.316,91.797,137.695,-200.684,0
1512870036.822,30.762,-8.789,178.711,104.004,-210.938,0
1512870036.826,48.828,33.691,123.047,96.680,-203.125,0
1512870036.830,62.500,39.551,70.312,111.328,-229.980,0
1512870036.834,48.340,10.742,71.777,109.375,-250.000,0
1512870036.838,98.145,57.129,54.199,102.051,-250.488,0
1512870036.842,136.230,-4.395,265.137,125.977,-260.742,0
1512870036.846,157.715,-7.812,36.621,137.695,-279.785,0
1512870036.850,81.055,53.223,-66.895,49.316,-274.902,0
1512870036.854,-36.621,50.781,49.316,83.496,-262.695,0
1512870036.857,6.348,70.801,43.457,147.461,-272.461,0
1512870036.861,12.695,58.594,159.668,107.910,-285.156,0
1512870036.865,-46.875,-2.930,195.801,76.172,-302.246,0
1512870036.869,31.738,-20.996,-1.953,117.188,-307.617,0
1512870036.873,116.211,9.766,-39.062,187.500,-307.129,0
1512870036.877,75.684,59.570,130.859,102.051,-330.566,0
1512870036.881,-13.672,108.398,153.320,14.648,-362.793,0
1512870036.885,-4.395,95.703,139.160,92.773,-355.957,0
1512870036.889,53.711,51.270,44.922,127.441,-299.805,0
1512870036.893,38.574,50.781,4.395,112.793,-307.129,0
1512870036.897,100.586,24.414,-8.301,151.855,-331.543,0
1512870036.900,123.047,29.297,-3.906,129.395,-311.523,0
1512870036.904,47.852,62.500,48.828,38.086,-299.316,0
1512870036.908,69.824,42.480,18.555,82.520,-324.707,0
1512870036.912,23.926,14.648,199.219,70.801,-329.590,0
1512870036.916,-70.801,30.273,157.715,19.043,-293.457,0
1512870036.920,-18.066,38.086,-16.113,117.188,-293.945,0
1512870036.924,1.465,21.973,30.273,173.828,-311.035,0
1512870036.928,-27.832,37.598,28.809,154.297,-297.852,0
1512870036.932,-50.293,42.969,198.242,73.730,-253.418,0
1512870036.936,-36.133,-11.719,423.340,-17.090,-248.535,0
1512870036.940,19.531,-51.270,141.113,-10.742,-291.504,0
1512870036.943,42.480,-5.371,-236.816,77.148,-290.039,0
1512870036.947,38.086,70.312,-169.922,141.113,-264.648,0
1512870036.951,-27.344,102.051,-91.797,121.094,-275.391,0
1512870036.955,-69.336,124.512,-74.219,96.680,-282.715,0
1512870036.959,-55.176,59.082,63.965,46.387,-253.418,0
1512870036.963,27.832,-11.230,46.875,48.828,-223.145,0
1512870036.967,18.066,35.645,-69.824,0.488,-239.746,0
1512870036.971,-113.770,70.312,34.180,-110.840,-246.094,0
1512870036.975,-84.473,20.996,65.918,-11.230,-242.188,0
1512870036.979,-46.875,-20.508,-20.508,62.500,-216.309,0
1512870036.982,-107.910,-9.766,-22.461,-44.922,-242.676,0
1512870036.986,-134.766,46.875,-63.965,-112.793,-221.191,0
1512870036.990,-95.703,79.102,37.109,-60.547,-189.453,0
1512870036.994,-110.352,106.445,72.266,-6.836,-210.938,0
1512870036.998,-159.668,140.137,-81.055,-30.762,-150.879,0
1512870037.002,-166.016,76.660,-1.465,-91.797,-105.469,0
1512870037.006,-170.410,-52.246,164.062,-123.047,-123.535,0
1512870037.010,-114.746,1.953,-36.133,-58.594,-88.867,0
1512870037.014,-48.340,95.215,-216.797,51.270,-52.734,0
1512870037.018,-51.758,35.645,-37.598,66.895,-60.547,0
1512870037.022,-73.730,-0.488,-113.281,12.695,-68.359,0
1512870037.025,-36.621,-22.461,-128.418,37.598,-65.430,0
1512870037.029,-22.949,-34.180,-58.105,76.172,-44.922,0
1512870037.033,-58.594,0.488,-80.078,-20.996,-66.406,0
1512870037.037,-134.277,41.992,-57.617,-83.984,-13.184,0
1512870037.041,-132.812,62.500,3.418,-87.891,61.523,0
1512870037.045,-60.547,39.551,177.734,-78.613,24.902,0
1512870037.049,-36.621,-6.348,22.461,22.461,-9.277,0
1512870037.053,-41.016,-50.781,-88.379,85.938,8.301,0
1512870037.057,-51.270,-54.688,132.812,62.988,50.293,0
1512870037.061,-44.922,-27.344,-66.406,87.891,28.320,0
1512870037.065,15.137,-9.766,-216.309,54.199,14.648,0
1512870037.068,-10.254,23.438,84.473,-71.777,63.477,0
1512870037.072,-35.645,25.879,97.168,-35.645,28.809,0
1512870037.076,-41.992,0.488,22.461,37.109,-20.020,0
1512870037.080,-37.598,-9.277,-6.836,54.199,-5.371,0
1512870037.084,42.480,-15.625,-64.941,71.777,-14.160,0
1512870037.088,29.785,-25.879,34.180,65.918,22.461,0
1512870037.092,-21.973,-46.875,92.773,15.137,72.266,0
1512870037.096,1.953,-41.504,73.730,22.949,18.066,0
1512870037.100,-17.578,19.043,-16.113,77.148,1.953,0
1512870037.104,-29.785,33.203,-12.695,37.109,-10.254,0
1512870037.107,17.090,-11.230,17.090,33.691,-40.527,0
1512870037.111,38.574,-48.828,65.430,62.988,-57.129,0
1512870037.115,96.191,-71.289,16.602,75.684,-84.961,0
1512870037.119,39.062,-84.961,-53.223,50.293,-117.188,0
