timestamps,TP9,AF7,AF8,TP10,Right AUX,Marker0
1512971323.908,22.949,4.395,41.504,36.133,46.875,0
1512971323.912,19.531,7.324,32.715,32.227,11.719,0
1512971323.916,20.996,27.832,38.574,34.668,50.293,0
1512971323.920,16.602,39.551,35.645,34.180,53.223,0
1512971323.923,0.000,34.668,25.391,10.742,36.621,0
1512971323.927,4.395,16.602,33.203,10.254,5.371,0
1512971323.931,15.625,7.812,35.156,14.160,0.977,0
1512971323.935,9.277,23.438,25.879,8.789,21.973,0
1512971323.939,2.441,36.621,23.438,9.277,-10.742,0
1512971323.943,4.883,29.297,20.020,6.348,-5.859,0
1512971323.947,16.602,21.484,14.160,1.953,42.480,0
1512971323.951,26.855,30.762,18.066,6.348,51.270,0
1512971323.955,28.320,37.598,25.391,11.230,46.875,0
1512971323.959,25.391,32.715,31.250,18.066,15.625,0
1512971323.962,20.996,34.180,31.250,19.531,20.508,0
1512971323.966,18.555,41.016,25.391,19.531,10.742,0
1512971323.970,26.367,43.457,23.438,23.438,14.160,0
1512971323.974,25.391,39.062,25.879,19.043,25.879,0
1512971323.978,21.973,25.391,33.691,26.855,7.324,0
1512971323.982,33.691,30.273,35.156,37.598,40.039,0
1512971323.986,36.133,42.969,33.691,39.551,43.457,0
1512971323.990,41.504,37.598,41.992,44.434,50.293,0
1512971323.994,49.805,25.391,41.016,46.387,62.988,0
1512971323.998,42.969,6.348,25.391,53.223,26.367,0
1512971324.002,47.363,21.484,35.645,65.918,29.297,0
1512971324.005,49.316,38.574,43.457,61.523,48.828,0
1512971324.009,45.898,41.992,44.434,58.105,38.086,0
1512971324.013,47.852,34.180,43.945,61.035,40.039,0
1512971324.017,42.969,15.137,30.273,57.617,30.273,0
1512971324.021,39.062,16.602,30.273,56.641,21.484,0
1512971324.025,41.504,24.414,39.551,49.805,26.367,0
1512971324.029,33.203,12.207,43.945,47.363,9.766,0
1512971324.033,25.879,17.090,45.410,50.293,-18.555,0
1512971324.037,23.926,19.531,45.898,45.898,20.508,0
1512971324.041,26.855,-1.465,32.227,52.246,49.316,0
1512971324.045,26.367,7.324,25.391,50.293,53.223,0
1512971324.048,20.020,36.133,43.457,41.016,33.203,0
1512971324.052,20.996,30.762,45.898,36.133,38.574,0
1512971324.056,18.066,22.461,36.621,31.738,36.133,0
1512971324.060,15.137,18.555,37.598,33.691,21.973,0
1512971324.064,20.996,0.488,41.992,36.621,59.570,0
1512971324.068,20.508,2.930,32.715,30.273,61.035,0
1512971324.072,8.301,20.508,27.344,26.367,18.066,0
1512971324.076,8.789,14.160,33.203,20.508,0.977,0
1512971324.080,8.301,16.602,31.738,9.766,17.090,0
1512971324.084,0.977,31.738,20.996,10.254,39.551,0
1512971324.087,6.836,20.508,20.508,20.508,39.551,0
1512971324.091,23.926,12.695,21.484,27.832,18.066,0
1512971324.095,36.621,31.738,20.020,31.738,32.227,0
1512971324.099,38.086,33.691,23.438,31.738,50.781,0
1512971324.103,37.109,31.738,22.461,32.715,16.602,0
1512971324.107,34.668,20.508,21.484,36.133,-5.371,0
1512971324.111,42.480,8.301,32.227,42.480,9.277,0
1512971324.115,41.016,18.066,38.086,42.969,36.621,0
1512971324.119,24.414,25.879,27.344,32.715,33.691,0
1512971324.123,28.809,26.855,23.438,38.574,-5.859,0
1512971324.127,31.738,28.809,25.879,38.574,-19.531,0
1512971324.130,20.996,37.598,24.414,28.320,10.254,0
1512971324.134,22.461,39.062,24.414,32.227,35.156,0
1512971324.138,30.762,32.715,30.273,40.039,20.996,0
1512971324.142,21.484,30.273,33.203,35.645,39.062,0
1512971324.146,13.184,21.973,33.203,31.250,49.316,0
1512971324.150,21.973,21.484,28.320,39.551,39.062,0
1512971324.154,20.996,25.391,26.855,44.922,31.738,0
1512971324.158,19.531,9.277,32.227,44.434,24.902,0
1512971324.162,12.695,10.742,28.320,31.250,19.043,0
1512971324.166,7.812,34.668,28.809,29.785,18.555,0
1512971324.170,10.742,30.273,27.344,36.133,40.039,0
1512971324.173,3.906,14.648,15.137,29.785,61.035,0
1512971324.177,5.371,21.484,17.578,21.973,23.926,0
1512971324.181,7.324,19.043,31.738,15.137,3.418,0
1512971324.185,6.348,7.324,34.180,21.484,51.270,0
1512971324.189,13.184,20.508,28.809,24.902,58.105,0
1512971324.193,17.090,35.645,26.367,18.066,44.922,0
1512971324.197,16.113,39.551,23.438,18.066,29.785,0
1512971324.201,20.508,39.551,22.949,24.902,26.855,0
1512971324.205,20.508,26.855,27.344,26.367,41.992,0
1512971324.209,21.484,8.301,36.621,32.227,22.949,0
1512971324.212,22.461,15.625,41.504,41.504,-20.996,0
1512971324.216,20.508,29.785,30.762,30.762,15.625,0
1512971324.220,33.203,25.879,25.391,32.715,35.645,0
1512971324.224,52.734,8.789,36.621,46.387,-8.789,0
1512971324.228,54.688,11.230,38.574,51.270,-3.418,0
1512971324.232,53.223,23.926,21.973,51.270,40.039,0
1512971324.236,54.688,31.250,21.484,57.617,51.758,0
1512971324.240,53.711,25.879,33.203,62.988,17.578,0
1512971324.244,61.523,27.832,45.898,64.453,23.438,0
1512971324.248,64.453,28.809,49.316,64.453,26.855,0
1512971324.252,67.871,27.832,38.574,70.801,24.902,0
1512971324.255,68.359,19.043,39.062,76.660,32.227,0
1512971324.259,53.711,17.578,40.527,67.383,12.207,0
1512971324.263,40.039,21.973,36.133,58.594,21.973,0
1512971324.267,32.715,24.902,38.086,58.594,27.344,0
1512971324.271,32.715,33.203,44.434,59.570,-11.719,0
1512971324.275,47.852,18.555,55.664,64.941,11.719,0
1512971324.279,53.711,2.930,53.711,72.266,50.293,0
1512971324.283,42.969,11.230,52.246,68.848,23.926,0
1512971324.287,34.668,22.461,51.270,67.383,12.207,0
1512971324.291,44.434,19.043,48.828,67.383,47.363,0
1512971324.295,55.176,2.930,53.223,77.148,57.129,0
1512971324.298,48.828,5.371,49.805,81.055,37.598,0
1512971324.302,36.133,17.578,39.062,59.082,44.922,0
1512971324.306,44.922,29.785,24.414,54.199,22.461,0
1512971324.310,55.664,32.715,23.926,62.500,5.859,0
1512971324.314,49.316,32.227,44.922,62.012,0.977,0
1512971324.318,52.246,26.367,52.246,61.035,3.418,0
1512971324.322,52.734,27.832,46.387,60.059,48.340,0
1512971324.326,44.922,27.832,41.992,61.035,37.598,0
1512971324.330,48.340,12.695,37.598,62.500,4.883,0
1512971324.334,49.805,7.812,41.016,62.988,31.250,0
1512971324.337,52.734,14.160,47.363,65.918,65.430,0
1512971324.341,51.270,11.230,40.039,55.176,50.293,0
1512971324.345,41.016,13.672,35.645,43.945,35.156,0
1512971324.349,47.852,25.879,27.344,53.711,31.250,0
1512971324.353,54.688,27.344,22.461,60.547,51.270,0
1512971324.357,51.270,20.020,35.645,61.035,37.598,0
1512971324.361,58.594,16.602,51.758,66.406,20.996,0
1512971324.365,62.500,19.043,56.152,73.242,52.246,0
1512971324.369,52.246,16.602,49.316,74.707,62.988,0
1512971324.373,51.758,4.883,51.758,76.172,45.410,0
1512971324.377,56.641,-0.488,52.246,75.195,21.973,0
1512971324.380,50.293,-7.324,52.246,76.172,24.414,0
1512971324.384,41.504,4.395,59.570,77.637,32.715,0
1512971324.388,44.434,14.648,67.871,76.172,24.902,0
1512971324.392,38.086,-12.207,54.688,67.383,26.367,0
1512971324.396,31.250,0.977,44.434,57.129,41.504,0
1512971324.400,29.297,22.949,56.152,59.570,56.641,0
1512971324.404,15.625,14.648,53.711,52.246,59.570,0
1512971324.408,15.137,16.602,45.410,40.527,43.945,0
1512971324.412,25.391,20.996,42.969,45.410,36.133,0
1512971324.416,24.902,5.859,41.016,47.363,27.832,0
1512971324.420,21.484,-12.207,36.621,37.109,41.016,0
1512971324.423,25.879,-2.930,39.551,42.480,55.664,0
1512971324.427,31.738,15.625,44.434,44.434,36.621,0
1512971324.431,28.320,22.461,42.969,45.898,34.180,0
1512971324.435,24.902,23.926,44.922,47.852,45.410,0
1512971324.439,25.391,13.672,41.992,34.668,38.086,0
1512971324.443,32.227,7.812,27.832,28.320,15.625,0
1512971324.447,38.574,28.320,29.785,34.668,3.418,0
1512971324.451,41.992,35.156,45.898,41.016,-7.324,0
1512971324.455,42.969,34.180,49.805,36.621,12.695,0
1512971324.459,55.176,26.855,47.852,41.016,46.875,0
1512971324.462,63.477,22.949,45.898,48.340,41.504,0
1512971324.466,58.594,23.926,45.410,41.992,23.926,0
1512971324.470,59.082,25.879,40.039,43.945,41.504,0
1512971324.474,56.152,24.414,35.645,50.781,46.875,0
1512971324.478,68.359,32.715,42.480,55.176,29.297,0
1512971324.482,72.266,43.457,42.969,60.547,46.387,0
1512971324.486,59.570,37.109,36.621,59.082,70.801,0
1512971324.490,59.570,30.762,38.086,54.199,41.016,0
1512971324.494,62.988,18.066,39.551,61.035,9.277,0
1512971324.498,64.941,20.508,41.016,68.359,6.348,0
1512971324.502,64.453,32.715,35.645,70.312,32.715,0
1512971324.505,62.500,20.020,33.691,74.219,26.855,0
1512971324.509,62.012,16.602,43.945,75.684,12.207,0
1512971324.513,55.664,31.250,50.781,72.266,20.020,0
1512971324.517,53.223,27.832,47.852,74.219,52.246,0
1512971324.521,61.035,24.902,41.992,75.195,52.246,0
1512971324.525,59.082,27.344,35.645,74.219,33.691,0
1512971324.529,50.293,14.648,37.109,68.848,17.578,0
1512971324.533,40.527,11.230,41.504,59.082,31.738,0
1512971324.537,39.062,20.996,45.410,50.781,34.180,0
1512971324.541,38.086,25.391,45.898,47.852,-20.508,0
1512971324.545,28.320,31.738,39.062,46.387,-20.020,0
1512971324.548,27.344,29.785,36.621,40.039,42.969,0
1512971324.552,32.227,37.109,44.434,37.109,34.668,0
1512971324.556,37.109,29.297,43.945,41.016,20.020,0
1512971324.560,30.762,9.766,39.551,31.738,22.461,0
1512971324.564,20.996,21.484,35.645,24.902,2.930,0
1512971324.568,14.648,26.367,27.832,20.996,0.488,0
1512971324.572,25.879,35.645,30.273,17.090,11.230,0
1512971324.576,24.902,36.133,33.691,11.230,17.578,0
1512971324.580,16.602,21.973,33.203,8.789,41.504,0
1512971324.584,21.484,24.902,34.668,14.648,30.273,0
1512971324.587,24.902,28.320,33.691,20.996,29.785,0
1512971324.591,28.320,26.855,36.133,28.809,52.246,0
1512971324.595,22.461,18.066,44.434,33.203,41.504,0
1512971324.599,9.766,-0.977,43.945,30.273,18.555,0
1512971324.603,15.137,1.953,41.504,16.602,19.531,0
1512971324.607,22.461,26.855,38.574,14.160,63.477,0
1512971324.611,22.461,25.879,36.133,24.902,41.016,0
1512971324.615,22.461,17.578,33.691,25.879,-2.441,0
1512971324.619,31.738,34.180,41.504,38.086,36.621,0
1512971324.623,43.945,30.273,47.363,48.828,71.289,0
1512971324.627,43.457,20.020,40.527,43.457,23.438,0
1512971324.630,32.227,27.832,41.504,40.039,3.906,0
1512971324.634,36.621,30.273,40.527,41.992,37.109,0
1512971324.638,49.805,29.297,33.691,43.457,42.969,0
1512971324.642,51.270,30.273,32.227,50.781,11.230,0
1512971324.646,49.316,33.691,43.945,57.617,0.488,0
1512971324.650,46.387,34.180,47.852,55.664,45.410,0
1512971324.654,42.969,22.461,37.109,47.852,46.875,0
1512971324.658,36.133,13.184,32.227,43.457,55.176,0
1512971324.662,35.645,12.207,35.645,50.781,57.129,0
1512971324.666,43.945,-8.301,51.758,56.152,54.199,0
1512971324.670,43.457,-5.859,52.734,52.734,46.875,0
1512971324.673,34.180,23.438,44.434,40.039,29.297,0
1512971324.677,29.785,28.809,40.527,38.574,14.160,0
1512971324.681,34.668,20.508,41.016,49.805,18.066,0
1512971324.685,34.180,29.297,31.738,46.387,25.391,0
1512971324.689,29.785,40.527,22.461,43.945,3.418,0
1512971324.693,29.297,35.156,39.062,39.551,0.000,0
1512971324.697,34.668,33.203,52.734,40.039,38.086,0
1512971324.701,31.738,23.438,44.922,36.133,43.457,0
1512971324.705,22.949,3.418,37.598,24.902,27.832,0
1512971324.709,23.926,-6.836,41.992,21.973,34.180,0
1512971324.712,22.461,12.695,38.574,26.367,24.902,0
1512971324.716,20.508,39.551,42.969,31.250,55.664,0
1512971324.720,16.602,26.855,44.922,23.926,39.062,0
1512971324.724,13.672,11.719,38.086,23.926,9.277,0
1512971324.728,23.438,23.438,39.551,38.574,22.949,0
1512971324.732,26.367,31.738,41.992,44.922,7.324,0
1512971324.736,20.996,22.949,34.180,32.715,10.742,0
1512971324.740,28.809,18.066,32.227,34.180,41.992,0
1512971324.744,35.645,9.277,43.945,48.340,65.430,0
1512971324.748,33.203,1.953,41.504,50.293,41.016,0
1512971324.752,31.738,15.137,39.551,43.945,21.973,0
1512971324.755,32.715,20.996,41.992,41.504,52.734,0
1512971324.759,40.039,13.672,38.574,43.945,51.758,0
1512971324.763,46.875,29.297,37.109,45.410,31.250,0
1512971324.767,46.387,36.621,40.039,49.316,39.551,0
1512971324.771,39.062,32.227,37.109,42.480,40.527,0
1512971324.775,34.180,29.297,33.203,39.551,33.203,0
1512971324.779,36.133,25.391,30.273,43.945,29.785,0
1512971324.783,37.598,33.203,31.738,51.270,18.555,0
1512971324.787,47.852,39.062,43.457,58.105,31.738,0
1512971324.791,43.945,29.785,42.480,48.828,33.691,0
1512971324.795,31.738,20.508,34.180,47.363,20.996,0
1512971324.798,43.457,21.484,30.273,52.246,65.430,0
1512971324.802,50.781,24.902,40.527,56.641,65.918,0
1512971324.806,48.828,20.020,40.527,62.012,17.090,0
1512971324.810,51.270,13.184,40.039,59.570,15.137,0
1512971324.814,57.617,9.766,49.805,56.641,44.922,0
1512971324.818,50.293,22.461,49.316,53.223,32.715,0
1512971324.822,43.457,34.668,37.109,44.434,17.578,0
1512971324.826,44.434,33.203,41.016,42.969,-1.953,0
1512971324.830,36.621,30.273,50.293,49.805,9.766,0
1512971324.834,36.133,16.113,52.734,54.199,25.391,0
1512971324.837,44.434,3.906,49.316,50.293,6.836,0
1512971324.841,45.898,9.766,47.363,53.711,25.391,0
1512971324.845,49.316,14.160,46.875,52.246,43.945,0
1512971324.849,51.758,2.930,37.109,43.457,41.992,1
1512971324.853,57.129,12.695,44.434,46.387,68.848,0
1512971324.857,66.895,41.504,36.621,59.082,50.781,0
1512971324.861,56.641,34.668,15.137,61.523,17.578,0
1512971324.865,42.969,23.438,33.203,50.293,34.180,0
1512971324.869,36.133,13.672,50.781,46.387,19.043,0
1512971324.873,35.156,0.977,51.270,57.129,5.371,0
1512971324.877,39.551,12.207,44.922,57.617,30.762,0
1512971324.880,36.621,19.043,37.598,51.758,27.344,0
1512971324.884,33.691,16.602,34.668,57.129,0.977,0
1512971324.888,32.227,26.367,35.156,55.664,40.527,0
1512971324.892,34.668,22.461,36.133,44.922,56.152,0
1512971324.896,42.480,11.230,32.227,48.828,70.801,0
1512971324.900,41.504,22.949,41.992,60.547,67.383,0
1512971324.904,34.668,37.598,51.758,47.852,36.133,0
1512971324.908,31.250,30.273,48.340,45.898,23.926,0
1512971324.912,25.879,19.043,42.969,45.410,36.133,0
1512971324.916,29.785,15.625,39.551,40.527,24.414,0
1512971324.920,33.691,15.625,42.480,44.922,18.066,0
1512971324.923,32.715,15.137,43.457,44.434,49.316,0
1512971324.927,32.227,13.184,34.180,55.176,39.062,0
1512971324.931,30.273,18.555,41.016,62.988,31.250,0
1512971324.935,32.715,25.391,49.805,51.270,57.617,0
1512971324.939,42.480,33.691,44.922,60.059,53.711,0
1512971324.943,38.086,20.020,49.805,69.824,50.781,0
1512971324.947,30.273,0.488,51.758,63.965,51.758,0
1512971324.951,35.156,10.742,48.828,63.477,10.254,0
1512971324.955,33.203,25.879,43.945,61.523,30.762,0
1512971324.959,31.738,30.273,41.992,61.523,26.855,0
1512971324.962,36.133,18.066,40.039,59.082,11.719,0
1512971324.966,35.645,3.418,38.086,60.059,20.508,0
1512971324.970,38.574,23.438,41.992,68.359,72.266,0
1512971324.974,42.969,41.504,42.480,68.848,74.707,0
1512971324.978,50.781,29.785,34.180,63.965,14.648,0
1512971324.982,59.570,31.738,30.762,64.941,47.852,0
1512971324.986,53.223,29.785,36.621,65.918,44.922,0
1512971324.990,51.270,28.320,43.457,71.289,20.508,0
1512971324.994,57.617,28.809,38.086,72.266,33.203,0
1512971324.998,48.340,20.020,29.297,63.477,38.574,0
1512971325.002,31.250,20.020,31.738,54.688,42.480,0
1512971325.005,32.715,29.785,40.039,44.922,29.297,0
1512971325.009,35.156,24.902,43.945,41.992,37.109,0
1512971325.013,31.738,3.906,41.504,40.039,57.129,0
1512971325.017,21.973,15.625,36.621,39.062,48.828,0
1512971325.021,20.996,42.969,39.551,38.086,4.395,0
1512971325.025,17.578,33.203,31.250,29.297,33.203,0
1512971325.029,17.090,9.766,27.344,22.461,80.078,0
1512971325.033,28.809,9.277,40.039,22.461,58.105,0
1512971325.037,21.973,16.602,41.992,21.484,58.594,0
1512971325.041,18.066,16.602,41.992,19.531,66.895,0
1512971325.045,20.020,20.020,39.062,14.160,45.410,0
1512971325.048,14.160,13.672,37.109,9.277,39.551,0
1512971325.052,19.531,1.953,37.598,12.695,20.508,0
1512971325.056,22.461,3.906,35.156,20.508,4.883,0
1512971325.060,24.902,20.020,35.156,22.949,42.969,0
1512971325.064,21.973,39.551,24.414,28.809,48.340,0
1512971325.068,17.578,38.086,21.484,33.203,47.363,0
1512971325.072,19.043,37.109,38.574,36.621,70.801,0
1512971325.076,13.184,29.297,48.828,34.180,46.875,0
1512971325.080,12.695,30.762,44.434,28.809,26.855,0
1512971325.084,25.391,43.457,45.898,34.668,51.270,0
1512971325.087,22.461,41.016,47.852,36.621,55.664,0
1512971325.091,4.883,17.578,41.504,36.133,59.082,0
1512971325.095,7.324,8.301,38.086,38.086,48.828,0
1512971325.099,17.578,10.742,45.898,37.109,32.227,0
1512971325.103,19.531,1.953,52.246,37.598,36.133,0
1512971325.107,16.113,4.395,49.805,38.574,22.949,0
1512971325.111,20.996,29.297,46.387,36.621,59.570,0
1512971325.115,20.508,52.246,42.480,38.086,77.148,0
1512971325.119,8.789,49.316,42.969,29.297,31.250,0
1512971325.123,5.859,37.109,40.039,20.508,17.090,0
1512971325.127,9.766,39.062,38.574,22.949,1.953,0
1512971325.130,23.926,48.828,37.598,27.344,20.508,0
1512971325.134,23.926,36.621,39.551,22.461,46.875,0
1512971325.138,14.160,17.090,36.621,14.648,23.438,0
1512971325.142,14.160,21.484,38.086,14.648,2.930,0
1512971325.146,29.297,8.301,39.551,28.809,35.645,0
1512971325.150,36.133,-5.371,36.621,27.832,67.871,0
1512971325.154,27.832,24.414,36.133,-0.488,40.527,0
1512971325.158,39.062,51.758,43.457,-16.602,-5.371,0
1512971325.162,41.992,55.176,49.805,-13.672,5.859,0
1512971325.166,37.109,51.270,50.781,-9.766,16.113,0
1512971325.170,41.016,46.875,47.852,-17.578,33.203,0
1512971325.173,47.363,43.457,46.387,-19.531,54.688,0
1512971325.177,35.156,35.645,35.645,-19.531,53.223,0
1512971325.181,24.414,12.207,32.227,-17.578,41.016,0
1512971325.185,28.320,8.789,42.969,-7.812,-11.230,0
1512971325.189,21.973,21.973,30.762,-8.789,8.301,0
1512971325.193,19.043,22.461,38.086,-18.066,9.277,0
1512971325.197,18.555,15.625,52.246,-17.090,-0.488,0
1512971325.201,20.020,0.977,51.758,-7.812,26.367,0
1512971325.205,23.438,13.672,50.781,-5.859,28.320,0
1512971325.209,18.555,33.691,47.852,-8.789,46.875,0
1512971325.212,11.719,40.039,45.898,-3.906,50.781,0
1512971325.216,12.695,38.574,46.387,-2.930,54.199,0
1512971325.220,13.672,33.203,50.781,-6.836,80.566,0
1512971325.224,12.695,21.973,41.504,-15.137,61.035,0
1512971325.228,12.695,-2.441,36.133,-15.625,33.691,0
1512971325.232,16.113,0.488,37.598,-9.766,40.527,0
1512971325.236,27.832,23.926,25.391,-5.371,45.898,0
1512971325.240,30.762,27.344,23.438,-5.371,27.832,0
1512971325.244,29.785,32.227,36.133,-2.441,-4.883,0
1512971325.248,41.992,35.156,40.039,5.371,-0.488,0
1512971325.252,54.688,31.738,34.180,1.953,27.344,0
1512971325.255,57.129,38.574,28.809,1.953,53.711,0
1512971325.259,55.664,55.176,25.879,6.348,40.527,0
1512971325.263,53.711,58.594,25.879,0.488,49.316,0
1512971325.267,60.547,65.918,37.598,5.859,92.285,0
1512971325.271,62.012,57.617,33.691,2.930,57.129,0
1512971325.275,51.758,45.410,17.090,-5.371,10.742,0
1512971325.279,50.781,41.504,19.531,1.953,33.691,0
1512971325.283,51.270,35.156,28.809,13.184,67.383,0
1512971325.287,52.246,37.109,28.320,26.855,48.340,0
1512971325.291,56.641,38.574,24.414,31.738,12.695,0
1512971325.295,48.340,46.387,30.273,33.203,32.227,0
1512971325.298,41.992,21.484,38.086,40.039,45.898,0
1512971325.302,53.711,7.324,45.410,53.711,37.598,0
1512971325.306,71.777,39.062,43.945,62.012,64.453,0
1512971325.310,61.523,47.852,39.062,51.758,41.992,0
1512971325.314,37.109,48.340,35.156,40.039,12.695,0
1512971325.318,32.715,45.410,35.156,41.504,20.020,0
1512971325.322,32.715,36.621,36.621,40.527,33.691,0
1512971325.326,32.715,29.297,41.504,34.180,44.922,0
1512971325.330,25.391,21.973,39.551,29.785,20.020,0
1512971325.334,12.207,12.207,24.414,18.066,-5.859,0
1512971325.337,11.230,0.000,27.344,16.602,-26.855,0
1512971325.341,19.531,12.695,41.016,20.996,8.789,0
1512971325.345,15.625,28.320,41.992,14.160,42.480,0
1512971325.349,16.602,30.762,46.875,17.578,18.555,0
1512971325.353,27.832,26.367,47.363,26.367,19.531,0
1512971325.357,25.391,12.207,43.457,25.391,39.062,0
1512971325.361,20.508,2.441,40.039,25.879,37.109,0
1512971325.365,20.996,7.324,34.668,28.320,33.691,0
1512971325.369,19.043,19.043,38.574,27.344,51.270,0
1512971325.373,24.414,13.184,41.016,34.180,61.523,0
1512971325.377,31.738,6.348,42.969,35.156,67.871,0
1512971325.380,28.809,0.488,50.781,28.320,25.391,0
1512971325.384,25.879,8.789,50.781,35.645,24.414,0
1512971325.388,27.344,33.203,38.086,36.621,56.641,0
1512971325.392,27.832,40.527,36.133,35.156,30.273,0
1512971325.396,26.367,22.949,46.875,41.992,21.973,0
1512971325.400,24.902,2.930,45.898,40.527,37.598,0
1512971325.404,29.785,19.531,43.457,46.875,45.898,0
1512971325.408,32.715,20.020,47.852,56.641,39.062,0
1512971325.412,31.250,6.348,48.828,56.641,16.113,0
1512971325.416,33.691,18.066,39.062,61.035,13.672,0
1512971325.420,40.527,28.809,40.039,70.801,35.156,0
1512971325.423,42.480,32.227,53.711,72.266,38.574,0
1512971325.427,39.551,27.344,50.293,64.941,3.418,0
1512971325.431,41.504,19.531,41.504,60.547,16.602,0
1512971325.435,46.387,28.320,47.363,62.500,30.762,0
1512971325.439,37.109,23.926,47.852,63.477,24.902,0
1512971325.443,38.086,7.324,38.086,65.430,31.738,0
1512971325.447,55.176,14.160,38.574,67.383,54.199,0
1512971325.451,49.316,27.832,35.645,62.500,35.645,0
1512971325.455,43.945,40.527,35.645,69.824,2.930,0
1512971325.459,57.129,38.574,33.203,76.172,-3.906,0
1512971325.462,62.988,24.902,39.062,67.871,58.594,0
1512971325.466,57.129,2.930,46.387,65.430,56.641,0
1512971325.470,47.852,-3.906,41.016,60.059,-12.207,0
1512971325.474,47.852,14.648,48.340,55.664,25.391,0
1512971325.478,41.992,29.785,48.828,45.898,47.363,0
1512971325.482,29.785,26.855,37.598,33.691,8.789,0
1512971325.486,35.645,2.441,43.945,41.016,-13.184,0
1512971325.490,34.180,-0.977,44.434,27.832,18.066,0
1512971325.494,31.738,22.461,34.180,18.066,35.645,0
1512971325.498,34.180,31.738,36.133,31.738,29.785,0
1512971325.502,22.949,28.320,43.457,27.344,41.504,0
1512971325.505,31.250,32.715,40.527,25.391,43.457,0
1512971325.509,44.434,35.645,41.016,36.133,22.461,0
1512971325.513,34.668,23.438,37.598,35.156,6.836,0
1512971325.517,40.527,7.324,43.945,33.691,16.113,0
1512971325.521,44.922,3.418,42.969,40.527,25.879,0
1512971325.525,40.039,7.812,27.344,38.086,50.293,0
1512971325.529,38.086,22.461,28.320,34.668,43.945,0
1512971325.533,33.203,39.551,32.715,43.457,11.719,0
1512971325.537,29.785,40.527,30.273,38.574,17.090,0
1512971325.541,24.902,32.227,26.855,31.250,46.387,0
1512971325.545,23.438,38.574,25.391,30.273,52.246,0
1512971325.548,19.531,45.410,19.531,28.809,41.504,0
1512971325.552,18.555,27.344,20.996,40.039,61.523,0
1512971325.556,22.949,26.367,28.809,46.387,46.875,0
1512971325.560,24.414,29.785,34.180,39.551,52.734,0
1512971325.564,28.320,25.879,39.551,37.598,64.941,0
1512971325.568,29.785,35.156,40.039,38.574,35.156,0
1512971325.572,26.855,24.414,38.574,43.945,17.578,0
1512971325.576,23.438,11.719,37.109,46.387,-2.930,0
1512971325.580,31.738,16.602,41.992,46.387,-4.883,0
1512971325.584,34.668,29.785,44.434,53.223,35.645,0
1512971325.587,22.949,29.297,36.621,50.293,37.598,0
1512971325.591,25.391,29.785,35.156,41.016,1.953,0
1512971325.595,29.785,25.879,31.250,44.434,31.250,0
1512971325.599,27.344,20.996,26.855,50.781,43.457,0
1512971325.603,39.062,27.832,30.273,54.199,21.973,0
1512971325.607,40.039,17.578,36.133,50.293,28.809,0
1512971325.611,33.203,14.648,50.293,46.875,18.066,0
1512971325.615,20.020,22.949,53.223,49.316,2.441,0
1512971325.619,6.836,28.809,43.457,41.016,-8.301,0
1512971325.623,16.113,41.504,43.457,41.016,-5.859,0
1512971325.627,27.344,43.945,43.457,43.457,51.270,0
1512971325.630,24.414,35.156,43.945,38.086,58.594,0
1512971325.634,19.531,26.367,45.898,35.645,21.973,0
1512971325.638,14.160,22.461,37.598,30.273,48.828,0
1512971325.642,12.695,26.855,31.250,26.367,43.457,0
1512971325.646,5.859,22.949,40.039,24.414,-6.348,0
1512971325.650,10.254,-1.465,41.992,29.785,5.371,0
1512971325.654,17.090,2.930,34.668,31.250,38.086,0
1512971325.658,9.766,30.762,36.133,26.367,63.477,0
1512971325.662,14.648,41.016,44.434,29.785,62.988,0
1512971325.666,17.578,46.387,44.434,28.320,2.441,0
1512971325.670,19.531,41.016,32.227,26.367,-3.418,0
1512971325.673,24.414,31.250,33.203,29.785,34.668,0
1512971325.677,28.320,27.832,41.016,30.762,8.301,0
1512971325.681,42.480,24.902,44.434,34.668,-1.953,0
1512971325.685,39.062,34.180,42.480,37.109,39.062,0
1512971325.689,30.762,28.320,38.086,39.551,45.410,0
1512971325.693,37.109,17.090,30.273,41.992,15.625,0
1512971325.697,27.832,28.320,28.320,33.203,34.668,0
1512971325.701,23.438,47.363,41.016,32.715,52.734,0
1512971325.705,20.508,45.898,40.039,38.574,35.645,0
1512971325.709,17.090,14.160,21.973,33.691,13.672,0
1512971325.712,24.414,15.625,26.855,34.668,13.672,0
1512971325.716,29.785,35.156,39.551,42.969,41.992,0
1512971325.720,29.297,35.156,40.527,41.504,67.871,0
1512971325.724,30.762,26.855,36.621,34.668,48.828,0
1512971325.728,33.203,17.578,40.527,37.109,42.480,0
1512971325.732,31.738,15.625,40.527,35.156,46.875,0
1512971325.736,22.949,26.367,27.832,31.250,43.945,0
1512971325.740,22.461,33.691,33.691,38.086,53.223,0
1512971325.744,31.738,28.320,45.898,38.086,46.387,0
1512971325.748,35.156,27.344,46.875,33.203,41.504,0
1512971325.752,33.691,40.039,43.457,26.367,28.809,0
1512971325.755,33.691,41.016,44.434,23.926,16.602,0
1512971325.759,35.645,26.855,39.551,29.297,24.414,0
1512971325.763,30.273,27.344,34.668,28.809,55.176,0
1512971325.767,32.227,26.367,36.133,30.762,59.570,0
1512971325.771,35.156,6.836,36.133,32.715,29.785,0
1512971325.775,33.691,-0.488,37.598,30.273,39.551,0
1512971325.779,36.133,23.926,36.621,39.062,49.316,0
1512971325.783,32.227,36.133,41.504,41.504,18.066,0
1512971325.787,31.738,26.367,43.457,36.133,7.324,0
1512971325.791,35.645,19.531,30.273,29.785,31.250,0
1512971325.795,39.551,27.832,28.809,29.297,41.016,0
1512971325.798,38.086,36.621,37.109,37.109,35.156,0
1512971325.802,31.738,32.715,35.645,35.156,27.344,0
1512971325.806,36.133,26.367,25.391,31.250,36.133,0
1512971325.810,43.457,30.762,19.531,41.992,32.227,0
1512971325.814,45.898,29.297,39.062,42.969,31.250,0
1512971325.818,46.875,20.020,47.852,33.691,20.020,0
1512971325.822,48.828,23.926,42.969,28.809,48.828,0
1512971325.826,51.758,16.113,49.805,29.785,69.336,0
1512971325.830,43.945,7.324,50.781,30.762,44.434,0
1512971325.834,30.273,18.555,46.387,32.227,32.715,0
1512971325.837,29.297,25.391,44.434,36.133,64.941,0
1512971325.841,30.762,29.297,44.434,40.039,75.195,0
1512971325.845,30.762,21.484,40.039,43.457,14.648,0
1512971325.849,28.809,10.254,32.227,45.410,6.348,0
1512971325.853,21.973,19.043,36.621,41.992,43.457,0
1512971325.857,21.484,32.227,38.574,47.852,21.973,0
1512971325.861,22.461,22.949,41.016,44.922,-1.953,0
1512971325.865,19.043,6.348,44.922,30.273,3.906,0
1512971325.869,22.949,16.113,45.410,29.297,58.105,0
1512971325.873,19.043,25.879,49.805,37.598,61.523,0
1512971325.877,18.066,20.508,45.898,35.645,31.250,0
1512971325.880,21.484,22.949,40.039,36.133,30.762,0
1512971325.884,15.625,24.902,41.992,41.992,51.270,0
1512971325.888,18.066,8.301,45.898,36.621,48.340,0
1512971325.892,22.949,0.488,41.992,39.062,19.043,0
1512971325.896,26.855,5.371,37.598,44.922,9.277,0
1512971325.900,27.832,14.648,37.598,40.039,20.996,0
1512971325.904,21.484,19.531,36.621,36.621,27.344,0
1512971325.908,24.902,25.879,42.480,40.039,27.832,0
1512971325.912,30.762,35.156,42.969,36.621,28.320,0
1512971325.916,21.973,30.762,32.715,28.809,27.832,0
1512971325.920,20.508,27.344,33.691,25.391,46.387,0
1512971325.923,29.785,33.203,36.621,32.227,41.016,0
1512971325.927,26.367,26.367,29.297,30.762,56.152,0
1512971325.931,26.855,15.137,34.180,30.762,51.270,0
1512971325.935,36.133,16.113,35.645,38.574,18.066,0
1512971325.939,42.480,24.414,26.367,40.527,37.598,0
1512971325.943,41.504,34.180,26.855,40.527,41.992,0
1512971325.947,37.109,25.879,34.668,42.969,11.719,0
1512971325.951,33.691,11.230,38.086,34.668,-15.625,0
1512971325.955,39.551,22.949,43.457,29.785,7.812,0
1512971325.959,40.039,44.434,39.551,27.832,38.086,0
1512971325.962,37.109,49.316,33.691,23.438,33.691,0
1512971325.966,41.016,46.875,27.832,23.438,35.156,0
1512971325.970,36.133,41.504,26.855,24.902,36.621,0
1512971325.974,36.621,35.645,28.320,31.250,50.781,0
1512971325.978,33.203,21.973,23.926,27.832,44.434,0
1512971325.982,18.066,10.254,25.391,17.090,24.414,0
1512971325.986,16.113,8.789,24.902,16.113,27.344,0
1512971325.990,25.879,17.090,26.855,23.438,32.227,0
1512971325.994,31.738,14.648,36.133,27.344,-1.465,0
1512971325.998,28.809,24.902,36.621,25.879,2.930,0
1512971326.002,27.344,40.039,35.156,27.344,43.457,0
1512971326.005,21.484,33.203,35.645,30.762,33.691,0
1512971326.009,28.320,30.273,41.016,33.691,26.367,0
1512971326.013,38.086,26.367,43.457,35.645,52.246,0
1512971326.017,30.762,21.484,30.762,35.156,88.379,0
1512971326.021,33.203,12.695,34.668,41.992,67.383,0
1512971326.025,32.227,4.883,34.668,39.062,57.617,0
1512971326.029,24.414,6.836,19.043,29.785,71.777,0
1512971326.033,31.250,8.301,35.645,37.109,53.223,0
1512971326.037,27.344,18.555,44.922,39.551,53.711,0
1512971326.041,22.461,18.555,33.691,28.320,35.156,0
1512971326.045,31.250,18.066,37.109,27.344,15.137,0
1512971326.048,36.621,23.926,37.109,32.227,55.176,0
1512971326.052,38.574,33.203,33.203,40.039,57.617,0
1512971326.056,41.992,31.250,39.062,41.992,46.387,0
1512971326.060,44.434,19.043,38.574,40.039,54.199,0
1512971326.064,43.457,21.973,39.551,40.527,32.227,0
1512971326.068,41.504,15.625,42.480,44.922,27.832,0
1512971326.072,44.434,2.441,42.480,45.410,51.270,0
1512971326.076,35.645,2.930,43.457,34.668,63.965,0
1512971326.080,26.367,4.395,44.922,33.203,56.641,0
1512971326.084,29.297,12.207,40.039,36.621,38.574,0
1512971326.087,23.926,23.438,32.227,27.832,16.113,0
1512971326.091,20.996,5.371,36.621,23.926,67.383,0
1512971326.095,23.926,6.348,44.922,18.555,80.566,0
1512971326.099,25.879,26.367,40.527,19.531,26.855,0
1512971326.103,22.949,29.785,35.645,28.320,20.020,0
1512971326.107,19.043,25.391,33.203,30.273,44.922,0
1512971326.111,24.414,3.906,39.551,39.062,45.898,2
1512971326.115,36.133,13.184,63.477,52.246,30.273,0
1512971326.119,29.297,31.738,61.523,52.734,33.203,0
1512971326.123,13.184,13.184,44.434,48.828,50.781,0
1512971326.127,19.043,3.418,51.270,55.664,51.270,0
1512971326.130,12.695,5.859,45.898,52.734,21.484,0
1512971326.134,3.906,11.230,36.133,44.434,17.090,0
1512971326.138,14.160,14.160,41.016,42.480,48.340,0
1512971326.142,17.090,20.020,38.574,45.410,46.875,0
1512971326.146,11.230,15.625,37.109,47.852,30.273,0
1512971326.150,8.789,4.395,36.621,41.992,32.715,0
1512971326.154,9.277,16.113,40.527,44.922,62.012,0
1512971326.158,5.859,32.715,44.434,47.852,58.594,0
1512971326.162,6.348,29.785,41.992,41.992,68.359,0
1512971326.166,15.137,30.273,54.688,46.875,78.125,0
1512971326.170,13.184,27.832,60.059,52.734,70.312,0
1512971326.173,7.812,14.160,47.852,50.293,59.082,0
1512971326.177,20.020,5.859,48.340,60.059,32.227,0
1512971326.181,32.715,8.789,53.223,70.312,29.785,0
1512971326.185,25.879,12.695,52.246,61.523,38.574,0
1512971326.189,25.391,2.441,46.387,57.617,27.832,0
1512971326.193,35.156,8.301,43.945,64.941,-3.418,0
1512971326.197,41.992,24.902,41.016,60.059,16.113,0
1512971326.201,28.320,30.762,38.574,49.805,41.504,0
1512971326.205,21.484,31.738,39.062,52.246,37.109,0
1512971326.209,23.438,27.832,36.133,45.410,41.992,0
1512971326.212,14.648,13.184,34.668,40.039,48.340,0
1512971326.216,20.020,21.973,37.109,47.852,54.688,0
1512971326.220,26.855,34.180,42.480,46.387,53.711,0
1512971326.224,24.414,21.973,37.598,41.016,15.625,0
1512971326.228,30.762,22.461,33.691,36.133,18.555,0
1512971326.232,38.574,26.855,39.551,41.992,43.945,0
1512971326.236,36.621,25.879,42.480,46.875,23.926,0
1512971326.240,29.785,12.207,28.320,39.062,10.254,0
1512971326.244,29.785,-5.859,33.203,34.180,40.039,0
1512971326.248,24.414,13.672,41.016,33.203,23.438,0
1512971326.252,22.949,33.691,34.180,28.809,10.742,0
1512971326.255,25.879,29.785,36.133,23.926,50.293,0
1512971326.259,26.855,27.832,33.203,28.320,49.805,0
1512971326.263,20.508,32.227,32.715,28.320,37.109,0
1512971326.267,18.066,33.691,38.086,33.203,32.715,0
1512971326.271,23.926,36.621,42.969,37.598,20.020,0
1512971326.275,21.484,30.762,41.992,41.504,25.879,0
1512971326.279,25.879,21.973,41.016,45.898,18.066,0
1512971326.283,28.320,22.949,35.156,49.805,13.672,0
1512971326.287,22.461,24.414,42.969,50.781,29.785,0
1512971326.291,23.926,24.902,52.734,44.922,48.828,0
1512971326.295,27.832,9.277,50.293,42.969,44.922,0
1512971326.298,25.391,0.488,40.039,39.551,34.180,0
1512971326.302,23.926,23.926,29.785,32.227,41.992,0
1512971326.306,22.461,34.180,32.715,28.809,43.457,0
1512971326.310,18.555,16.602,36.133,33.691,47.852,0
1512971326.314,18.066,1.465,42.480,33.691,35.645,0
1512971326.318,25.391,6.348,41.504,31.738,62.500,0
1512971326.322,34.180,26.367,38.086,40.039,65.918,0
1512971326.326,37.109,29.297,44.434,43.457,25.879,0
1512971326.330,37.598,25.391,50.293,40.527,30.273,0
1512971326.334,34.668,26.367,45.898,41.992,26.855,0
1512971326.337,34.180,21.484,34.668,41.504,22.949,0
1512971326.341,32.715,25.391,33.691,33.691,18.066,0
1512971326.345,35.645,34.668,33.691,31.738,14.648,0
1512971326.349,35.645,20.020,33.691,36.621,35.645,0
1512971326.353,35.156,3.906,36.621,39.551,33.203,0
1512971326.357,30.762,26.367,29.297,31.250,41.016,0
1512971326.361,23.438,35.156,20.996,22.949,51.270,0
1512971326.365,25.391,26.367,29.785,25.391,19.043,0
1512971326.369,21.973,26.855,37.598,24.414,12.695,0
1512971326.373,22.461,28.320,41.504,23.926,38.574,0
1512971326.377,24.414,28.320,43.457,27.832,78.125,0
1512971326.380,21.973,17.090,35.156,34.180,51.758,0
1512971326.384,23.926,21.484,29.297,37.598,43.457,0
1512971326.388,32.227,28.809,35.645,38.086,80.078,0
1512971326.392,37.109,21.973,43.945,43.457,71.777,0
1512971326.396,27.832,15.625,45.410,41.992,76.172,0
1512971326.400,18.555,2.930,39.551,34.180,85.938,0
1512971326.404,20.508,8.301,37.109,34.668,79.102,0
1512971326.408,29.297,26.367,45.898,35.156,48.340,0
1512971326.412,28.320,20.996,49.316,34.668,42.969,0
1512971326.416,18.555,14.648,50.781,39.062,42.969,0
1512971326.420,21.484,15.625,54.688,44.922,46.387,0
1512971326.423,31.250,23.926,51.270,43.457,34.180,0
1512971326.427,33.203,31.738,49.805,40.039,16.113,0
1512971326.431,35.645,32.715,41.016,44.922,22.461,0
1512971326.435,37.598,36.133,31.250,44.434,56.152,0
1512971326.439,39.062,28.320,41.504,47.852,47.852,0
1512971326.443,44.434,17.090,41.016,51.270,38.086,0
1512971326.447,46.387,29.297,36.621,48.340,38.574,0
1512971326.451,41.504,31.250,41.992,51.270,53.223,0
1512971326.455,42.969,27.832,42.480,53.711,55.664,0
1512971326.459,46.875,23.438,36.133,46.875,13.672,0
1512971326.462,44.434,16.602,36.133,41.016,9.277,0
1512971326.466,42.480,22.949,39.062,40.039,52.246,0
1512971326.470,38.086,33.691,36.621,38.086,64.941,0
1512971326.474,33.691,31.738,34.180,35.645,50.293,0
1512971326.478,32.715,13.184,25.879,33.203,47.852,0
1512971326.482,29.297,10.254,20.996,26.855,69.824,0
1512971326.486,27.344,18.555,30.762,33.203,62.988,0
1512971326.490,35.156,20.996,37.598,49.316,48.340,0
1512971326.494,41.016,34.180,37.109,55.176,46.387,0
1512971326.498,42.480,40.039,36.133,51.758,71.777,0
1512971326.502,37.109,26.855,28.809,48.340,74.707,0
1512971326.505,35.645,27.832,22.461,53.223,15.625,0
1512971326.509,40.039,29.785,27.344,55.664,27.344,0
1512971326.513,35.645,27.344,30.762,50.293,44.922,0
1512971326.517,32.227,31.738,37.109,47.852,29.785,0
1512971326.521,32.715,16.113,40.039,50.293,17.090,0
1512971326.525,25.879,1.953,39.062,47.363,38.574,0
1512971326.529,26.367,5.859,45.898,48.828,48.340,0
1512971326.533,27.832,8.301,45.410,48.340,33.691,0
1512971326.537,23.438,26.367,38.574,38.574,27.344,0
1512971326.541,17.578,32.227,34.668,31.738,41.016,0
1512971326.545,12.695,21.973,36.133,30.273,33.691,0
1512971326.548,11.230,26.855,35.156,32.227,39.551,0
1512971326.552,4.395,22.949,30.273,32.715,46.387,0
1512971326.556,9.277,8.789,29.297,34.180,41.992,0
1512971326.560,12.207,17.090,36.133,37.598,35.156,0
1512971326.564,3.418,29.297,43.457,33.691,7.812,0
1512971326.568,10.742,31.738,38.574,27.344,17.090,0
1512971326.572,20.996,24.902,29.297,31.738,-2.930,0
1512971326.576,28.809,15.137,38.574,39.551,2.441,0
1512971326.580,37.598,-4.883,51.270,45.410,48.340,0
1512971326.584,41.992,-5.371,44.922,48.340,55.176,0
1512971326.587,37.598,17.090,38.086,40.527,75.684,0
1512971326.591,34.180,31.738,32.227,38.574,76.660,0
1512971326.595,43.945,36.133,27.344,44.922,46.387,0
1512971326.599,39.551,26.367,32.715,44.434,21.484,0
1512971326.603,33.691,24.902,39.551,46.387,40.527,0
1512971326.607,47.363,32.715,41.504,47.363,43.945,0
1512971326.611,47.852,37.598,30.273,44.922,13.672,3
1512971326.615,49.805,38.086,29.297,52.734,55.664,0
1512971326.619,49.805,41.016,33.691,61.523,82.520,0
1512971326.623,50.293,43.457,36.621,64.941,48.828,0
1512971326.627,50.781,41.504,40.039,60.547,27.344,0
1512971326.630,44.922,30.273,22.461,51.758,10.742,0
1512971326.634,32.715,11.719,21.973,51.758,22.949,0
1512971326.638,25.391,0.000,41.992,46.875,14.648,0
1512971326.642,23.926,8.301,46.387,31.738,6.348,0
1512971326.646,12.695,23.438,42.969,26.855,23.438,0
1512971326.650,11.719,32.227,41.992,31.738,34.668,0
1512971326.654,18.555,23.438,40.039,33.203,53.711,0
1512971326.658,25.391,13.184,46.875,35.645,56.641,0
1512971326.662,32.227,21.973,55.176,44.434,45.898,0
1512971326.666,22.461,20.996,45.410,38.574,52.734,0
1512971326.670,20.508,20.508,34.668,30.273,45.898,0
1512971326.673,28.809,15.137,30.762,30.273,23.926,0
1512971326.677,30.762,13.184,40.039,33.691,72.266,0
1512971326.681,22.461,6.836,48.340,31.250,72.754,0
1512971326.685,13.672,-6.836,41.016,20.508,53.223,0
1512971326.689,12.695,11.230,36.621,24.902,48.828,0
1512971326.693,9.277,30.762,34.668,29.785,46.387,0
1512971326.697,13.672,15.137,25.391,21.973,48.340,0
1512971326.701,21.973,20.020,22.949,23.926,12.695,0
1512971326.705,20.020,43.945,30.273,30.273,7.812,0
1512971326.709,23.926,38.574,34.180,20.508,41.504,0
1512971326.712,25.879,28.809,32.715,22.461,22.461,0
1512971326.716,20.020,23.926,25.391,30.762,3.906,0
1512971326.720,17.090,12.207,29.297,25.879,62.988,0
1512971326.724,17.578,19.043,37.598,33.203,88.867,0
1512971326.728,19.043,22.461,39.551,36.133,41.016,0
1512971326.732,14.648,15.625,41.504,38.086,17.578,0
1512971326.736,20.020,10.254,45.898,47.852,46.387,0
1512971326.740,27.832,9.277,45.410,46.875,48.340,0
1512971326.744,30.762,20.508,48.340,53.223,28.809,0
1512971326.748,24.414,14.648,48.340,68.848,22.461,0
1512971326.752,29.297,8.789,45.898,70.801,44.434,0
1512971326.755,39.062,16.602,51.270,71.777,59.082,0
1512971326.759,41.504,15.625,49.805,63.965,32.715,0
1512971326.763,40.039,11.230,51.270,64.941,20.508,0
1512971326.767,34.180,21.484,48.340,65.918,40.527,0
1512971326.771,26.855,31.250,42.969,55.176,41.016,0
1512971326.775,24.902,26.855,48.828,47.852,62.012,0
1512971326.779,24.414,16.602,48.340,42.969,85.938,0
1512971326.783,25.391,14.648,54.199,43.945,83.496,0
1512971326.787,20.020,18.066,50.293,41.504,71.289,0
1512971326.791,8.789,14.648,40.527,27.344,21.484,0
1512971326.795,4.883,18.066,41.504,21.973,25.391,0
1512971326.798,4.395,26.367,45.410,19.043,64.453,0
1512971326.802,13.672,28.320,38.574,17.578,74.219,0
1512971326.806,18.066,29.297,36.133,24.414,69.336,0
1512971326.810,6.348,25.879,46.875,16.602,38.086,0
1512971326.814,4.883,20.508,44.434,15.137,48.340,0
1512971326.818,12.695,20.508,41.016,23.926,48.828,0
1512971326.822,14.648,20.020,43.945,23.438,26.855,0
1512971326.826,20.996,20.508,43.457,21.484,60.059,0
1512971326.830,27.832,24.414,37.598,15.625,60.547,0
1512971326.834,16.113,20.996,32.227,-0.488,19.531,0
1512971326.837,8.789,30.273,28.809,-6.348,5.371,0
1512971326.841,8.301,32.715,23.926,-13.184,51.270,0
1512971326.845,-6.836,25.879,20.508,-35.645,84.961,0
1512971326.849,-25.879,27.344,11.719,-47.852,40.527,0
1512971326.853,-53.223,26.367,4.883,-55.176,22.461,0
1512971326.857,-65.430,36.621,5.859,-62.500,60.059,0
1512971326.861,-84.961,37.109,0.488,-81.543,58.594,0
1512971326.865,-115.234,26.367,-10.742,-107.910,19.531,0
1512971326.869,-119.141,28.809,-11.230,-111.816,28.809,0
1512971326.873,-113.770,54.688,-0.488,-112.793,45.898,0
1512971326.877,-122.070,61.523,-6.836,-122.559,14.648,0
1512971326.880,-138.184,61.035,-4.883,-129.395,15.137,0
1512971326.884,-140.625,61.035,-3.418,-135.742,34.668,0
1512971326.888,-126.953,46.875,-6.836,-134.766,38.574,0
1512971326.892,-118.652,38.086,-1.465,-126.953,29.785,0
1512971326.896,-119.141,34.668,-0.977,-119.141,27.344,0
1512971326.900,-113.281,20.508,1.465,-110.352,30.273,0
1512971326.904,-100.098,37.598,11.719,-104.004,41.992,0
1512971326.908,-89.355,63.965,11.230,-95.703,30.762,0
1512971326.912,-79.590,56.152,12.695,-81.055,18.066,0
1512971326.916,-74.707,52.734,17.090,-77.148,47.852,0
1512971326.920,-69.336,62.988,19.043,-75.195,65.430,0
1512971326.923,-52.246,59.570,19.531,-56.641,56.641,0
1512971326.927,-39.551,36.621,16.602,-41.504,43.457,0
1512971326.931,-32.715,33.203,17.090,-31.738,15.625,0
1512971326.935,-35.645,25.391,20.508,-28.320,22.461,0
1512971326.939,-26.367,20.020,27.832,-19.043,16.602,0
1512971326.943,-1.465,20.508,32.227,-3.906,19.043,0
1512971326.947,9.766,19.531,35.645,9.766,74.707,0
1512971326.951,0.977,19.043,38.574,20.020,73.242,0
1512971326.955,5.859,13.672,44.922,25.879,28.320,0
1512971326.959,24.902,4.883,37.109,36.621,31.738,0
1512971326.962,39.551,12.695,28.809,53.711,47.852,0
1512971326.966,41.992,11.230,41.504,68.848,34.668,0
1512971326.970,52.246,-1.465,48.340,80.078,44.434,0
1512971326.974,61.523,4.883,47.363,84.473,35.156,0
1512971326.978,62.988,3.418,45.410,79.590,27.832,0
1512971326.982,55.664,-4.395,40.039,70.801,43.457,0
1512971326.986,57.617,7.324,43.457,71.777,48.828,0
1512971326.990,70.801,25.879,54.688,80.566,60.547,0
1512971326.994,70.312,10.742,39.062,76.660,54.688,0
1512971326.998,79.590,8.789,29.785,77.148,16.602,0
1512971327.002,89.355,22.949,41.992,82.520,3.418,0
1512971327.005,89.355,24.414,47.363,85.449,37.598,0
1512971327.009,92.285,17.090,41.504,97.656,64.453,0
1512971327.013,99.609,6.836,41.504,96.680,67.871,0
1512971327.017,105.469,0.000,50.293,97.168,40.039,0
1512971327.021,108.887,11.230,52.734,106.934,43.945,0
1512971327.025,104.980,18.555,48.340,104.492,54.688,0
1512971327.029,106.445,17.090,48.828,106.445,19.043,0
1512971327.033,106.445,19.531,51.270,114.746,9.766,0
1512971327.037,110.840,17.090,45.410,120.117,41.016,0
1512971327.041,110.352,7.812,49.805,120.605,66.895,0
1512971327.045,103.516,-1.465,63.477,123.047,47.363,0
1512971327.048,109.375,0.488,68.359,127.441,46.875,0
1512971327.052,102.051,13.184,61.035,116.699,80.566,0
1512971327.056,96.680,17.578,57.129,107.422,51.270,0
1512971327.060,101.562,21.484,56.641,106.934,32.227,0
1512971327.064,99.121,0.977,53.223,102.051,58.594,0
1512971327.068,86.426,-3.906,58.594,94.238,52.734,0
1512971327.072,78.613,12.695,54.688,91.797,64.453,0
1512971327.076,72.266,9.766,53.711,86.914,71.777,0
1512971327.080,72.754,19.531,56.152,90.820,49.805,0
1512971327.084,68.848,21.973,51.270,93.262,51.270,0
1512971327.087,57.129,21.484,50.293,82.520,40.527,0
1512971327.091,68.848,17.578,51.270,82.520,22.949,0
1512971327.095,84.473,12.207,57.617,91.797,38.574,0
1512971327.099,89.355,21.973,55.664,94.238,45.410,0
1512971327.103,87.402,25.879,52.734,91.797,39.062,0
1512971327.107,83.496,24.414,48.828,90.332,5.859,0
1512971327.111,94.727,25.879,46.387,97.656,11.719,4
1512971327.115,93.750,14.160,48.828,94.727,21.973,0
1512971327.119,80.078,13.672,44.434,81.543,17.090,0
1512971327.123,83.008,34.668,42.480,88.379,3.906,0
1512971327.127,91.797,26.855,44.434,90.332,16.602,0
1512971327.130,91.797,16.602,41.016,83.496,58.594,0
1512971327.134,81.055,34.668,38.086,79.590,45.898,0
1512971327.138,71.289,41.016,42.480,70.312,40.039,0
1512971327.142,70.801,24.414,47.852,65.430,59.570,0
1512971327.146,65.430,24.414,45.898,67.383,56.152,0
1512971327.150,57.617,24.414,47.363,66.895,16.113,0
1512971327.154,59.570,21.973,53.223,70.312,24.414,0
1512971327.158,71.777,19.043,53.711,84.961,64.941,0
1512971327.162,76.660,9.277,54.199,95.215,57.129,0
1512971327.166,67.383,15.137,53.711,93.750,37.109,0
1512971327.170,58.105,32.715,54.199,86.426,20.996,0
1512971327.173,58.594,30.762,51.758,80.078,28.809,0
1512971327.177,59.570,18.555,56.641,85.449,19.043,0
1512971327.181,53.711,31.738,65.430,82.031,-4.395,0
1512971327.185,51.758,34.180,57.617,71.777,26.855,0
1512971327.189,42.480,14.648,47.363,66.406,56.641,0
1512971327.193,42.969,18.555,50.293,65.918,44.434,0
1512971327.197,43.945,15.625,59.082,64.941,19.531,0
1512971327.201,37.598,12.695,51.758,52.734,36.621,0
1512971327.205,44.434,31.738,44.434,48.340,63.477,0
1512971327.209,46.387,27.344,50.293,55.176,35.645,0
1512971327.212,49.805,9.766,45.898,60.059,0.000,0
1512971327.216,58.594,25.879,31.738,61.035,43.945,0
1512971327.220,65.918,23.926,35.645,58.105,48.828,0
1512971327.224,60.059,13.672,41.992,49.805,20.508,0
1512971327.228,56.152,32.715,42.480,48.828,45.898,0
1512971327.232,50.293,31.738,42.480,45.898,65.430,0
1512971327.236,40.527,23.438,35.645,41.016,50.293,0
1512971327.240,44.922,24.414,31.250,35.156,53.711,0
1512971327.244,45.898,17.090,32.715,23.438,42.969,0
1512971327.248,41.992,18.066,34.180,21.973,30.273,0
1512971327.252,36.621,34.668,29.785,21.484,39.062,0
1512971327.255,34.180,38.086,25.391,16.602,38.574,0
1512971327.259,33.203,15.137,30.273,21.973,46.387,0
1512971327.263,32.227,12.695,30.273,22.949,32.715,0
1512971327.267,37.109,36.621,24.902,26.367,34.180,0
1512971327.271,34.180,32.227,21.973,36.133,21.973,0
1512971327.275,29.297,30.273,22.949,38.574,13.184,0
1512971327.279,33.691,37.598,18.066,30.273,61.523,0
1512971327.283,25.879,31.250,10.254,20.996,69.824,0
1512971327.287,16.113,33.691,21.484,22.461,36.133,0
1512971327.291,13.672,35.156,33.203,20.508,30.762,0
1512971327.295,9.277,23.926,34.180,18.066,58.105,0
1512971327.298,11.230,4.883,34.180,23.438,30.273,0
1512971327.302,10.254,10.742,31.250,33.691,26.367,0
1512971327.306,14.160,32.715,27.344,31.250,67.383,0
1512971327.310,21.484,37.109,32.715,32.715,39.062,0
1512971327.314,17.090,16.602,38.086,36.621,-7.324,0
1512971327.318,21.973,6.836,39.551,30.273,-23.926,0
1512971327.322,24.414,24.902,33.691,27.832,5.859,0
1512971327.326,19.531,24.414,26.855,29.297,42.969,0
1512971327.330,22.949,26.367,30.762,24.902,39.062,0
1512971327.334,11.719,14.648,36.133,15.137,45.410,0
1512971327.337,2.930,13.672,38.086,12.207,65.918,0
1512971327.341,8.789,31.738,22.461,9.277,43.457,0
1512971327.345,2.930,21.973,9.277,5.859,-6.348,0
1512971327.349,-3.906,22.949,23.438,2.441,-1.953,0
1512971327.353,5.371,25.879,32.227,4.883,24.414,0
1512971327.357,9.766,28.320,30.762,4.883,46.387,0
1512971327.361,5.859,19.043,27.344,-3.906,44.922,0
1512971327.365,15.137,17.090,25.879,-1.953,45.898,0
1512971327.369,23.438,24.902,28.809,19.043,45.410,0
1512971327.373,25.391,20.020,30.273,24.902,28.320,0
1512971327.377,28.320,34.668,35.645,25.879,34.668,0
1512971327.380,27.344,45.898,31.250,30.273,60.547,0
1512971327.384,20.996,25.391,19.531,29.297,46.387,0
1512971327.388,18.066,-1.465,30.273,31.738,12.695,0
1512971327.392,21.973,-5.859,39.551,32.715,2.441,0
1512971327.396,19.043,25.879,33.203,32.227,7.324,0
1512971327.400,19.043,49.805,28.809,40.039,-0.488,0
1512971327.404,19.531,39.062,34.180,45.410,19.531,0
1512971327.408,18.066,23.438,34.180,42.480,28.809,0
1512971327.412,26.367,27.832,38.086,41.992,15.137,0
1512971327.416,20.996,27.832,37.598,48.828,18.555,0
1512971327.420,13.184,25.391,31.738,50.293,12.207,0
1512971327.423,23.926,31.738,33.691,41.992,8.789,0
1512971327.427,22.461,14.160,28.809,35.645,28.320,0
1512971327.431,23.926,-6.836,40.039,45.898,8.789,0
1512971327.435,25.879,-7.324,53.711,49.316,23.926,0
1512971327.439,18.066,14.648,44.434,49.316,78.125,0
1512971327.443,19.043,33.203,37.109,47.852,58.594,0
1512971327.447,21.973,32.715,41.992,45.898,0.488,0
1512971327.451,25.879,30.273,47.363,49.316,-20.508,0
1512971327.455,27.344,16.113,40.039,41.504,20.508,0
1512971327.459,30.273,14.648,37.109,41.504,41.992,0
1512971327.462,39.551,24.414,36.621,42.480,14.648,0
1512971327.466,42.480,11.230,28.320,37.598,-2.930,0
1512971327.470,39.062,3.906,22.949,37.109,8.301,0
1512971327.474,31.250,1.953,27.832,31.250,27.344,0
1512971327.478,27.344,9.277,27.832,24.414,36.133,0
1512971327.482,20.996,27.832,26.367,19.531,45.898,0
1512971327.486,11.230,37.109,24.414,13.672,35.645,0
1512971327.490,5.859,36.133,17.578,16.602,8.789,0
1512971327.494,6.348,29.297,14.648,13.672,-8.789,0
1512971327.498,2.930,28.809,15.625,5.859,4.395,0
1512971327.502,4.883,18.555,16.113,10.742,39.551,0
1512971327.505,4.395,23.438,20.020,18.555,18.555,0
1512971327.509,4.395,30.762,20.508,17.090,12.695,0
1512971327.513,7.324,31.738,16.602,20.020,47.852,0
1512971327.517,-0.488,20.020,25.879,28.809,23.438,0
1512971327.521,-2.441,6.348,23.926,30.273,23.926,0
1512971327.525,7.812,10.254,19.531,26.367,37.598,0
1512971327.529,11.719,16.113,27.344,27.344,18.555,0
1512971327.533,10.254,40.527,26.855,39.551,18.066,0
1512971327.537,5.371,47.363,22.949,36.133,17.578,0
1512971327.541,-1.465,36.133,26.855,31.738,-6.348,0
1512971327.545,4.883,38.574,35.156,40.527,-7.812,0
1512971327.548,11.230,34.668,37.109,45.410,34.180,0
1512971327.552,12.207,26.367,40.039,49.805,32.227,0
1512971327.556,15.625,29.297,33.691,56.152,20.020,0
1512971327.560,21.484,12.695,24.414,55.176,24.414,0
1512971327.564,31.250,-12.695,36.621,58.594,15.137,0
1512971327.568,31.250,18.066,50.293,64.941,8.301,0
1512971327.572,20.508,44.922,38.086,54.688,5.859,0
1512971327.576,26.855,30.273,29.297,43.945,7.812,0
1512971327.580,34.180,8.301,38.574,42.480,16.602,0
1512971327.584,19.043,16.113,33.691,28.320,26.855,0
1512971327.587,19.043,45.898,29.297,31.738,-6.836,0
1512971327.591,25.879,35.645,33.203,37.109,-5.859,0
1512971327.595,22.461,18.555,33.203,29.297,58.594,0
1512971327.599,26.855,21.973,41.992,37.109,55.664,0
1512971327.603,26.855,3.418,51.758,43.457,14.648,0
1512971327.607,30.273,-16.602,44.922,43.457,5.371,0
1512971327.611,34.668,0.000,48.828,56.152,13.184,0
1512971327.615,32.715,24.902,57.617,67.871,10.254,5
1512971327.619,34.668,22.949,53.223,60.059,-5.859,0
1512971327.623,35.645,22.949,52.246,57.129,22.461,0
1512971327.627,36.621,20.996,50.293,66.895,33.203,0
1512971327.630,38.574,18.555,51.270,70.801,-6.836,0
1512971327.634,39.062,13.672,56.152,70.312,-31.250,0
1512971327.638,43.945,-0.977,54.199,80.078,-14.160,0
1512971327.642,53.711,4.883,60.547,86.914,-2.441,0
1512971327.646,63.965,3.418,65.430,89.355,-20.996,0
1512971327.650,56.641,-9.277,58.105,93.262,-12.695,0
1512971327.654,50.293,-2.930,65.430,88.379,26.855,0
1512971327.658,55.176,17.090,66.895,85.938,30.762,0
1512971327.662,60.547,40.527,63.965,88.379,-1.465,0
1512971327.666,60.547,43.945,61.035,83.496,28.320,0
1512971327.670,47.852,29.297,55.664,74.707,31.738,0
1512971327.673,44.434,14.648,54.199,71.289,22.949,0
1512971327.677,46.875,13.672,54.688,68.848,33.203,0
1512971327.681,51.758,17.578,51.270,56.641,27.344,0
1512971327.685,42.969,0.488,45.898,50.293,29.785,0
1512971327.689,25.879,-17.578,49.316,50.781,18.555,0
1512971327.693,24.902,0.488,53.223,46.387,20.020,0
1512971327.697,26.367,20.020,49.316,40.527,27.344,0
1512971327.701,32.227,30.273,40.039,37.109,15.625,0
1512971327.705,24.902,32.715,38.574,35.645,12.207,0
1512971327.709,23.926,24.414,47.852,35.156,6.836,0
1512971327.712,33.691,15.625,52.734,45.410,29.785,0
1512971327.716,31.738,10.742,51.758,47.363,23.438,0
1512971327.720,31.250,9.766,51.758,40.039,8.789,0
1512971327.724,35.156,12.695,52.734,43.457,3.418,0
1512971327.728,39.062,16.602,49.316,49.316,21.484,0
1512971327.732,29.297,20.020,43.457,48.828,25.391,0
1512971327.736,25.879,19.043,45.410,51.758,-10.254,0
1512971327.740,38.574,20.996,46.387,58.105,3.418,0
1512971327.744,41.016,26.367,44.434,62.012,21.484,0
1512971327.748,38.574,22.461,41.504,64.453,13.184,0
1512971327.752,37.598,26.855,43.457,60.059,42.480,0
1512971327.755,35.156,32.227,49.316,59.570,56.152,0
1512971327.759,29.297,20.020,49.316,61.523,33.691,0
1512971327.763,37.598,2.441,47.363,67.383,18.066,0
1512971327.767,53.223,14.160,54.199,76.660,24.902,0
1512971327.771,48.828,39.551,46.387,70.801,27.344,0
1512971327.775,42.969,34.668,37.598,62.500,15.137,0
1512971327.779,38.086,18.066,35.645,53.711,-18.066,0
1512971327.783,28.320,22.461,34.180,48.340,-30.762,0
1512971327.787,33.691,23.438,33.203,54.199,12.207,0
1512971327.791,36.133,21.484,34.180,46.875,40.039,0
1512971327.795,33.203,20.996,40.527,47.363,12.207,0
1512971327.798,39.551,15.137,40.039,53.223,-2.930,0
1512971327.802,46.875,18.066,31.250,42.480,16.113,0
1512971327.806,49.316,16.602,26.855,37.109,11.230,0
1512971327.810,43.945,14.160,29.785,32.227,-18.555,0
1512971327.814,41.504,31.738,33.203,33.203,6.836,0
1512971327.818,36.133,34.668,35.156,39.062,17.090,0
1512971327.822,29.785,25.879,35.156,41.504,9.277,0
1512971327.826,27.344,28.320,34.180,35.645,8.301,0
1512971327.830,25.391,26.855,32.227,33.203,6.836,0
1512971327.834,20.508,21.484,33.203,36.133,22.461,0
1512971327.837,19.531,22.949,38.574,38.574,3.418,0
1512971327.841,25.879,26.855,42.480,38.086,0.000,0
1512971327.845,27.832,24.414,39.551,33.691,46.387,0
1512971327.849,28.320,24.414,38.086,33.203,12.695,0
1512971327.853,25.391,0.488,32.227,37.598,-4.395,0
1512971327.857,28.320,-11.719,26.367,44.922,56.152,0
1512971327.861,34.180,38.086,45.410,53.223,54.688,0
1512971327.865,20.996,58.105,44.922,41.016,10.254,0
1512971327.869,6.348,39.062,30.762,25.879,18.066,0
1512971327.873,-0.488,26.855,31.738,22.461,-10.742,0
1512971327.877,8.789,25.879,31.738,23.926,-8.301,0
1512971327.880,16.602,22.461,27.832,28.320,30.273,0
1512971327.884,15.625,15.137,34.180,33.691,23.926,0
1512971327.888,22.949,2.930,38.086,44.434,36.133,0
1512971327.892,31.738,2.441,41.016,52.734,64.453,0
1512971327.896,35.645,17.090,39.551,53.711,36.621,0
1512971327.900,30.273,16.113,21.484,45.898,13.672,0
1512971327.904,29.297,38.086,28.320,46.875,28.320,0
1512971327.908,42.480,54.199,38.086,44.922,30.762,0
1512971327.912,39.062,38.086,27.832,33.203,37.109,0
1512971327.916,32.227,33.203,18.555,34.180,19.043,0
1512971327.920,33.203,41.992,17.578,34.180,10.742,0
1512971327.923,36.133,32.715,21.973,28.809,31.738,0
1512971327.927,42.969,25.391,29.297,26.367,17.578,0
1512971327.931,46.387,27.832,31.738,30.273,-29.297,0
1512971327.935,41.992,31.250,23.926,28.320,-3.418,0
1512971327.939,34.180,41.016,22.461,24.414,6.836,0
1512971327.943,37.109,53.223,29.785,26.367,-29.297,0
1512971327.947,43.457,64.941,25.391,25.391,-3.418,0
1512971327.951,34.668,51.270,16.602,14.648,25.391,0
1512971327.955,26.367,46.387,18.555,7.812,31.738,0
1512971327.959,20.996,49.805,19.043,1.953,21.484,0
1512971327.962,15.137,34.180,15.625,-3.906,20.020,0
1512971327.966,4.883,33.203,14.160,-16.113,48.340,0
1512971327.970,-3.418,39.062,4.883,-24.902,24.902,0
1512971327.974,-10.254,29.297,8.789,-24.414,-2.441,0
1512971327.978,-9.766,42.480,22.949,-27.344,25.391,0
1512971327.982,-1.953,60.547,24.902,-24.414,42.480,0
1512971327.986,-8.301,57.129,20.508,-26.367,37.598,0
1512971327.990,-9.277,50.781,14.160,-27.344,33.691,0
1512971327.994,-2.930,42.480,7.812,-20.996,32.227,0
1512971327.998,3.418,42.969,7.812,-14.160,37.598,0
1512971328.002,12.695,54.199,11.719,-9.277,47.852,0
1512971328.005,3.906,55.176,4.883,-13.672,18.066,0
1512971328.009,8.789,57.129,7.324,-13.672,9.277,0
1512971328.013,21.484,57.129,8.789,-5.371,43.945,0
1512971328.017,22.949,46.387,2.441,10.254,17.090,0
1512971328.021,30.762,45.410,3.418,16.602,-9.766,0
1512971328.025,41.016,51.270,9.277,17.090,18.066,0
1512971328.029,40.039,49.805,4.883,21.484,39.551,0
1512971328.033,40.039,52.246,9.277,19.043,9.766,0
1512971328.037,40.527,64.941,18.066,23.438,3.906,0
1512971328.041,35.645,55.664,9.766,16.113,28.809,0
1512971328.045,39.062,32.227,9.277,19.531,60.059,0
1512971328.048,45.410,30.762,20.996,30.273,47.852,0
1512971328.052,44.922,38.086,24.414,27.344,11.230,0
1512971328.056,48.828,40.527,17.578,28.809,30.273,0
1512971328.060,59.570,38.086,13.672,39.062,57.617,0
1512971328.064,61.523,29.785,19.043,50.781,26.855,0
1512971328.068,55.664,33.203,21.973,50.781,0.488,0
1512971328.072,58.594,39.551,15.625,44.434,35.645,0
1512971328.076,59.570,41.992,21.484,41.504,27.832,0
1512971328.080,51.270,30.762,36.621,35.156,-15.137,0
1512971328.084,47.363,12.695,38.574,35.156,-8.301,0
1512971328.087,46.387,27.344,36.621,37.109,37.109,0
1512971328.091,41.016,45.410,36.621,27.832,36.621,0
1512971328.095,36.621,30.762,33.203,25.879,40.527,0
1512971328.099,37.598,12.695,34.180,32.715,33.203,0
1512971328.103,40.527,11.230,33.691,39.062,13.184,0
1512971328.107,44.922,19.043,35.156,43.945,6.836,0
1512971328.111,50.781,38.086,38.086,44.434,-4.395,0
1512971328.115,51.270,46.387,41.992,53.223,12.207,0
1512971328.119,42.969,32.227,32.715,55.176,13.672,0
1512971328.123,50.293,20.508,34.180,62.988,17.090,0
1512971328.127,55.664,14.160,48.828,68.359,33.203,0
1512971328.130,51.270,6.348,44.922,62.500,38.574,0
1512971328.134,48.828,20.996,50.781,70.312,34.668,0
1512971328.138,50.781,28.320,57.617,79.102,0.000,0
1512971328.142,59.082,-3.906,47.363,83.984,7.812,0
1512971328.146,58.594,-20.996,46.387,85.449,34.668,0
1512971328.150,58.105,2.930,56.152,95.215,31.250,0
1512971328.154,64.453,22.461,57.617,101.074,27.832,0
1512971328.158,59.570,18.066,50.293,90.332,22.949,0
1512971328.162,61.035,21.973,45.410,85.938,54.199,0
1512971328.166,60.059,22.949,44.434,88.379,64.453,0
1512971328.170,50.781,10.254,49.805,83.496,19.531,0
1512971328.173,56.641,15.137,47.852,81.055,3.906,0
1512971328.177,60.547,15.625,38.086,81.543,48.828,0
1512971328.181,54.199,14.160,43.457,71.777,32.715,0
1512971328.185,40.039,10.742,49.805,63.477,24.902,0
1512971328.189,36.621,-19.043,52.246,61.523,36.621,0
1512971328.193,46.387,-3.418,53.223,62.012,28.809,0
1512971328.197,43.945,36.621,50.293,57.617,37.598,0
1512971328.201,35.156,38.086,43.945,43.945,28.320,0
1512971328.205,30.762,29.297,39.551,34.668,36.133,0
1512971328.209,33.203,23.438,40.039,35.645,54.199,0
1512971328.212,33.203,18.066,41.504,32.715,26.367,0
1512971328.216,25.879,17.578,44.434,30.762,13.672,0
1512971328.220,27.832,17.090,46.875,32.715,10.742,0
1512971328.224,28.809,7.324,42.480,35.156,11.719,0
1512971328.228,32.715,-11.719,37.598,39.062,52.734,0
1512971328.232,40.039,1.953,53.711,42.969,55.176,0
1512971328.236,33.691,20.996,59.082,48.340,23.438,0
1512971328.240,27.344,23.438,39.062,42.969,23.926,0
1512971328.244,28.809,32.715,34.668,42.969,16.602,0
1512971328.248,27.832,35.156,40.527,39.551,-1.465,0
1512971328.252,20.508,28.320,38.086,29.785,26.855,0
1512971328.255,17.578,18.066,39.062,33.691,26.367,0
1512971328.259,20.996,11.719,36.133,39.062,10.742,0
1512971328.263,22.949,8.301,27.344,41.016,16.113,0
1512971328.267,22.949,17.578,37.598,44.922,19.043,0
1512971328.271,25.879,6.836,48.340,41.992,18.066,0
1512971328.275,24.902,2.930,41.016,35.645,15.625,0
1512971328.279,32.715,26.367,47.852,42.480,18.555,0
1512971328.283,29.785,23.438,48.340,37.109,10.254,0
1512971328.287,18.066,20.508,34.668,29.785,20.996,0
1512971328.291,32.227,16.602,40.039,37.598,10.742,0
1512971328.295,42.480,13.672,45.898,43.457,12.695,0
1512971328.298,39.551,29.785,42.969,46.875,37.109,0
1512971328.302,37.109,35.156,40.527,44.434,11.230,0
1512971328.306,37.598,26.855,41.016,41.504,-2.441,0
1512971328.310,40.527,36.133,46.387,42.969,-3.418,0
1512971328.314,34.668,26.367,43.945,35.645,26.367,0
1512971328.318,37.109,12.207,49.805,40.039,53.711,0
1512971328.322,30.273,9.277,50.293,36.621,20.996,0
1512971328.326,22.949,4.883,42.480,24.414,35.156,0
1512971328.330,25.879,12.695,40.527,23.438,42.480,0
1512971328.334,21.484,17.578,41.504,27.832,14.648,0
1512971328.337,18.066,27.344,49.316,35.645,26.855,0
1512971328.341,26.367,27.344,40.527,35.156,53.223,0
1512971328.345,38.574,24.414,36.621,39.551,52.734,0
1512971328.349,36.621,24.414,49.805,40.039,14.160,0
1512971328.353,26.855,7.324,49.316,34.668,19.531,0
1512971328.357,21.484,-9.766,42.969,33.203,46.387,0
1512971328.361,20.996,8.789,41.992,26.855,58.105,0
1512971328.365,20.508,27.344,41.992,28.809,36.621,0
1512971328.369,23.926,23.926,41.016,36.133,30.762,0
1512971328.373,25.879,20.996,41.992,32.715,43.945,0
1512971328.377,21.484,26.855,40.039,33.203,25.879,0
1512971328.380,18.555,22.461,35.156,43.945,5.371,0
1512971328.384,24.902,14.160,37.598,44.434,25.391,0
1512971328.388,32.715,18.555,57.129,53.711,50.293,0
1512971328.392,30.273,9.277,58.105,62.988,44.434,0
1512971328.396,22.461,0.488,54.199,62.012,30.273,0
1512971328.400,20.020,8.301,55.176,57.129,21.484,0
1512971328.404,25.391,15.137,44.922,49.316,9.766,0
1512971328.408,28.809,19.531,40.039,41.016,4.883,0
1512971328.412,25.391,20.996,43.945,30.762,28.320,0
1512971328.416,21.484,10.742,48.828,39.551,57.617,0
1512971328.420,18.066,0.977,44.922,38.086,34.668,0
1512971328.423,19.531,10.254,31.250,27.344,14.160,0
1512971328.427,21.484,21.973,21.973,24.902,13.184,0
1512971328.431,23.438,12.695,38.574,21.484,22.461,0
1512971328.435,32.227,13.184,40.527,23.926,58.105,0
1512971328.439,28.320,39.551,27.344,21.484,34.668,0
1512971328.443,28.809,54.199,34.180,21.973,-32.715,0
1512971328.447,30.273,38.574,36.133,20.508,24.902,0
1512971328.451,24.902,20.996,31.250,15.625,68.359,0
1512971328.455,28.320,32.227,33.691,19.531,33.691,0
1512971328.459,33.203,22.949,29.785,21.973,8.789,0
1512971328.462,50.781,5.859,20.996,23.438,-5.859,0
1512971328.466,51.758,28.809,15.137,17.090,4.883,0
1512971328.470,24.414,34.668,20.508,-1.953,39.062,0
1512971328.474,18.066,20.996,26.855,0.000,31.250,0
1512971328.478,20.508,21.973,23.438,1.953,-0.488,0
1512971328.482,18.066,26.367,20.996,-5.371,24.902,0
1512971328.486,12.207,27.344,26.855,-5.859,20.508,0
1512971328.490,17.090,31.250,28.320,-5.371,-7.812,0
1512971328.494,28.320,28.809,25.391,-2.930,34.180,0
1512971328.498,22.949,29.785,23.438,-6.348,43.945,0
1512971328.502,16.113,31.250,25.391,-8.789,55.176,0
1512971328.505,18.555,33.691,30.762,0.977,59.082,0
1512971328.509,20.020,34.668,22.949,0.488,10.254,0
1512971328.513,7.812,17.090,20.508,-7.324,11.719,0
1512971328.517,-9.277,5.371,21.484,-14.160,37.109,0
1512971328.521,-7.324,15.625,16.602,-6.836,27.344,0
1512971328.525,3.906,23.926,27.344,4.395,28.809,0
1512971328.529,3.418,26.855,29.785,5.371,10.254,0
1512971328.533,11.230,36.133,25.879,7.324,-9.766,0
1512971328.537,25.391,43.945,28.320,6.836,31.250,0
1512971328.541,36.621,44.922,27.832,15.137,57.129,0
1512971328.545,43.457,39.551,29.785,23.438,14.160,0
1512971328.548,46.387,35.156,37.109,25.879,6.836,0
1512971328.552,45.898,41.016,39.551,31.250,54.199,0
1512971328.556,33.203,35.156,32.715,28.809,67.871,0
1512971328.560,30.762,15.625,27.344,25.879,52.246,0
1512971328.564,39.551,11.230,26.367,29.785,42.969,0
1512971328.568,39.062,12.207,29.297,34.180,30.762,0
1512971328.572,30.273,22.949,34.180,35.156,8.789,0
1512971328.576,28.320,39.551,29.297,34.668,-10.254,0
1512971328.580,32.715,43.457,36.621,35.645,3.906,0
1512971328.584,25.391,38.086,41.992,27.344,22.461,0
1512971328.587,18.066,37.598,43.457,21.484,26.367,0
1512971328.591,16.602,42.969,42.969,16.113,24.414,0
1512971328.595,11.719,32.715,35.645,10.742,32.227,0
1512971328.599,9.766,20.020,30.762,15.137,48.828,0
1512971328.603,7.812,2.441,24.414,18.555,54.688,0
1512971328.607,13.184,-8.789,25.391,17.578,35.645,0
1512971328.611,18.555,23.438,20.996,14.648,39.551,0
1512971328.615,16.113,41.504,22.949,21.973,30.273,0
1512971328.619,11.719,31.738,35.645,30.762,-2.930,0
1512971328.623,12.207,43.457,34.668,25.879,31.738,0
1512971328.627,15.137,45.410,37.109,27.344,59.570,0
1512971328.630,16.602,31.250,40.039,29.785,37.598,0
1512971328.634,19.043,36.133,34.180,32.715,59.570,0
1512971328.638,13.672,34.668,27.344,35.156,73.242,0
1512971328.642,7.324,14.648,24.414,33.203,37.598,0
1512971328.646,9.766,3.906,27.832,30.762,32.715,0
1512971328.650,14.160,19.531,31.738,32.715,22.461,0
1512971328.654,8.789,35.645,35.156,32.227,-1.465,0
1512971328.658,0.000,29.297,39.551,28.320,35.156,0
1512971328.662,0.000,7.324,40.527,24.902,37.598,0
1512971328.666,9.277,9.766,43.945,26.855,-8.789,0
1512971328.670,17.578,23.926,47.852,35.645,5.371,0
1512971328.673,13.672,12.695,34.180,29.785,28.320,0
1512971328.677,18.066,12.207,28.809,39.062,20.508,0
1512971328.681,28.809,6.836,38.574,47.852,39.551,0
1512971328.685,26.367,15.625,41.992,38.086,44.922,0
1512971328.689,26.367,35.645,41.504,38.574,35.156,0
1512971328.693,29.297,37.598,38.574,40.039,30.273,0
1512971328.697,23.438,40.527,43.457,35.645,38.086,0
1512971328.701,26.367,28.320,53.711,36.133,5.859,0
1512971328.705,18.555,3.418,52.734,36.133,-7.324,0
1512971328.709,6.348,-1.465,45.898,31.738,-11.719,0
1512971328.712,3.418,14.648,44.434,27.832,-1.953,0
1512971328.716,1.953,12.695,41.992,20.508,31.738,0
1512971328.720,1.465,3.906,43.945,22.461,40.527,0
1512971328.724,-1.465,6.836,42.969,17.090,20.020,0
1512971328.728,-4.883,3.418,34.180,7.324,15.625,0
1512971328.732,-8.789,7.324,32.715,7.324,41.992,0
1512971328.736,-9.277,23.438,39.551,3.418,44.434,0
1512971328.740,1.953,21.484,43.457,12.207,28.320,0
1512971328.744,10.254,6.836,38.574,20.020,26.367,0
1512971328.748,7.324,14.648,35.645,13.672,64.453,0
1512971328.752,5.859,21.973,32.227,16.113,46.875,0
1512971328.755,10.254,20.508,47.363,25.879,8.301,0
1512971328.759,7.324,7.324,59.082,23.438,21.973,0
1512971328.763,26.855,-14.160,55.176,27.832,37.109,0
1512971328.767,41.992,-13.672,50.781,33.691,18.555,0
1512971328.771,28.809,2.930,38.574,26.367,-24.414,0
1512971328.775,31.250,27.344,34.668,22.949,-4.395,0
1512971328.779,43.457,37.598,37.598,21.973,30.762,0
1512971328.783,46.875,23.926,39.551,18.555,3.418,0
1512971328.787,46.387,10.254,40.039,15.625,5.371,0
1512971328.791,49.805,7.324,39.551,16.113,62.988,0
1512971328.795,50.781,7.812,33.203,24.902,54.199,0
1512971328.798,51.758,7.324,29.785,28.320,23.926,0
1512971328.802,44.922,10.742,37.109,29.297,17.578,0
1512971328.806,44.434,-8.789,39.062,34.668,18.555,0
1512971328.810,60.547,-24.902,37.109,49.316,59.082,0
1512971328.814,51.270,9.766,34.180,50.781,54.688,0
1512971328.818,32.227,31.738,41.992,35.156,25.879,0
1512971328.822,33.203,22.949,44.922,32.227,42.480,0
1512971328.826,33.203,31.250,42.969,30.273,73.242,0
1512971328.830,30.273,41.016,39.062,30.762,9.277,0
1512971328.834,26.367,33.691,37.109,26.855,-20.508,0
1512971328.837,24.902,26.855,35.645,21.973,15.625,0
1512971328.841,31.250,20.996,35.645,25.391,16.113,0
1512971328.845,33.203,18.066,38.086,22.949,-2.441,0
1512971328.849,36.621,5.859,35.645,25.879,-13.672,0
1512971328.853,34.668,4.395,35.645,27.832,18.066,0
1512971328.857,30.273,20.996,38.574,26.855,43.457,0
1512971328.861,43.945,21.973,31.250,25.879,44.434,0
1512971328.865,37.109,20.996,30.762,25.391,47.363,0
1512971328.869,18.555,22.461,41.992,27.344,60.059,0
1512971328.873,21.973,13.672,35.156,26.367,52.246,0
1512971328.877,30.273,26.367,41.992,34.180,30.273,0
1512971328.880,22.949,43.945,47.363,21.973,56.152,0
1512971328.884,14.648,36.133,36.133,10.742,70.801,0
1512971328.888,29.785,20.020,32.227,20.996,51.758,0
1512971328.892,39.551,16.602,36.621,22.949,43.945,0
1512971328.896,31.738,10.742,43.457,20.508,30.273,0
1512971328.900,28.809,11.230,39.551,20.996,23.438,0
1512971328.904,39.551,2.441,40.039,29.785,29.297,0
1512971328.908,45.898,-4.395,50.781,36.133,4.883,0
1512971328.912,41.016,22.949,55.664,34.668,35.645,0
1512971328.916,27.832,30.762,46.387,37.598,54.688,0
1512971328.920,25.879,24.414,41.504,41.992,36.133,0
1512971328.923,28.320,27.344,40.039,38.574,30.273,0
1512971328.927,31.250,30.762,33.203,36.621,34.668,0
1512971328.931,38.574,28.320,37.109,50.293,48.828,0
1512971328.935,40.527,21.973,46.387,55.664,40.039,0
1512971328.939,32.227,12.207,45.898,49.316,36.133,0
1512971328.943,33.203,9.766,42.969,51.270,52.734,0
1512971328.947,35.156,18.066,46.387,58.105,12.207,0
1512971328.951,25.391,16.602,50.293,57.129,-28.320,0
1512971328.955,28.320,-6.836,49.805,55.176,12.695,0
1512971328.959,30.273,-8.789,45.410,50.781,38.574,0
1512971328.962,24.902,24.414,43.457,45.898,25.391,0
1512971328.966,26.855,14.160,43.945,45.898,15.137,0
1512971328.970,30.762,-1.465,45.410,44.922,39.062,0
1512971328.974,26.367,20.508,46.387,42.969,59.082,0
1512971328.978,17.090,32.715,44.434,35.645,41.504,0
1512971328.982,24.902,32.715,38.086,37.109,33.203,0
1512971328.986,31.250,15.625,25.391,40.527,58.594,0
1512971328.990,37.109,15.137,35.645,48.340,49.805,0
1512971328.994,34.668,18.066,51.758,43.457,18.555,0
1512971328.998,26.367,-0.977,46.875,27.832,14.160,0
1512971329.002,19.531,7.324,38.574,17.090,29.297,0
1512971329.005,13.184,28.320,32.715,11.230,28.809,0
1512971329.009,8.301,21.973,32.227,7.812,34.668,0
1512971329.013,2.930,28.809,33.691,8.301,36.133,0
1512971329.017,7.324,43.945,31.250,13.672,18.066,0
1512971329.021,5.371,40.039,28.809,8.301,14.160,0
1512971329.025,-4.395,30.762,19.043,0.488,42.480,0
1512971329.029,-2.930,23.438,17.578,10.742,54.688,0
1512971329.033,-0.977,16.113,33.691,13.184,48.340,0
1512971329.037,-6.836,14.648,38.574,13.184,34.668,0
1512971329.041,-15.137,16.602,35.645,14.648,-3.418,0
1512971329.045,-17.090,19.531,34.180,17.090,-6.836,0
1512971329.048,-6.836,23.926,32.715,25.391,15.625,0
1512971329.052,2.930,9.277,34.668,30.273,28.809,0
1512971329.056,4.883,-10.254,39.062,32.715,26.367,0
1512971329.060,18.066,-2.930,31.738,36.621,31.250,0
1512971329.064,27.832,8.301,23.438,36.621,39.062,0
1512971329.068,41.992,16.602,28.809,48.340,9.277,0
1512971329.072,43.457,39.062,32.715,54.688,8.789,0
1512971329.076,24.902,53.223,29.785,37.598,31.738,0
1512971329.080,28.320,47.363,34.180,37.598,20.508,0
1512971329.084,35.156,40.527,43.457,50.293,39.551,0
1512971329.087,40.039,30.273,44.922,60.547,70.312,0
1512971329.091,49.316,20.508,35.645,65.918,67.383,0
1512971329.095,51.270,20.020,33.203,64.941,55.664,0
1512971329.099,51.758,18.066,33.203,60.059,52.246,0
1512971329.103,60.059,21.484,43.457,66.406,49.316,0
1512971329.107,60.059,17.578,47.852,66.406,53.223,0
1512971329.111,54.688,25.879,39.062,53.711,46.875,0
1512971329.115,51.270,26.367,34.180,50.781,24.902,0
1512971329.119,45.898,10.742,37.598,50.781,20.996,0
1512971329.123,39.062,21.973,39.551,50.781,45.410,0
1512971329.127,30.762,30.273,36.621,41.016,30.762,0
1512971329.130,29.785,34.180,36.621,32.227,29.297,0
1512971329.134,25.391,36.133,37.109,28.320,48.828,0
1512971329.138,20.996,27.344,36.133,19.531,36.133,0
1512971329.142,13.184,18.555,30.762,15.137,-4.883,0
1512971329.146,10.742,25.391,31.250,14.648,-0.977,0
1512971329.150,19.531,32.227,36.133,18.066,65.918,0
1512971329.154,12.207,33.691,38.086,20.508,89.355,0
1512971329.158,11.230,25.391,34.180,19.043,60.059,0
1512971329.162,20.020,13.184,38.086,22.461,55.176,0
1512971329.166,13.184,15.625,30.273,21.484,39.551,0
1512971329.170,13.184,26.367,16.113,20.508,25.879,0
1512971329.173,28.809,26.855,39.551,34.668,31.738,0
1512971329.177,28.320,10.254,49.316,37.598,44.922,0
1512971329.181,21.973,22.461,34.180,32.715,54.688,0
1512971329.185,28.320,52.734,25.879,36.133,51.270,0
1512971329.189,26.855,52.734,34.668,45.410,30.273,0
1512971329.193,25.879,32.715,38.574,47.852,28.809,0
1512971329.197,32.715,27.344,32.227,49.805,40.039,0
1512971329.201,32.715,41.016,37.598,56.152,56.152,0
1512971329.205,33.203,41.992,45.898,56.152,52.734,0
1512971329.209,39.551,16.602,48.340,59.082,21.484,0
1512971329.212,44.922,11.719,49.316,67.871,31.250,0
1512971329.216,40.039,27.344,51.758,68.359,39.551,0
1512971329.220,29.785,14.648,47.852,53.223,38.574,0
1512971329.224,29.785,-2.930,46.875,48.828,47.363,0
1512971329.228,40.039,9.277,49.316,52.734,45.898,0
1512971329.232,35.645,17.578,43.945,40.039,33.691,0
1512971329.236,28.320,2.930,40.039,34.668,16.113,0
1512971329.240,34.668,-10.254,41.992,39.551,38.574,0
1512971329.244,39.062,-0.488,42.480,40.039,53.223,0
1512971329.248,37.109,26.855,40.527,39.062,32.227,0
1512971329.252,40.527,37.598,34.668,39.551,21.484,0
1512971329.255,47.852,19.531,28.320,41.504,50.781,0
1512971329.259,45.410,6.836,32.715,41.016,59.570,0
1512971329.263,38.574,15.625,38.086,38.574,29.785,0
1512971329.267,39.062,20.508,49.316,42.969,18.555,0
1512971329.271,36.621,19.043,49.316,38.574,39.551,0
1512971329.275,35.645,19.531,41.504,31.738,60.547,0
1512971329.279,40.527,18.066,44.922,34.180,44.922,0
1512971329.283,37.598,14.648,47.363,27.344,5.859,0
1512971329.287,39.551,16.602,46.875,27.344,51.758,0
1512971329.291,38.574,15.625,39.551,31.250,71.289,0
1512971329.295,36.133,12.695,35.156,27.344,40.039,0
1512971329.298,30.273,12.207,41.504,27.832,40.527,0
1512971329.302,27.832,9.766,44.434,34.668,35.156,0
1512971329.306,35.645,7.324,41.992,39.551,23.438,0
1512971329.310,31.738,12.695,41.504,35.156,7.812,0
1512971329.314,23.926,0.000,32.227,25.879,35.645,0
1512971329.318,8.301,-18.066,21.973,21.973,53.223,0
1512971329.322,4.883,6.836,36.621,28.809,39.551,0
1512971329.326,14.648,28.809,45.410,30.762,-12.207,0
1512971329.330,12.207,30.273,41.016,26.855,0.488,0
1512971329.334,10.742,40.527,41.016,25.879,28.809,0
1512971329.337,11.719,37.598,41.016,26.367,20.996,0
1512971329.341,22.949,35.645,40.527,37.598,20.508,0
1512971329.345,36.133,30.762,41.504,41.504,38.574,0
1512971329.349,38.086,27.832,44.434,42.969,30.273,0
1512971329.353,35.156,33.691,51.270,53.711,1.953,0
1512971329.357,23.438,20.996,48.828,47.363,40.039,0
1512971329.361,21.484,9.277,43.457,41.016,57.129,0
1512971329.365,26.367,10.254,49.316,44.434,41.992,0
1512971329.369,30.273,8.789,49.316,49.805,33.203,0
1512971329.373,35.645,10.254,42.969,53.223,49.316,0
1512971329.377,30.762,9.766,45.898,46.387,68.359,0
1512971329.380,34.668,4.395,52.246,41.016,70.312,0
1512971329.384,40.527,-1.953,50.293,47.363,40.527,0
1512971329.388,39.551,0.000,34.180,51.270,26.367,0
1512971329.392,46.387,-6.348,39.551,50.293,38.086,0
1512971329.396,54.199,3.418,66.406,60.547,41.504,0
1512971329.400,53.223,39.551,63.477,63.477,56.152,0
1512971329.404,41.504,44.922,54.688,48.828,56.641,0
1512971329.408,40.039,28.809,57.129,48.340,49.316,0
1512971329.412,52.246,21.484,42.480,55.664,36.621,0
1512971329.416,60.059,30.273,41.016,66.406,10.742,0
1512971329.420,58.105,34.180,52.734,72.754,11.719,0
1512971329.423,66.895,19.531,45.410,76.660,24.902,0
1512971329.427,74.707,14.160,49.805,83.496,27.344,0
1512971329.431,65.918,14.648,56.152,83.984,13.672,0
1512971329.435,62.500,28.320,57.617,79.590,18.066,0
1512971329.439,67.871,39.062,53.711,76.172,30.273,0
1512971329.443,70.801,28.320,42.969,76.660,41.504,0
1512971329.447,64.941,36.133,42.480,73.242,44.922,0
1512971329.451,58.105,36.621,39.062,68.359,34.180,0
1512971329.455,55.176,23.926,41.016,67.871,29.785,0
1512971329.459,50.781,23.438,42.969,65.918,14.648,0
1512971329.462,46.875,39.551,36.621,61.523,20.020,0
1512971329.466,38.574,47.363,32.715,58.105,54.688,0
1512971329.470,27.344,35.645,31.250,45.898,47.363,0
1512971329.474,22.949,25.879,27.832,37.109,39.062,0
1512971329.478,26.367,30.273,32.227,41.504,38.574,0
1512971329.482,18.555,32.715,34.668,39.062,29.297,0
1512971329.486,8.301,28.320,32.227,35.156,60.059,0
1512971329.490,6.836,21.484,32.227,35.645,18.555,0
1512971329.494,1.953,24.414,29.785,34.180,-20.996,0
1512971329.498,9.766,17.090,27.344,38.086,27.832,0
1512971329.502,14.648,2.930,26.367,35.156,49.805,0
1512971329.505,3.906,17.578,25.879,24.414,56.152,0
1512971329.509,3.418,34.180,19.531,30.762,31.250,0
1512971329.513,7.324,21.973,23.438,36.133,28.320,0
1512971329.517,9.766,9.277,38.086,39.062,32.227,0
1512971329.521,13.672,18.555,48.828,42.480,7.812,0
1512971329.525,9.277,11.230,46.387,38.574,27.832,0
1512971329.529,12.207,-18.555,38.574,35.645,47.363,0
1512971329.533,19.043,-22.949,40.527,45.898,35.645,0
1512971329.537,16.113,12.207,34.668,46.875,5.859,0
1512971329.541,27.832,39.062,33.691,37.109,12.695,0
1512971329.545,30.273,34.668,46.387,35.156,61.523,0
1512971329.548,15.625,23.438,45.410,30.762,28.809,0
1512971329.552,16.602,14.160,37.109,26.367,-0.977,0
1512971329.556,20.020,18.555,28.320,22.949,37.598,0
1512971329.560,28.809,25.879,31.250,29.297,71.777,0
1512971329.564,37.109,1.465,40.039,32.227,57.129,0
1512971329.568,39.062,9.277,37.109,33.691,13.672,0
1512971329.572,52.246,21.484,36.621,40.527,39.551,0
1512971329.576,63.965,9.766,44.922,48.340,20.996,0
1512971329.580,68.359,20.996,56.641,55.664,1.953,0
1512971329.584,72.266,37.109,56.152,62.500,34.668,0
1512971329.587,74.707,48.828,50.781,72.266,19.531,0
1512971329.591,78.613,44.434,48.340,74.707,16.113,0
1512971329.595,66.895,33.203,43.945,65.918,37.109,0
1512971329.599,62.988,21.484,45.898,63.965,36.621,0
1512971329.603,65.430,5.859,44.434,70.312,29.297,0
1512971329.607,62.988,23.438,32.715,63.965,19.043,0
1512971329.611,63.477,37.598,35.156,51.758,32.227,0
1512971329.615,60.547,34.180,42.480,44.434,54.688,0
1512971329.619,57.129,28.320,43.457,45.898,61.523,0
1512971329.623,54.688,13.672,41.016,52.734,48.828,0
1512971329.627,48.340,14.648,41.992,50.293,-3.418,0
1512971329.630,45.898,28.320,40.039,50.781,12.207,0
1512971329.634,36.621,18.555,33.203,44.434,29.297,0
1512971329.638,46.387,10.254,44.922,48.340,18.555,0
1512971329.642,44.434,10.254,48.340,52.246,55.664,0
1512971329.646,20.996,16.602,34.668,34.180,33.691,0
1512971329.650,20.020,30.273,28.809,29.297,5.859,0
1512971329.654,15.137,22.461,34.668,34.180,6.836,0
1512971329.658,11.230,13.184,46.875,32.715,21.484,0
1512971329.662,15.625,17.090,51.758,31.738,29.785,0
1512971329.666,15.137,9.277,50.781,32.715,40.039,0
1512971329.670,8.789,4.883,43.945,33.203,6.836,0
1512971329.673,12.207,20.020,36.133,38.086,11.719,0
1512971329.677,11.719,11.719,46.875,41.016,44.922,0
1512971329.681,3.906,-2.930,57.617,39.551,44.922,0
1512971329.685,-2.441,-4.395,59.082,32.715,50.781,0
1512971329.689,-15.625,-2.441,57.129,22.461,13.672,0
1512971329.693,-21.484,9.766,41.504,18.066,41.504,0
1512971329.697,-16.602,21.973,38.574,19.531,28.320,0
1512971329.701,-2.930,31.738,53.711,32.227,16.602,0
1512971329.705,-8.789,5.859,51.758,16.602,36.133,0
1512971329.709,-12.695,-6.348,43.457,-2.441,26.367,0
1512971329.712,-4.883,19.043,44.434,5.371,34.668,0
1512971329.716,-3.418,27.344,43.457,8.789,4.883,0
1512971329.720,-0.977,33.691,41.016,11.230,16.113,0
1512971329.724,4.395,30.762,41.016,16.113,39.062,0
1512971329.728,17.090,8.301,37.109,19.043,43.457,0
1512971329.732,24.902,-8.301,28.320,17.090,47.363,0
1512971329.736,30.273,3.418,29.785,16.602,44.922,0
1512971329.740,31.738,26.855,29.297,17.090,69.336,0
1512971329.744,39.062,36.133,32.227,25.879,50.781,0
1512971329.748,43.457,24.414,22.461,23.438,18.555,0
1512971329.752,41.504,31.250,21.973,18.066,21.484,0
1512971329.755,39.062,47.852,27.832,29.297,39.551,0
1512971329.759,45.410,34.180,24.414,32.715,21.973,0
1512971329.763,51.758,14.160,34.180,35.156,8.789,0
1512971329.767,43.945,14.648,41.504,36.621,43.457,0
1512971329.771,30.762,18.555,32.715,25.879,23.926,0
1512971329.775,22.949,31.250,30.273,17.578,22.949,0
1512971329.779,22.949,48.828,35.156,19.531,57.129,0
1512971329.783,15.137,40.039,37.109,15.625,57.129,0
1512971329.787,7.812,28.320,37.109,10.742,33.691,0
1512971329.791,15.625,31.738,37.598,15.137,15.137,0
1512971329.795,20.508,37.598,41.504,24.414,27.832,0
1512971329.798,19.531,28.809,40.039,26.855,27.344,0
1512971329.802,16.602,12.207,33.691,27.344,67.871,0
1512971329.806,11.230,14.160,31.738,27.832,71.777,0
1512971329.810,22.461,26.367,46.875,31.250,37.598,0
1512971329.814,33.691,19.531,47.852,27.344,30.273,0
1512971329.818,27.832,18.066,38.574,16.113,24.414,0
1512971329.822,19.531,5.371,37.598,8.789,28.809,0
1512971329.826,20.020,14.648,30.273,1.465,47.363,0
1512971329.830,16.602,42.969,21.484,-2.930,63.477,0
1512971329.834,9.766,45.898,16.602,4.395,43.945,0
1512971329.837,10.742,21.973,24.414,20.020,15.625,0
1512971329.841,16.602,2.441,41.016,22.461,31.738,0
1512971329.845,12.207,33.203,43.457,16.602,64.453,0
1512971329.849,1.465,50.293,31.738,11.719,33.203,0
1512971329.853,0.000,35.645,33.691,9.277,35.156,0
1512971329.857,10.254,13.672,37.598,14.160,75.684,0
1512971329.861,18.555,17.090,40.527,24.414,69.336,0
1512971329.865,15.625,42.480,31.738,22.949,62.012,0
1512971329.869,17.090,30.273,21.973,21.973,73.730,0
1512971329.873,19.531,15.625,34.668,25.879,60.059,0
1512971329.877,27.832,24.902,41.504,24.902,40.039,0
1512971329.880,34.668,31.738,39.551,28.809,50.293,0
1512971329.884,23.926,30.762,30.762,30.762,39.062,0
1512971329.888,18.066,15.137,35.156,29.785,16.113,0
1512971329.892,20.020,15.137,47.852,30.762,37.109,0
1512971329.896,17.090,29.785,49.316,27.344,19.043,0
1512971329.900,20.020,22.461,45.410,22.949,10.742,0
1512971329.904,23.438,-0.488,44.434,28.320,48.828,0
1512971329.908,26.855,5.859,48.828,34.180,18.555,0
1512971329.912,35.645,24.414,51.758,39.551,-5.859,0
1512971329.916,46.387,22.949,51.270,41.016,19.531,0
1512971329.920,35.156,15.137,42.969,38.086,36.133,0
1512971329.923,36.621,12.695,26.367,46.875,21.484,0
1512971329.927,47.363,10.254,35.156,49.805,-0.977,0
1512971329.931,46.387,17.090,56.641,49.805,9.277,0
1512971329.935,43.945,25.879,45.410,47.363,36.133,0
1512971329.939,42.480,23.926,41.504,42.480,20.020,0
1512971329.943,40.039,16.113,43.457,42.480,-30.762,0
1512971329.947,41.504,17.578,35.156,42.480,-8.789,0
1512971329.951,39.062,28.809,28.809,38.086,37.109,0
1512971329.955,29.785,33.203,23.438,29.297,30.762,0
1512971329.959,29.785,30.762,24.414,25.879,7.812,0
1512971329.962,33.203,29.785,31.738,28.320,39.062,0
1512971329.966,26.855,32.715,20.508,34.668,39.551,0
1512971329.970,13.184,26.855,6.836,16.113,35.156,0
1512971329.974,-0.977,21.973,14.648,-3.906,49.316,0
1512971329.978,-1.953,45.898,11.230,1.465,31.738,0
1512971329.982,1.465,62.012,6.348,6.348,46.387,0
1512971329.986,-3.906,40.039,9.766,3.418,61.523,0
1512971329.990,-3.418,20.020,4.883,-5.859,64.453,0
1512971329.994,-2.930,31.738,1.953,-7.324,65.918,0
1512971329.998,-1.465,41.504,14.648,0.488,40.527,0
1512971330.002,5.371,47.852,18.555,6.348,38.574,0
1512971330.005,9.277,52.734,7.324,1.953,49.805,0
1512971330.009,7.812,43.945,9.277,-1.953,49.316,0
1512971330.013,11.230,36.133,15.625,2.441,50.293,0
1512971330.017,14.160,40.039,17.090,1.953,41.504,0
1512971330.021,18.066,40.527,18.066,3.906,34.668,0
1512971330.025,25.879,39.551,15.137,6.836,28.320,0
1512971330.029,39.551,43.945,22.461,12.207,22.949,0
1512971330.033,35.156,33.203,23.438,16.113,34.668,0
1512971330.037,18.066,16.602,7.812,7.812,56.641,0
1512971330.041,20.508,17.090,5.859,14.160,52.734,0
1512971330.045,26.367,22.461,25.391,29.297,36.133,0
1512971330.048,20.020,37.598,35.156,24.902,21.484,0
1512971330.052,22.949,57.129,23.926,26.855,24.414,0
1512971330.056,20.508,53.711,29.785,26.367,57.617,0
1512971330.060,7.812,27.832,34.180,20.508,42.480,0
1512971330.064,17.578,10.254,43.457,26.855,34.180,0
1512971330.068,18.555,6.348,53.711,31.250,55.664,0
1512971330.072,18.555,3.418,54.688,40.039,44.434,0
1512971330.076,29.297,1.465,49.805,47.852,15.137,0
1512971330.080,36.133,0.977,40.527,49.805,0.000,0
1512971330.084,36.621,8.301,53.223,60.059,40.039,0
1512971330.087,36.621,-4.395,59.570,66.406,45.410,0
1512971330.091,42.480,6.348,63.477,66.895,15.625,0
1512971330.095,53.711,34.180,61.035,74.707,25.391,0
1512971330.099,55.176,22.949,50.293,75.684,30.273,0
1512971330.103,51.758,17.090,52.734,68.359,27.344,0
1512971330.107,55.176,24.414,50.293,69.336,28.320,0
1512971330.111,59.570,24.414,50.293,70.312,53.223,0
1512971330.115,62.500,19.043,55.664,77.637,72.266,0
1512971330.119,59.082,18.555,50.293,81.055,55.664,0
1512971330.123,63.477,20.996,43.945,78.125,10.254,0
1512971330.127,62.500,16.602,45.898,76.660,-4.395,0
1512971330.130,51.270,2.441,45.410,77.148,26.367,0
1512971330.134,60.547,-24.902,50.781,87.891,19.043,0
1512971330.138,73.242,-7.324,60.547,93.750,30.762,0
1512971330.142,55.664,32.227,36.621,78.613,64.453,0
1512971330.146,45.898,42.969,20.996,71.777,41.504,0
1512971330.150,45.898,37.109,44.922,72.754,23.926,0
1512971330.154,40.527,24.414,51.758,68.359,45.410,0
1512971330.158,41.504,15.137,53.223,66.895,64.453,0
1512971330.162,39.551,16.602,62.988,71.777,39.062,0
1512971330.166,37.109,31.738,53.223,74.219,12.207,0
1512971330.170,40.527,19.043,43.945,75.684,26.855,0
1512971330.173,49.316,12.207,56.152,90.332,57.617,0
1512971330.177,46.387,24.902,55.664,88.867,58.594,0
1512971330.181,41.992,14.160,49.805,73.730,33.203,0
1512971330.185,39.551,24.902,54.199,75.684,34.668,0
1512971330.189,33.691,37.598,50.781,79.590,44.922,0
1512971330.193,33.691,30.762,43.945,78.125,16.113,0
1512971330.197,37.598,16.113,47.852,83.008,15.137,0
1512971330.201,41.992,10.254,48.340,82.031,35.645,0
1512971330.205,37.109,26.855,45.898,76.660,50.781,0
1512971330.209,41.016,22.949,48.828,77.637,21.973,0
1512971330.212,48.340,3.418,47.363,78.613,3.906,0
1512971330.216,41.992,9.766,34.668,75.684,44.434,0
1512971330.220,33.203,27.832,30.273,74.707,64.941,0
1512971330.224,36.621,29.297,40.039,74.219,47.852,0
1512971330.228,40.039,21.484,40.039,69.336,46.387,0
1512971330.232,33.203,32.227,34.668,62.500,30.273,0
1512971330.236,28.320,39.551,35.645,65.430,58.594,0
1512971330.240,27.344,26.367,30.762,64.453,56.152,0
1512971330.244,24.414,8.789,13.184,48.828,13.672,0
1512971330.248,13.672,0.000,7.324,37.109,22.949,0
1512971330.252,6.348,13.184,23.926,40.039,40.039,0
1512971330.255,6.836,17.578,35.156,44.434,41.504,0
1512971330.259,9.766,21.484,30.273,37.109,34.180,0
1512971330.263,9.277,27.832,27.344,33.203,50.781,0
1512971330.267,0.977,29.297,25.391,25.879,36.133,0
1512971330.271,0.488,37.598,26.367,30.762,-11.719,0
1512971330.275,9.766,40.039,25.391,41.016,10.742,0
1512971330.279,17.090,18.555,15.137,35.156,48.828,0
1512971330.283,16.113,-11.230,19.531,34.180,38.574,0
1512971330.287,15.137,-9.766,34.180,45.410,28.809,0
1512971330.291,22.461,25.879,33.203,48.828,33.203,0
1512971330.295,24.902,27.832,26.855,51.758,49.316,0
1512971330.298,20.508,5.371,27.344,55.664,17.090,0
1512971330.302,21.973,24.902,35.156,51.270,-0.977,0
1512971330.306,28.320,40.039,40.039,52.246,43.457,0
1512971330.310,29.785,13.184,39.062,50.293,56.152,0
1512971330.314,24.902,-4.883,34.180,50.293,41.992,0
1512971330.318,17.090,25.879,28.320,45.410,16.602,0
1512971330.322,9.766,37.598,19.043,32.715,14.648,0
1512971330.326,7.812,24.414,20.020,28.809,47.852,0
1512971330.330,19.531,30.762,33.691,42.480,54.199,0
1512971330.334,20.508,16.113,33.691,48.340,20.020,0
1512971330.337,16.113,0.000,29.297,45.898,44.434,0
1512971330.341,12.207,20.996,29.297,39.551,65.918,0
1512971330.345,6.348,17.578,23.926,29.785,38.086,0
1512971330.349,7.324,-2.441,20.020,32.715,28.809,0
1512971330.353,10.254,14.648,27.832,35.156,54.199,0
1512971330.357,-0.977,27.344,25.879,31.250,54.688,0
1512971330.361,-9.766,14.160,16.602,23.926,-1.465,0
1512971330.365,-1.465,22.461,29.785,25.391,22.949,0
1512971330.369,10.742,41.504,39.062,29.785,55.664,0
1512971330.373,20.996,29.785,41.016,35.645,27.344,0
1512971330.377,19.043,10.742,37.598,35.645,11.230,0
1512971330.380,16.602,34.668,22.949,22.949,54.199,0
1512971330.384,17.090,47.363,17.578,18.066,71.289,0
1512971330.388,15.137,30.273,21.973,16.602,52.734,0
1512971330.392,28.320,29.785,34.668,18.555,50.293,0
1512971330.396,33.203,45.410,33.691,13.672,44.922,0
1512971330.400,20.996,63.965,10.742,-1.953,18.555,0
1512971330.404,15.625,60.059,6.836,-11.719,-3.418,0
1512971330.408,12.207,44.434,6.836,-12.695,0.488,0
1512971330.412,15.625,24.902,2.441,-6.348,41.504,0
1512971330.416,21.484,12.207,17.578,0.488,60.547,0
1512971330.420,24.414,24.902,25.391,3.418,30.273,0
1512971330.423,29.297,32.715,21.973,7.324,24.414,0
1512971330.427,35.645,39.551,27.344,22.949,37.109,0
1512971330.431,33.203,51.758,31.250,38.086,30.762,0
1512971330.435,30.273,52.246,29.785,40.527,22.461,0
1512971330.439,26.367,34.668,28.809,39.551,48.828,0
1512971330.443,13.184,23.438,27.832,38.086,29.297,0
1512971330.447,7.812,36.621,28.809,36.621,13.184,0
1512971330.451,15.625,43.945,27.344,38.086,-9.766,0
1512971330.455,19.043,21.484,28.320,35.645,12.207,0
1512971330.459,11.230,16.602,31.250,27.832,29.785,0
1512971330.462,5.859,29.785,31.250,27.344,22.949,0
1512971330.466,8.301,35.156,27.832,28.809,49.805,0
1512971330.470,14.160,40.039,24.414,33.691,66.895,0
1512971330.474,10.254,37.109,23.926,24.902,48.340,0
1512971330.478,8.301,43.457,23.438,13.672,-4.395,0
1512971330.482,11.719,55.664,21.973,14.160,-7.324,0
1512971330.486,11.719,39.551,20.508,14.160,22.949,0
1512971330.490,16.113,20.508,24.902,18.066,50.293,0
1512971330.494,14.160,26.367,19.531,12.695,31.738,0
1512971330.498,17.578,17.578,21.973,12.207,16.113,0
1512971330.502,16.602,5.859,23.438,20.508,45.410,0
1512971330.505,10.742,24.902,18.555,18.555,62.500,0
1512971330.509,9.766,48.828,22.949,12.695,19.043,0
1512971330.513,15.137,61.035,32.227,19.531,16.113,0
1512971330.517,16.113,53.711,33.203,19.043,58.594,0
1512971330.521,3.418,29.785,22.949,10.742,29.297,0
1512971330.525,7.324,34.668,25.391,13.672,12.207,0
1512971330.529,17.090,49.316,26.855,13.672,37.109,0
1512971330.533,21.973,21.973,17.090,14.648,20.508,0
1512971330.537,29.297,-1.465,17.090,21.973,5.371,0
1512971330.541,29.297,3.906,27.832,24.414,1.953,0
1512971330.545,34.668,29.297,31.250,32.715,1.953,0
1512971330.548,34.668,61.523,23.926,36.621,55.664,0
1512971330.552,26.855,61.035,22.949,31.250,91.797,0
1512971330.556,35.156,44.922,28.809,32.227,40.039,0
1512971330.560,46.875,39.062,26.367,35.645,35.156,0
1512971330.564,51.758,38.086,14.648,38.086,37.598,0
1512971330.568,54.688,40.039,20.996,46.875,25.391,0
1512971330.572,60.059,20.508,35.645,54.199,40.527,0
1512971330.576,63.965,0.488,34.668,53.223,45.898,0
1512971330.580,68.359,10.742,40.039,63.477,73.730,0
1512971330.584,61.035,31.250,34.668,66.406,39.062,0
1512971330.587,53.223,56.641,28.809,63.477,10.254,0
1512971330.591,58.594,63.477,31.250,75.195,35.645,0
1512971330.595,62.012,56.641,28.320,75.684,56.152,0
1512971330.599,64.453,52.734,27.344,66.406,28.320,0
1512971330.603,61.035,38.086,35.156,70.312,6.348,0
1512971330.607,51.758,11.719,41.504,75.195,51.270,0
1512971330.611,47.852,6.348,39.062,74.707,57.129,0
1512971330.615,50.781,21.484,45.410,78.125,41.504,0
1512971330.619,44.434,3.418,48.828,77.148,31.738,0
1512971330.623,48.828,-9.277,48.828,74.707,38.574,0
1512971330.627,58.594,17.090,53.711,77.148,62.500,0
1512971330.630,53.223,27.832,62.012,78.125,43.457,0
1512971330.634,47.363,35.156,61.523,79.590,36.621,0
1512971330.638,44.922,31.250,53.711,74.707,49.805,0
1512971330.642,44.922,26.367,53.711,67.383,20.508,0
1512971330.646,42.969,23.438,50.293,63.965,-0.977,0
1512971330.650,43.457,13.672,47.852,62.012,37.109,0
1512971330.654,45.410,20.996,47.363,55.664,44.434,0
1512971330.658,43.457,2.441,47.852,49.316,19.531,0
1512971330.662,43.945,-15.137,48.340,47.363,6.836,0
1512971330.666,46.387,22.949,42.480,45.898,23.438,0
1512971330.670,44.922,39.062,38.574,43.945,62.500,0
1512971330.673,47.852,27.832,40.039,46.875,60.059,0
1512971330.677,49.805,37.598,32.715,49.316,30.273,0
1512971330.681,41.992,50.293,29.297,37.109,34.180,0
1512971330.685,31.250,44.922,38.574,33.203,47.852,0
1512971330.689,32.227,37.109,34.180,35.156,34.668,0
1512971330.693,31.250,34.668,30.273,25.391,11.719,0
1512971330.697,28.809,21.484,35.156,24.902,20.020,0
1512971330.701,27.344,6.836,35.156,22.949,38.574,0
1512971330.705,23.438,21.484,41.016,23.438,35.156,0
1512971330.709,22.461,36.133,36.621,35.645,43.945,0
1512971330.712,32.227,44.434,34.668,47.852,55.176,0
1512971330.716,41.504,56.641,41.504,53.223,30.273,0
1512971330.720,33.691,50.293,28.809,42.969,23.438,0
1512971330.724,27.832,45.410,15.625,37.109,42.969,0
1512971330.728,33.691,54.199,14.160,39.062,49.316,0
1512971330.732,37.598,37.109,5.859,36.621,32.227,0
1512971330.736,36.133,25.879,14.648,35.645,-26.855,0
1512971330.740,53.223,41.016,31.738,43.457,-27.832,0
1512971330.744,63.965,44.922,28.809,45.898,18.555,0
1512971330.748,50.293,52.734,27.832,42.480,22.949,0
1512971330.752,48.828,67.383,28.809,45.898,30.762,0
1512971330.755,55.176,68.848,18.555,46.875,50.293,0
1512971330.759,58.594,61.035,13.184,46.875,57.129,0
1512971330.763,56.152,48.340,15.137,48.828,45.898,0
1512971330.767,57.617,33.691,16.113,54.199,34.180,0
1512971330.771,63.965,20.996,15.625,58.105,18.555,0
1512971330.775,67.383,24.414,20.020,59.082,18.066,0
1512971330.779,71.777,36.133,21.973,60.059,18.555,0
1512971330.783,62.500,42.969,15.625,46.875,-4.395,0
1512971330.787,57.617,60.059,14.160,39.062,30.762,0
1512971330.791,71.777,65.918,20.020,50.293,55.664,0
1512971330.795,74.219,62.500,27.344,47.852,41.504,0
1512971330.798,54.688,49.316,19.043,29.785,38.086,0
1512971330.802,44.922,39.551,13.184,33.203,33.203,0
1512971330.806,50.293,28.809,25.391,46.387,23.438,0
1512971330.810,49.805,21.484,24.414,48.828,33.203,0
1512971330.814,41.992,25.391,19.531,51.270,41.016,0
1512971330.818,27.832,31.250,24.414,55.664,29.297,0
1512971330.822,20.508,17.578,23.438,48.828,28.809,0
1512971330.826,28.809,-0.488,29.297,48.340,20.996,0
1512971330.830,31.738,8.789,34.668,52.734,17.578,0
1512971330.834,28.809,20.996,27.832,42.969,47.363,0
1512971330.837,19.043,27.832,27.344,36.133,41.992,0
1512971330.841,10.742,41.016,19.043,35.645,16.113,0
1512971330.845,9.277,41.016,14.160,29.297,38.574,0
1512971330.849,13.184,18.066,24.902,31.250,52.246,0
1512971330.853,19.531,10.254,30.762,34.180,33.691,0
1512971330.857,10.742,13.184,23.438,20.508,31.250,0
1512971330.861,-1.953,12.207,16.113,14.160,25.879,0
1512971330.865,6.836,11.719,22.461,28.809,35.156,0
1512971330.869,10.254,13.672,28.809,24.902,43.945,0
1512971330.873,5.371,33.203,19.043,12.207,41.992,0
1512971330.877,0.488,43.945,22.461,13.184,22.461,0
1512971330.880,1.953,39.062,20.508,12.207,20.996,0
1512971330.884,1.953,21.484,12.207,10.742,22.949,0
1512971330.888,-9.766,14.160,20.020,10.742,2.930,0
1512971330.892,4.395,21.484,28.809,17.090,17.578,0
1512971330.896,16.113,8.301,24.414,14.160,27.344,0
1512971330.900,2.441,1.465,15.625,10.254,9.766,0
1512971330.904,3.906,36.621,21.484,13.184,25.391,0
1512971330.908,6.836,42.969,28.320,7.324,35.156,0
1512971330.912,-1.465,21.973,24.414,-0.977,58.594,0
1512971330.916,-8.301,22.949,17.578,-5.371,46.875,0
1512971330.920,-8.301,31.250,18.555,-6.348,29.785,0
1512971330.923,2.441,24.902,19.043,-0.977,37.598,0
1512971330.927,13.184,12.695,22.461,7.812,20.996,0
1512971330.931,4.395,22.949,23.438,5.859,9.766,0
1512971330.935,2.441,32.715,21.973,1.953,21.973,0
1512971330.939,14.648,31.250,26.855,1.465,58.594,0
1512971330.943,11.230,20.508,18.066,-1.953,53.223,0
1512971330.947,-1.953,26.855,8.301,-9.277,29.297,0
1512971330.951,-2.930,48.828,24.414,-6.348,25.391,0
1512971330.955,-0.977,39.062,35.156,1.953,48.340,0
1512971330.959,3.418,15.625,28.809,4.395,42.480,0
1512971330.962,6.836,3.906,25.879,5.859,26.367,0
1512971330.966,6.836,14.160,25.391,3.418,51.758,0
1512971330.970,12.207,26.367,26.855,4.395,51.758,0
1512971330.974,14.160,20.996,31.250,12.695,39.551,0
1512971330.978,16.113,23.438,34.668,19.043,26.855,0
1512971330.982,15.625,10.254,32.715,17.090,29.297,0
1512971330.986,6.348,-0.977,33.691,13.184,33.203,0
1512971330.990,7.324,18.555,37.598,22.461,51.758,0
1512971330.994,7.812,21.484,31.250,17.578,52.246,0
1512971330.998,-0.977,15.625,31.250,-0.488,37.598,0
1512971331.002,-8.789,10.742,39.551,7.324,56.641,0
1512971331.005,-5.859,13.672,45.898,8.301,42.969,0
1512971331.009,5.371,21.484,43.945,-1.465,21.973,0
1512971331.013,8.301,20.020,41.992,5.859,36.621,0
1512971331.017,3.418,9.766,44.922,6.348,31.250,0
1512971331.021,-2.930,0.000,45.410,1.465,6.836,0
1512971331.025,-6.348,1.465,41.504,-5.371,-1.465,0
1512971331.029,-0.977,-8.301,43.945,-7.324,5.859,0
1512971331.033,-0.488,-17.090,51.270,-2.930,11.719,0
1512971331.037,-4.395,-20.996,42.969,-5.371,38.574,0
1512971331.041,-5.859,-19.043,32.715,-5.859,39.551,0
1512971331.045,-3.906,6.836,43.945,2.441,34.668,0
1512971331.048,-4.883,29.785,50.781,0.977,42.480,0
1512971331.052,-11.719,14.160,51.270,-2.441,4.395,0
1512971331.056,-9.277,-10.254,57.617,-3.418,-11.719,0
1512971331.060,-5.859,5.859,47.363,-3.418,13.184,0
1512971331.064,-3.906,20.996,46.387,9.277,8.301,0
1512971331.068,-2.441,10.254,54.688,17.578,-17.090,0
1512971331.072,-0.977,-0.977,54.199,15.137,6.348,0
1512971331.076,4.883,-5.371,57.617,23.926,9.766,0
1512971331.080,10.254,-4.883,58.594,36.133,1.953,0
1512971331.084,13.672,14.160,55.664,36.621,47.363,0
1512971331.087,14.648,24.902,47.852,34.180,73.242,0
1512971331.091,14.648,11.230,50.293,33.691,45.898,0
1512971331.095,19.043,5.859,54.688,40.039,47.852,0
1512971331.099,23.438,2.930,55.664,41.504,20.508,0
1512971331.103,25.391,0.000,56.641,45.898,9.277,0
1512971331.107,28.320,3.906,48.828,56.641,45.410,0
1512971331.111,33.691,4.395,46.387,55.664,23.438,0
1512971331.115,42.969,-1.953,58.594,58.594,10.254,0
1512971331.119,53.223,2.441,63.477,67.383,20.508,0
1512971331.123,47.363,22.461,53.711,63.477,23.438,0
1512971331.127,47.852,38.574,59.570,63.477,17.090,0
1512971331.130,53.711,48.340,62.500,66.406,43.945,0
1512971331.134,53.711,38.086,61.523,65.918,50.293,0
1512971331.138,64.941,30.762,60.059,75.684,51.758,0
1512971331.142,67.383,33.203,55.664,76.172,69.336,0
1512971331.146,65.430,36.133,55.176,74.219,57.129,0
1512971331.150,71.777,37.109,49.805,75.195,15.625,0
1512971331.154,71.289,40.039,42.480,72.266,-10.742,0
1512971331.158,66.406,37.598,41.016,69.336,-22.949,0
1512971331.162,66.406,29.785,35.645,63.477,35.645,0
1512971331.166,71.777,43.945,24.414,58.105,69.824,0
1512971331.170,76.660,48.828,19.531,59.082,21.484,0
1512971331.173,68.848,52.734,38.086,57.617,0.977,0
1512971331.177,64.941,65.918,41.016,50.293,29.785,0
1512971331.181,69.336,71.777,35.156,59.082,61.523,0
1512971331.185,70.801,60.059,38.086,67.383,41.992,0
1512971331.189,73.242,42.480,32.227,66.895,18.066,0
1512971331.193,70.312,32.715,29.785,69.824,30.273,0
1512971331.197,75.195,28.809,30.273,74.219,22.461,0
1512971331.201,86.426,43.945,37.109,81.543,27.344,0
1512971331.205,89.355,51.758,24.902,80.078,47.852,0
1512971331.209,85.938,48.340,17.090,71.777,61.523,0
1512971331.212,87.402,49.805,30.762,72.266,61.035,0
1512971331.216,87.402,44.434,34.668,70.312,46.387,0
1512971331.220,66.406,40.527,32.227,60.547,37.109,0
1512971331.224,67.871,58.105,28.809,53.711,30.762,0
1512971331.228,83.496,54.199,24.414,60.059,18.555,0
1512971331.232,84.961,38.574,20.020,67.383,31.250,0
1512971331.236,79.102,47.363,24.902,68.848,34.180,0
1512971331.240,77.637,47.363,39.062,82.031,52.246,0
1512971331.244,70.801,41.016,38.086,83.984,25.391,0
1512971331.248,67.871,46.387,44.922,82.031,-18.066,0
1512971331.252,72.266,40.039,46.387,80.566,26.855,0
1512971331.255,53.711,19.043,36.133,73.242,24.902,0
1512971331.259,46.387,29.785,36.621,74.707,-6.348,0
1512971331.263,50.293,37.598,33.691,70.801,-3.906,0
1512971331.267,50.293,32.227,36.621,66.895,8.301,0
1512971331.271,48.340,25.391,44.434,71.777,30.273,0
1512971331.275,40.039,26.367,46.875,70.312,46.875,0
1512971331.279,45.410,33.691,37.109,65.430,50.293,0
1512971331.283,55.664,26.855,39.551,71.289,41.992,0
1512971331.287,56.641,9.766,54.688,80.566,36.621,0
1512971331.291,56.152,15.137,51.758,77.637,9.277,0
1512971331.295,60.547,36.133,49.805,67.383,-18.066,0
1512971331.298,54.199,21.973,50.293,62.012,57.617,0
1512971331.302,43.457,8.301,49.316,64.453,82.520,0
1512971331.306,48.340,27.832,51.758,74.219,38.086,0
1512971331.310,51.270,13.184,45.410,89.355,48.828,0
1512971331.314,45.410,14.160,45.898,89.844,88.867,0
1512971331.318,36.621,26.855,52.734,72.266,57.617,0
1512971331.322,31.250,10.254,52.734,64.453,32.227,0
1512971331.326,34.180,2.930,54.688,69.824,41.504,0
1512971331.330,38.574,17.090,58.105,72.266,30.762,0
1512971331.334,37.598,3.418,57.617,71.289,22.949,0
1512971331.337,34.668,-16.602,52.734,68.848,12.695,0
1512971331.341,35.645,15.137,50.293,65.918,40.527,0
1512971331.345,41.504,36.621,55.176,67.871,31.738,0
1512971331.349,37.598,37.109,71.289,64.941,14.160,0
1512971331.353,28.809,20.020,68.359,62.012,42.969,0
1512971331.357,37.598,2.441,59.570,61.035,36.621,0
1512971331.361,35.156,-2.441,57.129,58.594,32.715,0
1512971331.365,36.133,5.859,56.152,63.477,21.484,0
1512971331.369,43.945,13.672,50.293,59.082,27.832,0
1512971331.373,37.109,21.484,44.922,53.711,51.758,0
1512971331.377,36.621,10.254,56.152,52.246,43.457,0
1512971331.380,34.180,-3.906,58.105,49.805,33.203,0
1512971331.384,23.438,19.531,50.293,45.898,46.387,0
1512971331.388,25.391,27.832,49.805,45.898,65.430,0
1512971331.392,33.203,11.719,47.852,51.270,53.223,0
1512971331.396,32.715,-2.441,38.086,46.387,27.344,0
1512971331.400,30.762,0.000,39.551,41.016,18.066,0
1512971331.404,29.297,12.695,43.945,43.457,25.879,0
1512971331.408,28.320,8.789,47.363,47.852,32.227,0
1512971331.412,33.203,-3.906,47.852,47.363,25.879,0
1512971331.416,34.668,-2.930,39.551,43.945,38.574,0
1512971331.420,28.320,1.953,39.062,40.527,27.832,0
1512971331.423,27.832,20.996,42.480,36.621,0.977,0
1512971331.427,32.227,40.527,49.316,37.598,17.090,0
1512971331.431,16.602,29.297,47.363,28.320,23.926,0
1512971331.435,16.602,13.672,46.387,26.367,50.781,0
1512971331.439,29.785,10.254,56.641,36.133,22.461,0
1512971331.443,24.414,14.648,30.273,25.391,0.488,0
1512971331.447,11.230,-1.465,16.602,18.555,51.270,0
1512971331.451,5.371,-10.254,37.109,20.996,31.738,0
1512971331.455,7.812,7.324,42.969,16.602,16.113,0
1512971331.459,8.301,13.184,42.480,8.301,60.547,0
1512971331.462,5.371,18.555,33.691,6.348,44.434,0
1512971331.466,-1.465,27.832,25.391,6.836,28.809,0
1512971331.470,-9.277,20.508,20.996,2.441,39.551,0
1512971331.474,-2.930,15.625,25.391,6.836,14.160,0
1512971331.478,1.465,-1.465,37.109,8.301,38.574,0
1512971331.482,-0.977,-10.254,45.410,9.277,51.758,0
1512971331.486,-7.812,11.230,40.039,10.254,-20.996,0
1512971331.490,-4.883,23.438,34.668,19.043,-19.531,0
1512971331.494,13.184,20.508,28.320,31.250,26.855,0
1512971331.498,11.719,14.648,35.156,28.320,15.137,0
1512971331.502,4.395,6.836,51.270,23.926,24.414,0
1512971331.505,3.906,-9.277,50.781,20.996,47.363,0
1512971331.509,7.812,-0.977,44.434,20.508,37.598,0
1512971331.513,9.277,13.184,42.969,22.949,21.484,0
1512971331.517,-0.488,-0.977,36.621,23.926,34.180,0
1512971331.521,-7.324,-10.742,32.715,17.578,47.852,0
1512971331.525,-14.160,-6.348,40.527,5.371,36.621,0
1512971331.529,-15.625,-4.883,33.203,-0.977,19.531,0
1512971331.533,-10.254,-2.930,31.250,-3.418,6.348,0
1512971331.537,-17.578,-3.906,39.062,-2.930,32.715,0
1512971331.541,-16.602,-28.809,40.039,-1.953,45.410,0
1512971331.545,-13.672,-26.367,55.176,2.930,15.137,0
1512971331.548,-21.484,-17.578,56.152,-5.859,-6.836,0
1512971331.552,-22.461,-32.715,43.457,-18.066,10.254,0
1512971331.556,-21.973,-22.461,44.922,-16.113,40.527,0
1512971331.560,-25.879,-5.371,49.805,-12.695,66.406,0
1512971331.564,-26.367,-9.277,41.992,-11.230,67.383,0
1512971331.568,-19.531,-29.785,37.598,-9.766,54.688,0
1512971331.572,-12.207,-31.250,47.852,-10.742,42.969,0
1512971331.576,-16.113,-10.254,43.457,-14.648,58.594,0
1512971331.580,-15.625,-9.766,36.621,-13.184,69.336,0
1512971331.584,-4.883,-14.160,36.621,-8.301,41.016,0
1512971331.587,-5.371,-9.766,33.691,0.000,48.340,0
1512971331.591,-14.160,-18.066,20.020,-0.488,43.945,0
1512971331.595,-15.625,-15.137,19.043,-9.766,38.086,0
1512971331.599,-12.695,5.859,18.555,-15.625,36.621,0
1512971331.603,-20.020,24.414,9.766,-18.066,22.949,0
1512971331.607,-14.648,37.109,20.996,-12.207,4.883,0
1512971331.611,-10.254,3.418,14.648,-20.996,27.344,0
1512971331.615,-14.648,-7.324,16.113,-22.949,33.203,0
1512971331.619,-2.930,19.531,38.086,-4.395,18.066,0
1512971331.623,-1.465,25.879,27.344,-3.418,7.812,0
1512971331.627,-1.465,19.531,15.137,-7.812,36.621,0
1512971331.630,4.883,0.488,23.438,3.418,56.641,0
1512971331.634,12.695,16.602,13.672,9.277,30.762,0
1512971331.638,20.020,50.293,10.742,13.672,35.156,0
1512971331.642,15.137,51.270,31.738,18.066,50.781,0
1512971331.646,22.461,38.086,37.598,24.902,41.992,0
1512971331.650,35.156,44.922,29.785,40.039,27.832,0
1512971331.654,33.691,48.340,28.809,51.758,48.340,0
1512971331.658,39.551,50.781,44.434,65.430,53.711,0
1512971331.662,50.293,57.129,53.223,79.590,33.691,0
1512971331.666,50.781,36.621,51.758,83.008,5.371,0
1512971331.670,55.176,21.973,36.133,79.102,1.953,0
1512971331.673,55.664,31.738,31.250,73.242,46.387,0
1512971331.677,57.617,30.273,38.086,83.008,45.410,0
1512971331.681,56.152,36.621,37.109,87.402,31.250,0
1512971331.685,52.246,48.828,44.434,79.590,70.801,0
1512971331.689,54.688,44.434,48.828,83.496,91.797,0
1512971331.693,54.688,37.598,46.875,87.402,59.082,0
1512971331.697,54.688,39.551,42.480,82.031,45.898,0
1512971331.701,55.176,53.223,43.945,82.031,51.270,0
1512971331.705,51.758,53.711,47.363,81.543,51.270,0
1512971331.709,53.223,45.410,44.434,78.613,45.898,0
1512971331.712,56.152,27.344,37.598,80.078,2.930,0
1512971331.716,52.734,-7.812,40.527,73.730,26.367,0
1512971331.720,51.758,-12.695,52.246,71.289,50.293,0
1512971331.724,46.875,16.602,37.598,71.289,3.906,0
1512971331.728,44.434,44.434,36.133,65.918,-13.184,0
1512971331.732,48.828,42.969,42.480,66.895,20.996,0
1512971331.736,42.480,36.133,34.180,61.035,30.762,0
1512971331.740,30.273,34.668,39.551,53.223,4.883,0
1512971331.744,31.250,29.297,45.410,57.617,1.953,0
1512971331.748,47.363,20.508,50.781,67.871,20.020,0
1512971331.752,49.805,9.277,53.711,78.613,31.250,0
1512971331.755,44.922,18.555,46.387,80.078,13.184,0
1512971331.759,49.316,30.762,45.410,69.336,6.836,0
1512971331.763,45.898,16.602,42.480,59.570,41.504,0
1512971331.767,41.992,15.137,35.645,60.547,65.430,0
1512971331.771,47.363,11.230,48.340,60.547,42.969,0
1512971331.775,48.828,2.441,59.082,57.129,11.719,0
1512971331.779,47.852,18.066,47.363,42.969,19.043,0
1512971331.783,52.734,25.879,35.645,38.574,37.598,0
1512971331.787,45.898,20.508,43.945,41.992,22.461,0
1512971331.791,35.645,14.648,53.223,38.086,52.734,0
1512971331.795,33.203,0.000,51.270,36.621,73.242,0
1512971331.798,33.691,-2.930,46.875,38.086,43.457,0
1512971331.802,31.738,-3.418,52.246,46.875,25.879,0
1512971331.806,37.598,-20.020,63.477,55.176,18.555,0
1512971331.810,34.668,-31.250,40.039,51.758,13.184,0
1512971331.814,35.156,-12.207,31.250,54.199,13.672,0
1512971331.818,36.621,21.484,48.828,55.664,41.992,0
1512971331.822,26.367,28.320,62.012,46.387,57.129,0
1512971331.826,19.043,2.930,66.895,36.621,59.082,0
1512971331.830,17.578,3.418,54.199,40.527,62.988,0
1512971331.834,23.926,11.719,54.688,48.340,14.648,0
1512971331.837,32.715,4.883,63.477,52.734,3.418,0
1512971331.841,34.668,14.160,60.547,56.641,38.574,0
1512971331.845,26.855,22.461,54.688,53.711,43.457,0
1512971331.849,25.391,3.418,48.340,50.781,38.086,0
1512971331.853,38.086,-7.324,43.457,53.711,66.895,0
1512971331.857,29.785,3.418,42.969,46.875,77.148,0
1512971331.861,14.648,11.230,38.574,29.785,21.973,0
1512971331.865,7.812,13.184,33.691,22.949,41.992,0
1512971331.869,6.348,11.719,37.598,25.879,38.574,0
1512971331.873,10.254,15.137,34.180,29.785,26.855,0
1512971331.877,16.113,13.184,22.949,31.738,48.828,0
1512971331.880,17.578,7.324,30.273,34.668,43.945,0
1512971331.884,13.184,9.277,39.551,39.551,49.805,0
1512971331.888,19.043,15.137,37.109,37.109,57.129,0
1512971331.892,21.973,7.812,25.879,32.715,25.391,0
1512971331.896,20.996,16.113,22.461,34.180,21.973,0
1512971331.900,22.461,0.488,26.367,35.156,56.641,0
1512971331.904,10.254,-35.645,29.785,27.344,7.812,0
1512971331.908,13.672,1.953,32.227,26.367,-25.391,0
1512971331.912,20.508,47.363,33.691,29.785,27.832,0
1512971331.916,20.020,55.176,27.832,26.367,37.109,0
1512971331.920,21.484,45.898,18.555,24.414,30.273,0
1512971331.923,17.578,20.508,25.391,21.484,37.109,0
1512971331.927,12.207,9.277,29.785,13.184,53.223,0
1512971331.931,19.531,26.367,31.738,13.184,48.828,0
1512971331.935,27.344,35.645,28.809,13.184,39.062,0
1512971331.939,19.531,19.043,24.414,5.371,28.809,0
1512971331.943,-0.488,13.672,17.090,-9.766,27.344,0
1512971331.947,-6.348,28.809,12.695,-22.949,48.828,0
1512971331.951,-3.906,33.203,6.348,-21.484,26.367,0
1512971331.955,-8.789,31.738,1.953,-26.855,9.277,0
1512971331.959,-8.301,21.484,17.578,-27.832,16.602,0
1512971331.962,-15.625,9.277,24.414,-30.762,38.086,0
1512971331.966,-16.602,0.977,24.414,-31.738,30.273,0
1512971331.970,-9.766,5.371,24.902,-26.855,40.039,0
1512971331.974,-9.277,19.531,20.996,-25.879,61.035,0
1512971331.978,-0.488,-0.977,13.184,-13.184,47.852,0
1512971331.982,2.930,-24.902,10.254,-0.977,59.082,0
1512971331.986,-7.324,-11.230,16.113,2.930,53.711,0
1512971331.990,-13.672,10.254,34.180,4.395,63.477,0
1512971331.994,-15.137,27.832,36.621,-6.348,52.246,0
1512971331.998,-16.602,34.668,27.832,-8.301,0.000,0
1512971332.002,-12.207,23.926,29.297,3.418,23.438,0
1512971332.005,-8.789,9.766,27.344,13.672,55.176,0
1512971332.009,-3.906,8.301,22.461,22.461,52.734,0
1512971332.013,2.930,18.066,30.273,26.367,22.949,0
1512971332.017,9.277,21.973,42.969,29.297,28.809,0
1512971332.021,11.230,13.184,40.527,26.855,18.066,0
1512971332.025,7.812,3.418,36.621,24.414,22.461,0
1512971332.029,8.301,1.465,33.691,26.855,38.574,0
1512971332.033,11.230,-9.277,38.574,26.855,49.805,0
1512971332.037,21.484,-16.113,50.293,32.715,46.387,0
1512971332.041,26.367,5.859,51.758,39.551,16.602,0
1512971332.045,27.832,17.578,52.734,41.504,25.879,0
1512971332.048,28.320,15.137,54.688,41.016,41.016,0
1512971332.052,25.879,9.766,49.805,47.363,12.207,0
1512971332.056,29.297,2.930,46.875,50.781,-8.301,0
1512971332.060,35.156,1.465,49.805,43.457,39.062,0
1512971332.064,39.551,15.137,40.527,42.969,63.477,0
1512971332.068,40.039,22.949,45.898,50.293,34.180,0
1512971332.072,39.062,3.906,52.734,50.293,22.949,0
1512971332.076,29.785,-19.043,37.598,44.434,29.297,0
1512971332.080,16.602,-15.625,31.738,38.574,42.480,0
1512971332.084,16.113,14.648,47.852,31.250,27.344,0
1512971332.087,18.555,40.527,64.941,29.297,-12.207,0
1512971332.091,27.832,42.969,65.918,40.527,4.395,0
1512971332.095,40.527,31.250,63.477,42.969,26.367,0
1512971332.099,47.363,19.531,61.523,52.734,31.250,0
1512971332.103,39.551,19.531,62.988,70.312,19.043,0
1512971332.107,42.480,18.555,66.406,75.684,27.832,0
1512971332.111,52.246,20.508,65.430,84.473,55.176,0
1512971332.115,53.223,13.672,62.500,91.797,55.664,0
1512971332.119,54.688,-0.488,53.711,85.938,36.621,0
1512971332.123,62.012,15.137,49.316,90.332,44.922,0
1512971332.127,56.641,27.344,66.406,87.402,43.457,0
1512971332.130,48.340,21.484,72.266,76.172,11.230,0
1512971332.134,54.199,18.555,61.035,75.684,13.184,0
1512971332.138,58.105,32.715,53.711,72.266,35.156,0
1512971332.142,53.711,30.273,59.082,73.730,30.273,0
1512971332.146,52.246,17.578,62.988,74.219,8.789,0
1512971332.150,55.664,35.645,52.734,72.266,40.039,0
1512971332.154,52.246,30.762,54.199,74.707,53.711,0
1512971332.158,42.480,17.578,62.988,68.848,20.020,0
1512971332.162,44.922,24.902,47.363,64.453,-4.395,0
1512971332.166,54.688,44.434,45.410,68.848,10.254,0
1512971332.170,50.781,56.641,65.918,69.824,41.504,0
1512971332.173,44.922,44.922,59.082,63.965,32.715,0
1512971332.177,44.922,30.273,39.062,62.012,17.090,0
1512971332.181,49.805,32.227,49.805,64.941,25.879,0
1512971332.185,51.758,38.086,70.801,66.895,37.598,0
1512971332.189,41.504,34.668,65.918,58.105,37.109,0
1512971332.193,32.227,21.973,51.758,46.875,24.902,0
1512971332.197,34.668,10.742,46.387,45.898,33.691,0
1512971332.201,34.668,24.414,45.898,45.898,45.898,0
1512971332.205,24.414,43.457,46.387,41.992,4.883,0
1512971332.209,21.484,39.551,53.223,37.598,-10.254,0
1512971332.212,15.625,26.367,55.664,32.715,15.137,0
1512971332.216,8.301,21.484,50.781,30.762,21.484,0
1512971332.220,12.207,26.855,43.457,31.250,7.812,0
1512971332.224,12.695,16.113,43.457,32.715,4.883,0
1512971332.228,13.672,5.371,34.180,35.645,19.043,0
1512971332.232,12.695,9.277,24.902,32.715,18.066,0
1512971332.236,-2.441,14.160,23.926,24.414,24.414,0
1512971332.240,5.859,21.973,30.273,33.203,26.855,0
1512971332.244,20.020,26.367,37.109,41.992,55.664,0
1512971332.248,13.672,34.668,33.691,33.203,45.898,0
1512971332.252,11.719,37.598,36.133,35.156,31.738,0
1512971332.255,19.531,35.156,36.133,45.898,54.199,0
1512971332.259,27.344,30.273,35.645,47.852,54.199,0
1512971332.263,22.461,0.977,37.109,46.387,25.879,0
1512971332.267,14.648,-20.020,39.062,51.270,35.645,0
1512971332.271,11.230,0.977,41.992,52.734,52.734,0
1512971332.275,8.301,11.719,33.691,46.387,47.363,0
1512971332.279,7.812,1.953,27.832,42.969,26.855,0
1512971332.283,14.160,-7.324,37.598,44.922,1.953,0
1512971332.287,30.273,14.160,42.969,62.500,46.875,0
1512971332.291,40.527,21.484,35.156,64.453,43.945,0
1512971332.295,35.645,11.230,24.414,47.363,29.297,0
1512971332.298,34.668,-2.441,37.109,44.434,49.316,0
1512971332.302,27.832,-11.230,53.711,43.457,65.918,0
1512971332.306,14.648,7.324,49.805,37.598,34.668,0
1512971332.310,19.531,13.672,45.898,36.133,60.547,0
1512971332.314,26.855,9.766,38.086,36.133,80.078,0
1512971332.318,32.715,13.184,37.598,36.621,48.340,0
1512971332.322,36.621,24.902,38.086,38.086,46.387,0
1512971332.326,35.156,28.320,27.832,29.297,13.672,0
1512971332.330,33.203,26.855,30.762,25.391,-1.465,0
1512971332.334,31.250,26.855,38.086,29.297,34.668,0
1512971332.337,25.879,14.648,22.461,22.461,41.016,0
1512971332.341,23.926,14.160,15.137,18.066,22.949,0
1512971332.345,28.809,36.621,29.785,22.461,51.758,0
1512971332.349,24.902,33.691,33.203,23.438,42.969,0
1512971332.353,14.160,20.508,23.438,17.578,31.738,0
1512971332.357,16.602,19.043,20.996,14.160,41.992,0
1512971332.361,25.879,11.719,26.855,15.137,52.734,0
1512971332.365,25.391,25.391,21.484,15.625,51.270,0
1512971332.369,27.832,21.484,9.277,21.484,37.109,0
1512971332.373,38.086,17.090,13.184,24.902,30.273,0
1512971332.377,32.715,39.062,10.742,16.602,44.434,0
1512971332.380,21.484,44.922,7.812,2.930,35.156,0
1512971332.384,13.672,38.086,10.742,-2.930,16.602,0
1512971332.388,9.766,35.645,11.230,-5.371,31.738,0
1512971332.392,10.254,42.480,12.695,-1.953,42.969,0
1512971332.396,15.137,41.504,9.277,10.742,30.762,0
1512971332.400,20.996,27.832,10.254,14.648,-6.836,0
1512971332.404,30.273,16.113,20.020,19.531,-2.930,0
1512971332.408,31.738,16.602,20.508,17.578,18.555,0
1512971332.412,32.227,17.090,19.531,28.320,-6.836,0
1512971332.416,33.691,23.438,20.020,32.227,-27.832,0
1512971332.420,15.625,30.762,15.137,17.578,-7.812,0
1512971332.423,23.926,32.715,24.902,21.973,39.551,0
1512971332.427,44.922,36.133,28.320,33.203,27.344,0
1512971332.431,48.340,36.621,21.484,41.992,-15.137,0
1512971332.435,46.387,29.785,26.855,42.969,-1.465,0
1512971332.439,49.316,29.785,35.645,48.340,50.293,0
1512971332.443,54.688,28.809,29.297,47.852,43.945,0
1512971332.447,43.945,20.508,27.832,43.945,19.531,0
1512971332.451,40.527,16.602,36.621,49.316,46.875,0
1512971332.455,46.875,9.766,38.086,51.270,73.242,0
1512971332.459,38.086,8.789,31.250,44.434,18.555,0
1512971332.462,41.016,24.902,32.227,46.875,11.719,0
1512971332.466,50.293,28.809,31.250,53.711,50.781,0
1512971332.470,34.180,15.625,25.879,45.898,39.551,0
1512971332.474,30.273,25.879,37.598,41.016,31.738,0
1512971332.478,31.738,31.250,38.574,44.922,20.020,0
1512971332.482,25.391,25.391,37.598,44.922,51.758,0
1512971332.486,26.855,30.762,41.016,49.805,50.293,0
1512971332.490,35.156,28.320,40.527,62.988,-1.953,0
1512971332.494,39.551,23.926,49.316,57.617,-3.418,0
1512971332.498,29.785,18.555,55.664,51.270,38.086,0
1512971332.502,17.090,11.719,49.805,44.922,42.969,0
1512971332.505,20.996,17.090,50.293,41.992,30.273,0
1512971332.509,21.973,23.926,54.199,43.945,20.020,0
1512971332.513,15.137,16.602,51.270,40.527,41.504,0
1512971332.517,4.883,20.020,50.293,39.062,38.574,0
1512971332.521,-1.465,9.277,46.387,36.621,3.906,0
1512971332.525,0.000,13.184,29.297,29.785,3.906,0
1512971332.529,1.953,31.738,32.715,27.832,13.672,0
1512971332.533,-6.348,27.344,41.016,17.578,41.016,0
1512971332.537,-14.648,23.438,36.621,10.742,45.898,0
1512971332.541,-11.230,17.578,32.227,10.254,32.227,0
1512971332.545,-1.465,20.996,32.227,7.812,43.457,0
1512971332.548,-7.812,18.066,30.762,7.812,27.344,0
1512971332.552,-19.043,14.648,36.133,10.742,7.812,0
1512971332.556,-18.555,6.348,44.922,6.836,4.883,0
1512971332.560,-10.254,-5.859,36.133,7.324,46.875,0
1512971332.564,-6.348,2.441,32.227,10.742,56.152,0
1512971332.568,-6.348,-0.488,40.527,9.766,39.551,0
1512971332.572,-3.906,8.301,37.598,12.207,59.082,0
1512971332.576,-15.625,32.227,35.645,6.836,62.500,0
1512971332.580,-24.414,26.855,42.480,-3.418,50.293,0
1512971332.584,-15.625,18.555,37.109,-0.977,23.926,0
1512971332.587,-11.230,18.555,22.949,7.812,33.691,0
1512971332.591,-11.230,3.418,32.715,7.812,49.316,0
1512971332.595,-4.883,5.371,44.434,6.348,33.691,0
1512971332.599,3.906,6.348,51.270,16.602,7.324,0
1512971332.603,6.836,-1.465,51.758,25.879,35.156,0
1512971332.607,5.371,9.277,45.410,21.484,19.043,0
1512971332.611,-1.465,7.324,41.016,20.508,-2.441,0
1512971332.615,10.742,12.695,39.551,35.645,17.090,0
1512971332.619,21.484,22.949,35.156,41.016,21.973,0
1512971332.623,28.809,23.438,44.922,49.316,27.344,0
1512971332.627,38.086,14.160,62.988,54.688,41.504,0
1512971332.630,35.156,-15.625,50.293,45.898,59.570,0
1512971332.634,36.133,-13.672,45.898,48.340,38.086,0
1512971332.638,37.598,7.812,56.152,57.129,26.367,0
1512971332.642,44.434,13.184,57.129,58.105,41.504,0
1512971332.646,46.387,18.555,60.059,54.199,39.062,0
1512971332.650,33.691,26.855,52.734,49.805,54.199,0
1512971332.654,28.320,28.809,42.480,40.527,32.715,0
1512971332.658,28.809,8.301,49.805,43.945,22.461,0
1512971332.662,21.973,0.977,53.711,42.969,44.434,0
1512971332.666,20.996,7.324,49.805,34.668,-2.441,0
1512971332.670,15.137,3.906,54.199,28.320,-2.930,0
1512971332.673,14.160,11.719,54.688,33.691,33.203,0
1512971332.677,17.090,11.719,42.969,35.645,59.082,0
1512971332.681,13.184,27.832,42.969,32.227,37.598,0
1512971332.685,14.160,28.320,48.340,36.621,22.949,0
1512971332.689,16.602,0.977,42.969,39.551,38.574,0
1512971332.693,19.531,9.277,27.832,33.691,22.461,0
1512971332.697,17.578,29.785,25.879,29.785,16.113,0
1512971332.701,15.137,37.598,38.574,24.902,23.438,0
1512971332.705,23.438,17.090,43.945,20.020,47.363,0
1512971332.709,23.926,-5.371,39.551,20.996,63.965,0
1512971332.712,20.020,18.066,34.668,20.996,44.434,0
1512971332.716,23.438,31.738,35.156,23.438,19.531,0
1512971332.720,19.531,22.461,31.738,20.508,45.898,0
1512971332.724,10.742,14.648,20.508,11.230,56.152,0
1512971332.728,12.695,23.438,20.996,10.254,5.859,0
1512971332.732,20.508,28.809,31.738,19.043,-33.691,0
1512971332.736,29.785,28.809,34.180,27.832,-8.789,0
1512971332.740,29.785,35.156,30.762,28.320,10.254,0
1512971332.744,26.367,24.902,28.320,26.855,8.301,0
1512971332.748,27.344,8.789,21.973,25.879,37.109,0
1512971332.752,37.109,13.672,21.484,31.738,41.504,0
1512971332.755,44.922,11.230,21.973,36.621,20.996,0
1512971332.759,36.133,19.531,23.438,26.855,-2.441,0
1512971332.763,41.016,36.621,26.367,24.902,0.977,0
1512971332.767,47.852,44.434,21.973,27.344,19.043,0
1512971332.771,50.781,48.828,25.391,32.715,30.762,0
1512971332.775,57.617,47.363,25.879,35.645,21.484,0
1512971332.779,48.828,42.480,20.996,31.250,23.926,0
1512971332.783,36.621,27.344,21.484,31.738,29.297,0
1512971332.787,31.250,23.926,21.484,37.109,32.227,0
1512971332.791,24.414,30.273,20.020,38.574,44.434,0
1512971332.795,30.273,41.016,23.926,48.340,38.086,0
1512971332.798,40.527,40.527,29.297,54.199,61.523,0
1512971332.802,29.297,26.855,23.926,49.805,67.383,0
1512971332.806,15.625,34.180,15.625,48.340,9.277,0
1512971332.810,21.484,37.598,9.766,42.480,26.855,0
1512971332.814,20.020,42.969,18.066,37.109,43.457,0
1512971332.818,15.137,31.738,22.949,37.598,31.738,0
1512971332.822,8.301,1.953,20.508,29.297,38.086,0
1512971332.826,2.930,36.621,22.461,32.715,41.504,0
1512971332.830,8.789,70.312,26.367,29.297,52.246,0
1512971332.834,-2.930,28.809,24.902,13.184,21.973,0
1512971332.837,-12.207,-5.859,27.344,15.625,6.348,0
1512971332.841,-10.742,2.441,36.621,24.414,42.969,0
1512971332.845,-14.648,22.949,31.250,23.438,51.758,0
1512971332.849,-16.602,42.969,27.344,19.043,9.277,0
1512971332.853,-2.930,41.016,28.809,27.344,12.695,0
1512971332.857,10.742,45.898,26.367,35.645,42.969,0
1512971332.861,9.766,48.340,27.344,37.109,32.715,0
1512971332.865,14.160,30.762,39.062,33.691,34.668,0
1512971332.869,20.996,7.812,47.363,33.691,29.297,0
1512971332.873,15.137,4.395,35.645,37.598,17.090,0
1512971332.877,23.926,13.672,26.367,41.992,31.738,0
1512971332.880,30.273,-1.953,37.109,47.363,31.738,0
1512971332.884,28.809,-2.930,47.852,51.270,0.488,0
1512971332.888,30.273,20.020,47.852,48.828,8.301,0
1512971332.892,30.762,14.648,47.852,46.387,16.113,0
1512971332.896,23.438,-0.488,50.781,50.781,24.414,0
1512971332.900,16.113,4.883,53.223,48.828,31.738,0
1512971332.904,20.508,11.230,48.340,48.340,18.066,0
1512971332.908,21.973,16.113,52.246,52.734,32.715,0
1512971332.912,21.484,17.578,57.129,47.363,35.156,0
1512971332.916,17.578,16.602,48.340,36.621,36.621,0
1512971332.920,17.090,12.207,46.387,29.297,54.199,0
1512971332.923,17.090,4.883,43.945,31.738,50.293,0
1512971332.927,11.230,14.648,42.969,36.621,31.250,0
1512971332.931,9.277,23.926,42.480,33.203,53.223,0
1512971332.935,17.090,7.324,31.738,34.668,75.195,0
1512971332.939,34.180,6.348,27.832,46.387,24.902,0
1512971332.943,30.273,28.809,35.645,39.551,-15.625,0
1512971332.947,26.855,19.531,42.969,35.156,2.930,0
1512971332.951,35.156,-6.348,41.992,35.156,10.254,0
