timestamps,TP9,AF7,AF8,TP10,Right AUX,Marker0
1492696061.764,86.426,32.715,35.645,59.570,33.691,0
1492696061.768,61.035,2.930,28.809,36.621,29.297,0
1492696061.772,24.414,-20.020,18.066,36.621,-3.906,0
1492696061.776,36.621,-7.812,8.789,39.551,21.973,0
1492696061.780,34.668,5.371,35.156,35.645,43.457,0
1492696061.784,41.016,9.766,64.941,46.387,40.039,0
1492696061.787,73.730,2.930,57.129,62.988,-8.301,0
1492696061.791,25.391,-26.855,37.598,23.438,-34.180,0
1492696061.795,1.465,-33.203,40.527,-0.977,15.137,0
1492696061.799,27.832,-10.254,48.340,38.086,15.137,0
1492696061.803,51.270,-2.930,56.152,51.758,-4.395,0
1492696061.807,41.016,-14.648,18.555,35.156,13.184,0
1492696061.811,30.273,-10.742,-20.508,31.250,23.438,0
1492696061.815,62.500,16.113,4.883,50.781,28.809,0
1492696061.819,66.895,6.836,49.805,54.688,-1.953,0
1492696061.823,47.852,-23.926,62.988,40.527,9.277,0
1492696061.827,37.109,-17.090,72.266,45.410,55.176,0
1492696061.830,30.762,-20.020,46.387,21.973,38.574,0
1492696061.834,37.598,-8.301,14.160,24.902,5.859,0
1492696061.838,50.781,13.184,41.504,71.289,14.648,0
1492696061.842,42.480,-6.348,61.523,42.969,71.777,0
1492696061.846,50.293,-3.418,38.086,28.320,55.664,0
1492696061.850,53.223,14.648,-0.977,42.480,18.555,0
1492696061.854,23.926,-1.465,-0.977,39.062,24.414,0
1492696061.858,32.715,-21.973,9.277,54.688,27.344,0
1492696061.862,60.547,-19.531,34.180,52.246,27.832,0
1492696061.866,53.223,-28.320,67.383,26.367,41.992,0
1492696061.869,61.523,-11.230,58.105,35.156,47.852,0
1492696061.873,67.383,16.113,62.988,40.527,27.344,0
1492696061.877,41.504,-7.812,38.086,31.738,13.672,0
1492696061.881,32.227,-15.625,4.395,35.645,-5.859,0
1492696061.885,38.574,-2.930,31.250,32.227,9.277,0
1492696061.889,40.039,-1.953,17.578,26.855,21.973,0
1492696061.893,29.785,-9.766,-7.812,29.297,21.484,0
1492696061.897,7.812,-32.715,13.672,0.000,39.062,0
1492696061.901,31.738,-18.066,53.223,-0.488,45.410,0
1492696061.905,47.852,-3.906,67.871,34.668,38.086,0
1492696061.909,14.648,-28.809,18.555,23.438,40.527,0
1492696061.912,35.156,-9.766,27.832,42.969,44.922,0
1492696061.916,62.988,26.367,61.035,61.523,60.059,0
1492696061.920,67.871,20.996,67.871,65.918,44.434,0
1492696061.924,50.293,-4.883,44.434,37.109,1.953,0
1492696061.928,45.410,-14.160,9.277,19.043,-12.695,0
1492696061.932,38.574,-8.789,0.488,41.016,21.484,0
1492696061.936,37.598,4.395,-13.184,37.598,15.137,0
1492696061.940,63.477,24.414,5.859,37.598,3.906,0
1492696061.944,53.223,11.230,41.992,35.156,32.715,0
1492696061.948,18.555,-15.625,44.434,23.438,37.598,0
1492696061.952,22.949,-25.879,58.105,30.273,26.855,0
1492696061.955,28.809,-33.203,46.387,11.719,11.230,0
1492696061.959,14.160,-22.461,1.465,-1.953,46.387,0
1492696061.963,43.457,4.395,21.484,56.641,58.594,0
1492696061.967,80.566,33.203,65.430,87.891,44.922,0
1492696061.971,75.195,-43.457,46.875,74.219,29.785,0
1492696061.975,43.945,-150.391,31.250,48.828,13.672,0
1492696061.979,33.203,-153.809,6.836,40.039,35.156,0
1492696061.983,46.387,-131.348,-11.230,30.273,28.809,0
1492696061.987,48.828,-98.145,44.922,32.715,-6.836,0
1492696061.991,22.461,-102.051,57.617,38.086,29.297,0
1492696061.994,18.066,-114.746,35.645,19.043,37.598,0
1492696061.998,52.734,-86.426,19.043,40.039,-5.859,1
1492696062.002,44.922,-77.637,25.391,43.457,0.488,0
1492696062.006,21.973,-91.309,30.273,21.973,32.227,0
1492696062.010,65.430,-67.871,32.715,35.156,44.922,0
1492696062.014,91.309,-30.273,57.617,57.129,22.461,0
1492696062.018,52.734,-42.480,21.973,42.969,25.879,0
1492696062.022,32.227,-72.266,-8.301,9.766,15.625,0
1492696062.026,52.246,-60.059,18.066,15.137,1.465,0
1492696062.030,47.852,-41.016,38.574,20.996,-4.883,0
1492696062.034,42.480,-38.574,48.340,36.133,4.883,0
1492696062.037,30.762,-35.645,32.715,37.109,47.852,0
1492696062.041,27.832,-13.184,27.832,41.504,31.250,0
1492696062.045,63.965,-2.441,15.625,60.547,-6.836,0
1492696062.049,81.055,-3.906,8.789,58.594,34.180,0
1492696062.053,53.223,-0.488,39.062,42.480,66.406,0
1492696062.057,30.762,27.832,58.594,52.246,25.391,0
1492696062.061,37.109,33.203,34.668,49.805,-4.883,0
1492696062.065,43.945,11.230,28.320,42.480,5.371,0
1492696062.069,36.621,23.926,59.082,43.945,20.508,0
1492696062.073,29.785,38.574,43.945,22.461,12.695,0
1492696062.077,27.344,14.648,19.043,26.855,8.789,0
1492696062.080,23.438,9.766,24.414,22.461,63.965,0
1492696062.084,34.180,34.180,39.551,26.855,60.547,0
1492696062.088,37.109,41.992,33.691,43.457,25.879,0
1492696062.092,36.133,38.086,21.484,13.672,39.062,0
1492696062.096,75.684,44.922,41.016,37.598,41.992,0
1492696062.100,87.402,29.785,28.809,58.105,37.598,0
1492696062.104,68.848,25.391,4.395,47.852,30.762,0
1492696062.108,59.082,49.805,28.809,58.105,40.039,0
1492696062.112,37.109,47.363,26.367,29.297,71.289,0
1492696062.116,22.949,30.273,7.812,17.578,62.012,0
1492696062.119,26.367,27.344,34.180,36.133,-5.371,0
1492696062.123,18.555,23.438,42.969,16.602,-6.348,0
1492696062.127,15.625,17.090,34.180,5.371,36.133,0
1492696062.131,22.461,20.020,53.223,31.250,15.625,0
1492696062.135,43.945,18.066,40.039,36.621,14.160,0
1492696062.139,93.750,39.551,56.152,57.617,55.664,0
1492696062.143,98.633,47.852,46.387,49.805,57.617,0
1492696062.147,89.844,43.457,33.203,42.969,51.758,0
1492696062.151,61.523,35.645,10.742,40.527,21.484,0
1492696062.155,40.039,22.461,0.000,11.719,15.137,0
1492696062.159,45.410,22.949,46.387,19.043,29.297,0
1492696062.162,40.527,34.180,37.109,24.902,9.766,0
1492696062.166,49.316,37.598,3.418,33.691,4.883,0
1492696062.170,35.645,21.973,12.695,32.715,37.109,0
1492696062.174,31.738,16.602,32.715,22.461,63.477,0
1492696062.178,48.340,-0.488,41.992,55.176,26.367,0
1492696062.182,46.387,-6.836,66.895,56.641,-9.277,0
1492696062.186,48.828,13.672,85.938,55.176,13.672,0
1492696062.190,42.969,3.418,45.898,55.664,42.480,0
1492696062.194,35.645,1.465,2.441,37.598,38.086,0
1492696062.198,9.277,-16.602,-6.348,21.484,28.320,0
1492696062.202,5.371,-34.180,17.578,8.789,24.902,0
1492696062.205,27.344,-8.301,62.988,20.020,9.277,0
1492696062.209,65.430,26.855,86.426,61.523,-1.465,0
1492696062.213,81.055,22.461,40.039,66.895,14.160,0
1492696062.217,33.203,-10.254,-0.488,13.672,41.504,0
1492696062.221,52.246,2.441,47.363,26.855,41.016,0
1492696062.225,64.941,1.465,66.406,45.410,23.438,0
1492696062.229,27.832,-14.648,18.555,11.719,43.945,0
1492696062.233,47.852,-2.930,10.254,18.555,63.477,0
1492696062.237,40.527,3.906,29.297,35.156,36.621,0
1492696062.241,7.324,-15.137,8.789,16.602,22.461,0
1492696062.244,24.414,-19.043,28.320,3.906,31.250,0
1492696062.248,37.598,-9.766,69.336,21.484,46.387,0
1492696062.252,35.156,-19.043,50.293,47.363,24.414,0
1492696062.256,32.227,-10.254,35.645,47.363,14.160,0
1492696062.260,53.711,28.809,49.316,60.059,14.648,0
1492696062.264,73.242,41.992,47.852,87.891,18.066,0
1492696062.268,57.617,2.930,3.906,58.105,40.039,0
1492696062.272,50.781,-5.859,-16.602,27.832,55.664,0
1492696062.276,61.523,0.000,20.508,53.711,35.645,0
1492696062.280,24.902,-12.695,24.414,36.621,28.320,0
1492696062.284,4.395,9.277,32.227,6.348,41.992,0
1492696062.287,16.113,9.766,46.875,27.832,52.734,0
1492696062.291,20.508,-10.742,20.020,37.598,72.266,0
1492696062.295,45.898,1.465,24.902,48.340,29.297,0
1492696062.299,40.527,-4.883,34.668,39.062,13.184,0
1492696062.303,20.020,-3.906,45.410,31.250,66.895,0
1492696062.307,29.785,24.902,65.918,52.246,66.406,0
1492696062.311,53.223,13.184,57.617,41.992,20.508,0
1492696062.315,55.664,5.859,45.410,46.875,2.930,0
1492696062.319,51.270,29.785,14.160,51.270,14.648,0
1492696062.323,39.551,20.996,-13.672,24.414,37.598,0
1492696062.327,25.879,-1.465,-23.438,-0.488,50.293,0
1492696062.330,54.199,15.625,6.836,6.836,52.246,0
1492696062.334,74.707,35.645,41.016,36.133,54.199,0
1492696062.338,54.199,30.273,41.504,42.480,25.879,0
1492696062.342,23.438,13.672,44.922,26.367,0.000,0
1492696062.346,24.902,-0.488,39.551,12.207,0.488,0
1492696062.350,35.156,-16.602,30.762,13.672,6.836,0
1492696062.354,61.523,12.207,55.176,53.223,35.645,0
1492696062.358,72.266,45.410,46.875,50.781,28.320,0
1492696062.362,44.434,25.879,20.996,20.508,8.301,0
1492696062.366,42.969,9.766,16.602,4.883,7.812,0
1492696062.369,40.039,10.254,26.367,0.000,13.672,0
1492696062.373,50.781,42.969,44.922,42.969,34.180,0
1492696062.377,84.961,70.312,35.156,54.688,34.668,0
1492696062.381,74.219,44.434,9.766,34.180,29.785,0
1492696062.385,35.156,20.020,1.953,15.625,23.926,0
1492696062.389,18.555,18.555,17.090,10.254,31.250,0
1492696062.393,42.969,9.766,49.805,20.020,48.340,0
1492696062.397,54.199,15.625,80.078,36.133,28.320,0
1492696062.401,51.270,1.465,47.363,30.762,16.113,0
1492696062.405,48.828,-4.883,5.371,31.250,1.953,0
1492696062.409,45.410,19.043,20.996,46.875,37.598,0
1492696062.412,66.895,37.598,21.973,56.641,76.172,0
1492696062.416,87.891,47.363,4.883,71.289,20.996,0
1492696062.420,44.434,26.367,8.789,46.387,10.254,0
1492696062.424,5.371,14.648,36.621,20.996,24.414,0
1492696062.428,25.879,17.090,39.062,32.715,45.898,0
1492696062.432,41.016,17.578,54.199,34.668,59.082,0
1492696062.436,62.988,26.367,64.941,59.082,29.297,0
1492696062.440,68.359,10.254,41.992,55.664,27.344,0
1492696062.444,62.012,16.113,27.832,49.316,28.320,0
1492696062.448,50.781,25.879,3.418,56.641,0.977,0
1492696062.452,35.645,8.789,-2.441,41.992,31.250,0
1492696062.455,46.387,8.301,40.527,54.199,29.297,0
1492696062.459,49.316,-0.977,42.969,62.500,17.090,0
1492696062.463,58.105,-3.418,12.695,43.457,20.020,0
1492696062.467,43.945,-2.930,3.906,45.898,31.738,0
1492696062.471,39.062,1.465,27.832,70.312,43.457,0
1492696062.475,48.340,2.441,66.895,60.059,7.324,0
1492696062.479,54.199,-2.930,76.660,32.715,21.973,0
1492696062.483,67.871,19.531,88.867,55.176,38.574,0
1492696062.487,55.176,16.113,57.617,67.871,24.414,0
1492696062.491,46.387,1.465,-8.789,33.691,38.086,0
1492696062.494,41.504,0.000,-18.066,0.000,10.254,0
1492696062.498,41.504,-14.160,-4.395,-7.812,6.348,0
1492696062.502,35.156,-25.391,-21.973,17.090,30.273,0
1492696062.506,30.273,-14.160,16.113,12.207,26.367,0
1492696062.510,43.945,10.254,57.617,12.695,36.621,0
1492696062.514,69.824,28.320,42.969,54.688,-3.418,0
1492696062.518,76.660,11.719,42.480,65.918,0.977,0
1492696062.522,53.223,-22.461,52.734,22.461,22.461,0
1492696062.526,42.480,-19.043,37.598,0.977,23.438,0
1492696062.530,68.848,14.160,4.395,12.695,34.180,0
1492696062.534,80.566,38.086,25.879,19.531,16.113,0
1492696062.537,76.660,34.668,30.762,19.531,13.672,0
1492696062.541,48.828,3.418,-15.625,7.324,18.555,0
1492696062.545,32.715,-6.836,-35.156,11.230,62.012,0
1492696062.549,53.223,-4.883,14.648,34.668,55.176,0
1492696062.553,56.641,1.465,53.711,40.039,32.227,0
1492696062.557,52.246,3.418,15.625,37.109,49.316,0
1492696062.561,52.734,-2.441,2.930,30.762,58.594,0
1492696062.565,45.410,0.000,25.391,16.602,49.316,0
1492696062.569,39.551,-4.883,27.832,23.438,35.645,0
1492696062.573,45.898,-1.465,10.254,32.227,20.996,0
1492696062.577,66.895,17.578,-10.742,42.969,23.926,0
1492696062.580,53.711,7.812,-28.320,25.391,55.176,0
1492696062.584,43.457,4.395,-36.621,29.297,22.949,0
1492696062.588,42.969,-4.883,-40.527,46.387,0.000,0
1492696062.592,55.176,-9.766,-47.363,58.594,25.391,0
1492696062.596,90.820,-6.348,-37.598,84.473,29.297,0
1492696062.600,73.730,-8.301,-18.066,77.637,23.926,0
1492696062.604,58.594,9.766,-19.043,53.223,27.832,0
1492696062.608,62.988,15.625,-20.996,21.973,41.992,0
1492696062.612,49.316,1.953,-12.207,27.344,43.457,0
1492696062.616,34.180,-16.113,-13.184,29.297,30.273,0
1492696062.619,32.715,-9.766,-34.180,13.184,42.969,0
1492696062.623,53.711,7.812,-46.875,14.648,52.734,0
1492696062.627,61.035,2.441,-40.039,27.832,17.578,0
1492696062.631,51.758,5.371,-39.551,56.641,-0.977,0
1492696062.635,66.406,13.672,-37.598,41.504,25.391,0
1492696062.639,84.961,33.691,-20.508,46.875,32.227,0
1492696062.643,59.570,29.297,-11.230,30.762,13.672,0
1492696062.647,41.504,6.836,-14.160,-5.859,5.371,0
1492696062.651,58.594,4.883,-31.250,16.113,35.645,0
1492696062.655,36.133,8.789,-50.781,22.461,35.645,0
1492696062.659,25.391,15.625,-73.242,14.160,35.645,0
1492696062.662,35.645,5.371,-99.609,5.859,48.340,0
1492696062.666,24.902,16.602,-73.242,12.207,50.293,0
1492696062.670,37.598,17.090,-17.090,17.090,42.969,0
1492696062.674,62.012,13.672,-8.301,8.301,13.184,0
1492696062.678,59.082,22.949,-40.527,13.672,13.672,0
1492696062.682,44.922,17.090,-80.078,11.230,53.711,0
1492696062.686,34.180,20.996,-39.551,30.273,44.922,0
1492696062.690,47.363,20.996,-8.301,30.273,7.324,0
1492696062.694,55.176,8.789,-66.406,24.902,31.738,0
1492696062.698,46.387,27.344,-58.594,56.641,39.062,0
1492696062.702,71.777,45.410,-18.066,82.520,22.461,0
1492696062.705,69.824,0.000,-41.016,61.523,6.836,0
1492696062.709,62.500,-12.207,-41.504,35.645,27.344,0
1492696062.713,53.711,0.488,-31.738,28.809,47.852,0
1492696062.717,14.648,-10.742,-43.457,-6.348,10.254,0
1492696062.721,30.273,12.207,-29.297,10.742,-1.465,0
1492696062.725,30.273,16.113,-35.645,18.555,29.785,0
1492696062.729,13.672,-6.836,-58.594,1.953,44.922,0
1492696062.733,41.016,-10.742,-56.152,10.254,29.785,0
1492696062.737,53.223,-1.953,-41.992,21.484,17.090,0
1492696062.741,56.641,20.996,-43.457,41.992,37.109,0
1492696062.744,46.875,18.066,-93.750,33.203,53.711,0
1492696062.748,48.828,5.371,-73.730,48.340,45.410,0
1492696062.752,99.609,30.762,-18.066,98.633,37.109,0
1492696062.756,110.840,48.340,-17.578,101.074,47.852,0
1492696062.760,63.477,26.367,-23.926,67.871,44.922,0
1492696062.764,57.129,-11.719,-39.551,9.277,31.250,0
1492696062.768,55.664,-10.742,-65.918,-0.977,-2.441,0
1492696062.772,26.367,3.906,-67.871,19.531,-18.066,0
1492696062.776,42.969,-0.488,-29.785,28.809,15.625,0
1492696062.780,69.824,6.836,-11.230,47.363,6.348,0
1492696062.784,109.375,53.223,7.324,96.191,2.441,0
1492696062.787,87.891,39.551,2.930,72.266,37.598,0
1492696062.791,52.734,7.812,-19.043,47.852,19.043,0
1492696062.795,64.453,15.137,-54.688,69.336,-4.395,0
1492696062.799,72.266,13.184,-94.238,57.617,26.855,0
1492696062.803,59.082,6.836,-58.105,39.551,49.316,0
1492696062.807,23.926,3.418,-30.273,29.297,53.711,0
1492696062.811,45.410,20.020,-36.621,41.016,31.738,0
1492696062.815,75.195,21.484,-35.156,40.039,10.742,0
1492696062.819,61.523,7.812,-34.668,25.391,20.996,0
1492696062.823,59.082,23.438,-22.949,22.949,-8.789,0
1492696062.827,78.125,59.570,-7.324,51.758,7.324,0
1492696062.830,90.332,59.082,-2.441,59.570,67.383,0
1492696062.834,80.566,31.738,-37.598,31.738,57.617,0
1492696062.838,66.406,7.324,-34.668,37.109,-12.207,0
1492696062.842,26.367,-11.719,-34.180,7.324,-23.926,0
1492696062.846,24.414,-3.418,-37.598,-2.930,22.949,0
1492696062.850,68.848,19.531,-2.441,27.832,10.742,0
1492696062.854,79.102,20.996,-11.719,41.992,11.230,0
1492696062.858,73.242,0.977,-51.758,34.668,36.621,0
1492696062.862,65.918,-5.859,-49.316,8.301,37.109,0
1492696062.866,77.148,22.461,-21.484,25.391,38.574,0
1492696062.869,71.777,30.762,-11.719,38.574,-0.977,0
1492696062.873,75.684,20.508,-11.719,37.598,4.883,0
1492696062.877,87.891,27.344,-39.062,34.668,60.059,0
1492696062.881,87.891,22.949,-29.297,41.504,52.246,0
1492696062.885,82.520,18.555,7.812,66.406,30.273,0
1492696062.889,77.148,31.250,12.695,61.035,45.410,0
1492696062.893,78.125,32.227,-3.418,62.988,41.992,0
1492696062.897,57.129,7.812,-49.805,66.406,62.500,0
1492696062.901,25.879,-13.184,-45.410,27.344,36.133,0
1492696062.905,23.926,-4.883,-16.602,22.461,6.836,0
1492696062.909,42.480,-0.488,-25.879,34.180,30.762,0
1492696062.912,45.898,14.648,0.977,42.480,10.254,0
1492696062.916,60.059,31.738,25.879,56.641,10.742,0
1492696062.920,69.336,24.414,-13.184,35.156,42.480,0
1492696062.924,63.965,27.832,-21.484,35.156,39.062,0
1492696062.928,55.176,20.020,-9.277,35.645,49.805,0
1492696062.932,42.480,5.859,-2.930,41.504,50.781,0
1492696062.936,54.688,17.090,15.137,61.035,41.504,0
1492696062.940,45.410,1.953,12.207,31.738,41.016,0
1492696062.944,49.805,0.000,-22.949,20.020,31.250,0
1492696062.948,75.195,12.207,-57.129,20.996,29.785,0
1492696062.952,57.617,11.719,-22.949,26.855,51.270,0
1492696062.955,77.637,30.762,28.809,53.711,43.945,0
1492696062.959,82.031,22.461,19.043,39.551,25.391,0
1492696062.963,65.430,13.184,2.441,26.855,36.621,0
1492696062.967,79.102,30.273,16.113,64.941,59.570,0
1492696062.971,72.266,20.020,-20.996,59.570,41.016,0
1492696062.975,45.410,3.418,-32.227,23.438,51.758,0
1492696062.979,41.504,-2.441,8.789,35.156,59.570,0
1492696062.983,67.383,6.836,16.113,53.711,54.199,0
1492696062.987,68.848,11.719,-3.906,43.945,44.434,0
1492696062.991,67.871,20.508,-6.348,48.828,27.832,0
1492696062.994,49.805,19.043,17.578,37.109,45.410,0
1492696062.998,29.785,-3.418,9.277,16.113,43.945,0
1492696063.002,27.344,2.441,-3.418,23.926,16.602,0
1492696063.006,39.551,23.926,21.484,36.621,23.438,0
1492696063.010,56.152,22.461,13.672,44.922,38.574,0
1492696063.014,43.945,13.672,-15.137,53.711,56.641,0
1492696063.018,58.105,16.602,-21.973,61.035,24.414,0
1492696063.022,86.426,28.320,-7.324,91.797,0.977,0
1492696063.026,23.926,-5.859,-24.902,50.781,50.781,0
1492696063.030,-10.254,-32.715,-21.484,4.883,32.715,0
1492696063.034,60.547,-0.977,11.230,52.734,35.156,0
1492696063.037,52.734,-18.555,-14.648,44.434,43.945,0
1492696063.041,35.645,-26.855,-7.812,25.879,33.691,0
1492696063.045,40.527,2.441,23.926,32.227,39.551,0
1492696063.049,62.988,20.508,47.363,61.035,23.438,0
1492696063.053,70.312,25.879,18.066,79.102,14.160,0
1492696063.057,27.344,7.324,-31.738,24.902,15.137,0
1492696063.061,44.922,28.809,3.418,46.875,11.230,0
1492696063.065,81.055,48.340,11.719,95.215,4.395,0
1492696063.069,48.828,4.883,-23.438,51.270,36.133,0
1492696063.073,24.902,-27.344,-20.508,16.602,51.270,0
1492696063.077,39.551,-35.156,-0.977,29.785,27.832,0
1492696063.080,26.855,-20.508,18.066,41.016,21.973,0
1492696063.084,33.203,8.301,44.434,36.133,28.320,0
1492696063.088,60.547,25.391,50.781,54.688,45.898,0
1492696063.092,70.312,27.344,0.488,65.430,42.480,0
1492696063.096,57.617,-0.977,-37.598,55.176,-1.465,0
1492696063.100,39.062,-12.207,-7.812,38.574,16.113,0
1492696063.104,39.062,15.137,17.090,37.598,50.781,0
1492696063.108,57.617,17.090,-2.441,50.293,4.883,0
1492696063.112,62.012,7.324,-5.859,41.992,-22.949,0
1492696063.116,63.477,16.602,-11.719,26.855,16.602,0
1492696063.119,35.156,18.555,-16.602,26.367,35.645,0
1492696063.123,14.648,19.531,-19.531,30.762,13.184,0
1492696063.127,41.016,20.020,-3.906,36.133,21.484,0
1492696063.131,51.758,11.719,23.438,32.227,47.852,0
1492696063.135,51.758,23.438,17.578,30.762,63.477,0
1492696063.139,26.855,9.766,12.695,31.738,36.133,0
1492696063.143,0.977,-13.184,21.973,29.297,37.109,0
1492696063.147,3.906,-10.742,22.949,37.598,35.645,0
1492696063.151,16.602,-0.977,16.113,37.109,51.270,0
1492696063.155,41.016,4.883,2.930,37.109,53.711,0
1492696063.159,52.734,0.977,-14.648,25.879,42.969,0
1492696063.162,40.527,2.930,-41.992,19.531,52.734,0
1492696063.166,23.438,18.066,2.930,49.805,33.691,0
1492696063.170,34.668,25.391,37.109,54.688,8.789,0
1492696063.174,44.434,6.348,7.324,20.020,42.480,0
1492696063.178,34.668,10.742,11.719,24.902,55.176,0
1492696063.182,40.527,30.273,14.648,63.965,38.086,0
1492696063.186,56.152,27.344,8.301,69.336,41.504,0
1492696063.190,44.434,-0.977,18.555,44.434,27.344,0
1492696063.194,44.434,-10.742,24.414,50.293,39.062,0
1492696063.198,62.500,17.090,38.086,69.824,14.648,0
1492696063.202,40.527,20.508,41.016,54.688,-13.672,0
1492696063.205,41.504,16.602,20.996,55.176,0.977,0
1492696063.209,61.035,31.250,-12.695,67.871,33.203,0
1492696063.213,47.363,25.391,-7.812,67.871,47.363,0
1492696063.217,36.133,9.277,27.344,59.082,37.109,0
1492696063.221,43.457,11.719,28.809,55.664,18.555,0
1492696063.225,65.918,12.207,19.531,62.500,11.230,0
1492696063.229,63.477,-3.906,0.488,58.594,12.695,0
1492696063.233,47.852,1.953,24.414,46.387,16.602,0
1492696063.237,21.484,11.230,48.340,41.992,2.441,0
1492696063.241,35.156,2.930,46.387,54.199,3.906,0
1492696063.244,61.523,26.367,59.082,74.219,8.301,0
1492696063.248,42.969,28.320,13.672,51.758,20.996,0
1492696063.252,34.668,15.625,-2.441,35.156,55.176,0
1492696063.256,66.895,40.039,28.809,83.496,57.617,2
1492696063.260,60.547,41.016,13.184,94.238,55.176,0
1492696063.264,23.438,29.297,-11.230,76.660,56.641,0
1492696063.268,28.809,25.391,16.113,49.805,52.246,0
1492696063.272,38.086,12.207,21.973,25.391,59.082,0
1492696063.276,29.297,-6.348,-11.719,25.879,45.898,0
1492696063.280,5.371,-18.066,-25.391,14.160,44.922,0
1492696063.284,13.672,-0.977,-4.883,13.184,47.852,0
1492696063.287,44.922,16.602,1.465,37.598,23.438,0
1492696063.291,41.992,21.973,0.488,41.504,-1.953,0
1492696063.295,40.527,19.531,3.418,36.621,27.344,0
1492696063.299,54.688,27.344,28.320,47.852,38.574,0
1492696063.303,41.504,35.156,34.180,49.805,8.789,0
1492696063.307,45.898,28.320,-9.277,32.227,21.973,0
1492696063.311,79.102,32.227,15.137,45.898,50.293,0
1492696063.315,55.176,20.508,40.527,51.270,59.082,0
1492696063.319,7.324,-9.277,-3.906,11.719,76.660,0
1492696063.323,16.602,-26.367,-16.602,17.578,64.941,0
1492696063.327,37.598,-12.207,25.391,54.199,50.781,0
1492696063.330,47.363,3.418,50.293,70.801,38.574,0
1492696063.334,56.152,8.789,45.898,74.219,8.301,0
1492696063.338,58.594,18.555,28.320,72.754,39.062,0
1492696063.342,38.574,0.488,34.180,63.965,68.359,0
1492696063.346,28.809,-12.207,22.461,50.293,20.020,0
1492696063.350,43.457,13.184,-4.395,61.523,2.930,0
1492696063.354,38.086,25.391,24.414,71.289,34.180,0
1492696063.358,20.020,9.766,24.414,62.012,39.062,0
1492696063.362,-3.906,-28.320,3.418,23.926,20.996,0
1492696063.366,8.301,-30.273,37.109,17.578,46.387,0
1492696063.369,38.574,14.160,47.363,52.246,70.312,0
1492696063.373,32.227,12.207,17.090,48.828,36.621,0
1492696063.377,25.391,-1.465,22.461,38.086,7.324,0
1492696063.381,62.988,28.809,62.012,72.266,15.137,0
1492696063.385,59.082,32.715,41.992,53.711,12.207,0
1492696063.389,36.133,14.648,15.625,28.809,-4.395,0
1492696063.393,7.812,-17.578,-1.465,5.371,-25.391,0
1492696063.397,6.836,-14.160,-0.488,-3.906,2.441,0
1492696063.401,52.246,7.812,27.344,19.531,30.762,0
1492696063.405,55.664,4.395,41.016,9.766,27.344,0
1492696063.409,26.367,6.836,42.480,1.465,16.602,0
1492696063.412,18.066,11.719,49.316,-7.324,4.883,0
1492696063.416,6.348,-4.395,11.719,-25.879,33.203,0
1492696063.420,26.855,-12.695,-35.156,-16.602,30.273,0
1492696063.424,77.637,24.414,-24.414,22.461,19.531,0
1492696063.428,71.289,28.809,15.625,32.715,13.184,0
1492696063.432,48.340,-9.277,42.480,18.555,36.133,0
1492696063.436,40.039,-13.672,17.090,20.020,41.504,0
1492696063.440,40.039,2.441,8.301,28.320,9.766,0
1492696063.444,70.801,14.648,46.387,41.992,17.578,0
1492696063.448,57.617,15.625,69.824,46.875,45.410,0
1492696063.452,37.109,9.277,26.855,42.480,31.250,0
1492696063.455,26.367,-1.953,-6.348,12.207,2.930,0
1492696063.459,20.508,-4.883,13.672,2.930,39.551,0
1492696063.463,24.414,-6.348,-5.371,19.531,54.688,0
1492696063.467,21.484,-20.996,-20.996,-0.977,5.371,0
1492696063.471,34.668,-19.531,25.879,4.395,13.184,0
1492696063.475,12.695,-16.113,65.430,26.855,34.668,0
1492696063.479,12.207,-19.043,50.781,24.414,38.086,0
1492696063.483,48.828,-12.207,16.113,39.551,27.344,0
1492696063.487,28.809,-4.395,-9.277,55.664,14.648,0
1492696063.491,43.945,5.371,33.691,79.102,42.969,0
1492696063.494,78.613,11.719,88.379,79.102,41.992,0
1492696063.498,72.754,24.414,60.547,71.777,30.273,0
1492696063.502,67.383,43.457,22.461,83.008,33.203,0
1492696063.506,60.547,41.016,-4.395,56.152,49.805,0
1492696063.510,37.598,-1.465,-7.812,23.438,34.668,0
1492696063.514,-9.277,-49.805,-5.371,8.301,31.250,0
1492696063.518,3.906,-35.156,7.812,8.789,41.504,0
1492696063.522,44.922,-3.418,54.688,23.438,40.039,0
1492696063.526,36.133,6.836,55.664,41.992,24.902,0
1492696063.530,31.250,7.324,21.484,45.410,2.441,0
1492696063.534,42.480,7.324,27.344,43.945,16.602,0
1492696063.537,32.227,9.277,59.570,30.273,39.062,0
1492696063.541,49.805,4.883,30.762,41.016,27.832,0
1492696063.545,74.707,33.691,-1.953,66.895,26.367,0
1492696063.549,103.027,56.152,22.461,77.148,35.156,0
1492696063.553,68.848,10.254,4.883,21.973,33.691,0
1492696063.557,16.602,-16.602,19.531,-15.625,26.367,0
1492696063.561,31.250,-1.465,66.406,3.418,34.668,0
1492696063.565,42.480,8.301,46.387,2.930,62.500,0
1492696063.569,52.246,22.949,25.391,21.973,46.387,0
1492696063.573,46.387,10.742,28.809,25.879,28.320,0
1492696063.577,26.367,-18.555,-3.418,-17.578,16.602,0
1492696063.580,55.176,10.742,16.602,10.254,13.184,0
1492696063.584,78.613,57.129,63.477,40.039,30.273,0
1492696063.588,57.129,32.227,52.246,22.461,2.930,0
1492696063.592,50.293,-17.578,-11.719,15.625,2.930,0
1492696063.596,60.059,0.488,-5.859,40.039,43.945,0
1492696063.600,49.805,22.461,55.664,58.105,37.598,0
1492696063.604,34.180,18.555,62.500,45.898,34.180,0
1492696063.608,25.391,8.789,17.578,36.133,39.551,0
1492696063.612,40.527,4.883,-12.207,29.297,38.574,0
1492696063.616,38.574,4.883,16.602,34.668,37.598,0
1492696063.619,-5.371,-10.254,37.109,-3.418,6.836,0
1492696063.623,9.766,0.000,51.270,16.602,10.742,0
1492696063.627,20.996,21.973,28.320,58.105,33.691,0
1492696063.631,21.973,15.625,19.531,33.203,22.949,0
1492696063.635,26.367,-25.391,20.508,13.184,19.043,0
1492696063.639,15.625,-31.738,-2.930,32.715,22.949,0
1492696063.643,13.672,-12.695,-17.090,41.504,33.203,0
1492696063.647,27.832,1.953,18.066,28.320,38.086,0
1492696063.651,27.832,14.160,65.430,33.691,42.480,0
1492696063.655,20.508,17.090,49.316,30.762,38.086,0
1492696063.659,46.387,30.762,42.969,64.453,8.789,0
1492696063.662,60.059,25.879,24.414,70.801,-5.859,0
1492696063.666,58.105,15.137,31.738,40.039,12.207,0
1492696063.670,46.387,10.254,55.664,42.480,63.965,0
1492696063.674,33.691,-0.488,37.109,50.781,57.129,0
1492696063.678,30.762,-18.555,7.324,28.809,31.738,0
1492696063.682,7.812,-38.574,7.324,-9.766,49.316,0
1492696063.686,36.621,-10.742,26.855,31.250,63.965,0
1492696063.690,61.523,22.461,5.371,68.359,27.344,0
1492696063.694,19.043,-9.766,-2.930,37.109,32.227,0
1492696063.698,30.273,-5.371,-2.930,37.598,46.387,0
1492696063.702,67.383,53.711,32.715,68.848,9.277,0
1492696063.705,70.312,43.945,81.543,62.988,9.766,0
1492696063.709,29.785,18.555,53.223,17.578,1.953,0
1492696063.713,35.645,30.762,47.852,37.109,30.762,0
1492696063.717,50.293,6.836,51.270,52.734,52.246,0
1492696063.721,32.715,-23.926,5.371,12.695,21.484,0
1492696063.725,10.254,-29.785,-3.906,0.977,29.297,0
1492696063.729,-4.883,-32.227,28.809,-0.488,23.926,0
1492696063.733,24.902,-7.812,51.270,20.996,34.180,0
1492696063.737,44.434,13.672,32.227,44.434,28.809,0
1492696063.741,28.809,-3.906,7.812,22.461,33.691,0
1492696063.744,17.090,-9.277,38.086,28.809,20.996,0
1492696063.748,53.223,24.414,64.453,75.684,11.230,0
1492696063.752,47.852,29.297,40.039,50.293,7.324,0
1492696063.756,17.090,5.859,26.855,19.531,-1.465,3
1492696063.760,23.926,-6.348,32.715,45.898,10.742,0
1492696063.764,29.785,7.324,16.602,45.898,0.488,0
1492696063.768,37.598,14.160,1.465,22.949,-19.531,0
1492696063.772,51.758,7.324,27.344,37.598,-3.418,0
1492696063.776,29.785,-5.859,32.227,19.043,21.973,0
1492696063.780,-1.953,-17.578,43.457,-8.301,28.809,0
1492696063.784,5.371,-9.766,54.688,10.254,4.883,0
1492696063.787,31.250,-5.371,26.855,20.996,11.719,0
1492696063.791,18.555,-5.371,5.371,31.250,37.109,0
1492696063.795,3.906,-4.883,31.738,39.551,25.391,0
1492696063.799,32.715,14.648,51.758,55.176,33.203,0
1492696063.803,37.598,32.715,1.465,49.316,40.527,0
1492696063.807,28.809,28.320,-18.066,30.273,15.625,0
1492696063.811,40.527,16.113,4.883,34.668,11.719,0
1492696063.815,15.137,-13.184,19.531,15.625,11.719,0
1492696063.819,19.531,3.418,43.457,14.648,23.438,0
1492696063.823,45.410,2.441,42.969,25.391,35.156,0
1492696063.827,33.691,-11.230,31.250,42.969,27.832,0
1492696063.830,43.457,5.371,25.391,52.734,32.715,0
1492696063.834,33.203,-2.441,11.230,29.297,50.781,0
1492696063.838,8.301,0.000,12.695,26.367,29.297,0
1492696063.842,24.902,0.000,25.391,41.504,23.438,0
1492696063.846,41.992,10.254,50.781,53.223,27.832,0
1492696063.850,46.875,31.738,44.434,62.012,3.418,0
1492696063.854,25.879,4.395,29.297,31.250,28.320,0
1492696063.858,7.812,-2.441,44.922,16.602,26.855,0
1492696063.862,-14.648,-1.465,33.203,12.207,2.930,0
1492696063.866,-17.090,-12.695,-6.836,-4.395,46.387,0
1492696063.869,16.602,-5.859,0.488,22.461,38.574,0
1492696063.873,39.062,6.836,45.410,50.781,25.879,0
1492696063.877,36.133,3.906,46.875,37.109,43.945,0
1492696063.881,38.574,1.953,46.387,22.461,58.594,0
1492696063.885,48.340,19.043,46.875,36.133,42.969,0
1492696063.889,43.457,31.250,18.555,66.406,3.906,0
1492696063.893,36.621,20.508,1.465,73.242,1.953,0
1492696063.897,41.504,20.020,20.996,56.152,25.391,0
1492696063.901,19.043,11.230,20.996,21.484,9.277,0
1492696063.905,8.789,-8.789,30.273,18.555,-12.695,0
1492696063.909,33.203,6.348,53.223,37.109,22.949,0
1492696063.912,1.465,-15.137,11.230,11.719,62.012,0
1492696063.916,12.207,-27.344,21.484,28.320,11.719,0
1492696063.920,52.734,7.324,32.227,54.199,-10.742,0
1492696063.924,29.297,14.648,-26.367,33.203,34.668,0
1492696063.928,30.273,23.438,-8.301,38.086,56.641,0
1492696063.932,32.715,18.066,44.434,38.086,46.875,0
1492696063.936,18.555,6.836,62.988,14.160,35.156,0
1492696063.940,23.438,5.371,50.781,9.277,33.203,0
1492696063.944,19.043,-17.578,22.461,24.414,26.855,0
1492696063.948,20.508,-20.996,31.738,26.855,10.742,0
1492696063.952,34.668,-2.441,87.402,29.785,3.418,0
1492696063.955,61.523,26.855,102.051,60.547,33.691,0
1492696063.959,64.941,37.598,33.691,62.988,51.758,0
1492696063.963,16.113,0.488,-29.297,13.184,32.227,0
1492696063.967,1.465,-29.297,-41.016,-16.602,24.902,0
1492696063.971,-25.391,-35.645,-14.160,-24.902,48.340,0
1492696063.975,-11.719,-1.465,26.367,0.977,13.184,0
1492696063.979,56.641,54.688,45.898,49.805,5.371,0
1492696063.983,48.340,27.344,44.922,27.344,43.457,0
1492696063.987,12.695,-25.879,45.898,-7.324,14.160,0
1492696063.991,38.574,4.395,67.871,19.531,-7.812,0
1492696063.994,43.945,17.578,62.012,27.832,-20.508,0
1492696063.998,8.301,-18.555,8.789,11.230,6.836,0
1492696064.002,13.672,-21.973,-12.695,19.531,54.199,0
1492696064.006,25.879,-1.465,-1.953,29.785,18.066,0
1492696064.010,20.996,10.742,5.371,26.367,-11.719,0
1492696064.014,-5.371,-7.812,28.320,6.836,22.461,0
1492696064.018,3.906,-11.230,36.133,4.395,35.156,0
1492696064.022,34.180,7.812,24.414,17.090,15.137,0
1492696064.026,47.363,27.344,37.109,21.484,33.691,0
1492696064.030,34.180,22.949,42.480,19.531,57.617,0
1492696064.034,34.180,19.531,44.922,38.574,43.457,0
1492696064.037,66.406,16.113,34.668,52.734,31.738,0
1492696064.041,43.457,-2.930,10.742,50.781,9.766,0
1492696064.045,10.254,-5.859,0.000,49.316,17.578,0
1492696064.049,10.254,-20.020,-0.488,27.344,34.180,0
1492696064.053,16.602,-8.789,28.320,12.207,-2.930,0
1492696064.057,36.621,21.973,71.777,51.758,2.930,0
1492696064.061,33.203,11.719,24.902,32.227,58.105,0
1492696064.065,-10.254,-23.438,-17.090,-25.391,52.246,0
1492696064.069,-0.488,-13.184,30.273,-2.441,26.855,0
1492696064.073,41.016,17.090,43.457,20.508,31.738,0
1492696064.077,61.523,35.156,61.523,64.941,36.133,0
1492696064.080,40.039,21.973,53.223,66.895,38.574,0
1492696064.084,-1.953,-7.812,0.000,24.902,6.836,0
1492696064.088,-3.906,-25.391,14.160,16.113,-8.789,0
1492696064.092,32.227,-21.484,39.551,23.926,38.574,0
1492696064.096,44.922,0.977,16.113,23.926,31.250,0
1492696064.100,21.484,-1.465,-1.953,20.020,6.836,0
1492696064.104,14.648,-6.348,15.137,14.160,44.434,0
1492696064.108,48.340,19.043,46.387,33.691,61.523,0
1492696064.112,50.781,42.969,65.430,76.660,5.371,0
1492696064.116,35.645,20.996,54.199,68.359,12.695,0
1492696064.119,19.531,-10.254,41.992,31.250,33.203,0
1492696064.123,16.113,-7.324,17.090,26.855,17.090,0
1492696064.127,9.277,-12.695,14.160,22.461,3.418,0
1492696064.131,0.000,-19.043,41.992,13.184,-4.395,0
1492696064.135,9.766,-27.832,32.715,18.555,22.949,0
1492696064.139,28.809,-12.695,26.855,39.062,39.551,0
1492696064.143,52.734,20.020,58.105,48.828,29.785,0
1492696064.147,55.176,30.762,38.574,53.711,10.742,0
1492696064.151,51.758,21.484,-23.438,61.523,9.766,0
1492696064.155,54.688,12.207,27.344,43.945,58.594,0
1492696064.159,32.715,6.348,78.613,17.578,50.781,0
1492696064.162,0.488,-11.719,19.531,-3.418,-2.930,0
1492696064.166,0.000,-16.113,-12.207,-15.625,27.344,0
1492696064.170,58.105,37.109,44.922,61.035,34.180,0
1492696064.174,68.848,48.828,58.105,87.402,-24.902,0
1492696064.178,37.109,5.859,9.766,11.719,-7.324,0
1492696064.182,16.113,-5.859,-1.953,-11.230,64.941,0
1492696064.186,7.324,-18.555,11.230,-11.230,67.871,0
1492696064.190,3.906,-20.996,41.504,0.488,14.160,0
1492696064.194,-14.648,-20.996,39.062,6.348,28.809,0
1492696064.198,16.113,-17.090,38.086,7.324,31.250,0
1492696064.202,33.203,0.000,71.777,16.113,-8.301,0
1492696064.205,12.695,4.395,45.410,9.766,12.695,0
1492696064.209,29.785,20.020,50.293,38.574,26.855,0
1492696064.213,55.664,43.945,63.477,74.219,32.715,0
1492696064.217,27.832,17.578,21.973,51.270,12.207,0
1492696064.221,19.043,-13.672,11.230,31.250,-9.766,0
1492696064.225,44.434,-6.348,26.367,44.922,19.531,0
1492696064.229,30.762,3.418,27.344,45.410,40.039,0
1492696064.233,1.953,-6.348,28.320,20.996,30.762,0
1492696064.237,19.043,-1.465,46.875,26.367,22.949,0
1492696064.241,47.363,9.277,54.199,50.293,41.016,0
1492696064.244,26.855,-5.859,15.625,39.062,71.777,0
1492696064.248,-1.465,-27.344,16.113,14.160,38.086,0
1492696064.252,32.227,-6.348,48.828,32.715,16.602,0
1492696064.256,66.895,12.207,31.250,68.848,36.133,4
1492696064.260,65.918,12.695,20.508,61.523,15.625,0
1492696064.264,61.523,4.395,42.969,36.621,-0.977,0
1492696064.268,59.570,3.418,56.152,39.551,26.855,0
1492696064.272,63.965,13.672,54.688,45.898,36.133,0
1492696064.276,94.238,36.133,72.754,68.359,23.926,0
1492696064.280,69.336,21.973,55.176,43.457,4.883,0
1492696064.284,29.785,-4.395,2.930,12.695,10.254,0
1492696064.287,26.367,-11.719,-29.785,29.785,18.066,0
1492696064.291,26.367,-15.137,-20.020,13.184,8.301,0
1492696064.295,51.270,-1.953,4.883,0.977,35.156,0
1492696064.299,56.641,0.977,27.344,15.137,63.477,0
1492696064.303,49.805,5.859,47.852,29.785,36.621,0
1492696064.307,48.340,4.395,61.523,28.320,19.043,0
1492696064.311,26.367,12.695,51.758,5.859,17.090,0
1492696064.315,22.461,35.645,46.387,29.297,2.930,0
1492696064.319,18.066,8.789,25.391,14.160,32.715,0
1492696064.323,20.996,11.719,15.625,14.648,42.480,0
1492696064.327,45.898,42.480,24.414,55.664,31.250,0
1492696064.330,49.805,17.090,5.371,40.039,45.898,0
1492696064.334,26.367,-9.766,13.184,28.320,40.039,0
1492696064.338,19.043,0.000,48.340,32.715,35.645,0
1492696064.342,57.129,26.367,38.574,61.523,59.082,0
1492696064.346,62.012,23.438,28.809,86.426,50.781,0
1492696064.350,18.555,2.441,56.641,54.199,28.809,0
1492696064.354,-9.277,-17.090,42.480,11.719,28.320,0
1492696064.358,-2.930,-33.691,34.180,5.859,27.344,0
1492696064.362,21.484,-19.043,30.762,32.715,22.461,0
1492696064.366,36.133,13.672,15.137,54.688,32.715,0
1492696064.369,31.250,33.203,53.223,53.711,10.254,0
1492696064.373,32.715,28.320,66.406,66.406,23.926,0
1492696064.377,50.781,20.996,38.086,68.848,60.547,0
1492696064.381,54.199,21.973,46.387,60.547,30.273,0
1492696064.385,50.781,18.555,72.754,83.008,39.062,0
1492696064.389,50.293,8.789,60.547,65.430,46.387,0
1492696064.393,36.133,-5.859,40.039,42.480,42.480,0
1492696064.397,23.926,-7.812,35.156,45.898,52.734,0
1492696064.401,40.527,-3.906,15.625,39.551,49.316,0
1492696064.405,39.062,3.906,-8.789,45.898,55.664,0
1492696064.409,22.949,4.395,18.555,44.922,29.785,0
1492696064.412,32.715,9.766,41.504,41.504,17.090,0
1492696064.416,52.734,34.180,31.250,33.691,11.230,0
1492696064.420,42.969,42.969,57.617,1.465,20.508,0
1492696064.424,21.484,18.066,68.359,-1.953,40.527,0
1492696064.428,20.508,-1.465,28.809,17.090,21.973,0
1492696064.432,29.297,8.301,42.480,18.066,36.621,0
1492696064.436,50.293,7.812,61.035,15.137,38.574,0
1492696064.440,32.715,1.465,13.184,16.602,18.066,0
1492696064.444,8.301,1.465,-28.809,15.625,14.648,0
1492696064.448,60.059,27.832,-30.762,41.016,34.668,0
1492696064.452,89.355,45.898,11.719,63.477,29.785,0
1492696064.455,55.664,24.902,49.805,44.434,4.883,0
1492696064.459,31.250,11.230,37.598,5.371,-22.949,0
1492696064.463,17.090,-9.277,35.645,-15.625,-15.625,0
1492696064.467,38.086,3.906,59.082,14.160,31.250,0
1492696064.471,65.430,41.504,54.199,27.344,45.410,0
1492696064.475,59.082,46.387,35.645,14.160,17.090,0
1492696064.479,46.875,24.902,16.113,23.438,13.184,0
1492696064.483,48.340,11.719,-14.648,32.227,38.574,0
1492696064.487,63.477,25.391,-25.879,41.504,28.320,0
1492696064.491,52.734,16.602,-8.789,38.086,2.930,0
1492696064.494,29.297,-6.836,32.227,34.180,38.086,0
1492696064.498,20.508,4.395,53.223,5.371,44.922,0
1492696064.502,8.301,-11.719,41.016,-22.461,17.578,0
1492696064.506,29.785,-15.137,62.012,4.883,20.996,0
1492696064.510,41.504,17.090,48.340,0.488,28.320,0
1492696064.514,50.781,30.762,9.277,11.719,44.922,0
1492696064.518,53.711,24.414,10.254,37.598,48.340,0
1492696064.522,53.223,46.875,27.832,57.129,39.551,0
1492696064.526,90.332,66.406,52.734,85.938,32.227,0
1492696064.530,59.570,28.320,3.418,45.410,65.918,0
1492696064.534,19.531,1.465,-41.504,11.719,55.664,0
1492696064.537,35.156,4.883,3.418,24.414,2.930,0
1492696064.541,25.391,13.184,62.012,28.320,29.785,0
1492696064.545,30.273,9.277,51.270,38.574,35.645,0
1492696064.549,32.715,-1.465,2.930,34.668,19.531,0
1492696064.553,29.297,9.277,27.344,30.273,20.508,0
1492696064.557,52.246,14.648,58.105,58.594,7.812,0
1492696064.561,54.199,8.789,33.203,50.293,24.414,0
1492696064.565,54.199,22.461,31.250,51.758,14.160,0
1492696064.569,46.387,20.996,20.508,57.617,16.602,0
1492696064.573,49.805,18.066,-0.977,50.781,30.762,0
1492696064.577,82.031,47.363,39.062,57.129,0.977,0
1492696064.580,43.457,17.578,36.133,23.438,27.344,0
1492696064.584,14.648,-5.371,26.855,19.531,41.504,0
1492696064.588,42.480,16.602,49.805,62.500,42.480,0
1492696064.592,48.340,30.273,41.504,77.148,49.316,0
1492696064.596,29.297,0.488,44.434,44.434,20.508,0
1492696064.600,41.504,-3.418,59.082,57.617,12.207,0
1492696064.604,39.551,0.977,38.574,47.852,38.574,0
1492696064.608,32.715,-3.418,7.812,30.762,4.883,0
1492696064.612,37.109,3.418,1.953,61.035,-18.066,0
1492696064.616,52.734,20.020,23.926,77.148,15.625,0
1492696064.619,62.012,31.250,54.199,55.664,32.227,0
1492696064.623,52.734,14.648,45.410,32.715,14.648,0
1492696064.627,34.668,7.324,35.645,26.367,9.766,0
1492696064.631,20.020,-1.953,37.109,18.555,17.578,0
1492696064.635,45.410,5.371,31.250,33.691,-10.254,0
1492696064.639,65.430,26.855,28.320,47.363,-1.465,0
1492696064.643,40.527,19.043,17.578,41.992,-4.395,0
1492696064.647,27.832,24.902,37.598,64.941,-0.977,0
1492696064.651,54.199,46.875,47.363,82.031,19.043,0
1492696064.655,54.199,34.180,45.898,67.383,3.418,0
1492696064.659,34.668,11.230,52.246,39.062,37.109,0
1492696064.662,33.691,-0.977,53.223,19.043,60.547,0
1492696064.666,20.996,-2.930,35.156,11.719,22.949,0
1492696064.670,9.277,3.906,25.391,23.926,29.785,0
1492696064.674,31.250,20.508,5.371,42.480,49.805,0
1492696064.678,56.641,11.719,-10.254,32.715,38.574,0
1492696064.682,65.430,4.883,23.438,57.617,-3.418,0
1492696064.686,83.984,44.922,20.996,106.934,-2.930,0
1492696064.690,69.336,61.035,12.695,72.266,31.738,0
1492696064.694,21.484,22.461,55.664,20.508,71.777,0
1492696064.698,19.531,5.859,69.824,31.738,38.574,0
1492696064.702,41.992,13.672,54.688,43.945,21.973,0
1492696064.705,24.414,-1.953,39.062,24.414,35.156,0
1492696064.709,22.949,-13.672,20.996,5.859,24.414,0
1492696064.713,27.832,-20.996,10.742,12.695,41.504,0
1492696064.717,36.621,11.719,30.762,56.152,36.133,0
1492696064.721,68.848,59.082,25.879,101.562,34.180,0
1492696064.725,81.055,61.523,18.066,98.145,19.531,0
1492696064.729,53.711,15.137,48.340,47.852,19.531,0
1492696064.733,29.297,-15.137,69.824,25.879,20.020,0
1492696064.737,39.062,-0.488,58.105,34.180,51.270,0
1492696064.741,70.801,18.555,29.785,47.852,50.293,0
1492696064.744,44.922,16.602,14.648,51.758,-21.484,0
1492696064.748,11.230,12.207,19.531,47.363,-6.348,0
1492696064.752,37.598,16.602,38.086,52.734,74.219,0
1492696064.756,65.430,28.320,46.875,65.430,47.363,5
1492696064.760,84.473,40.527,25.879,79.102,3.906,0
1492696064.764,68.359,34.668,1.465,65.430,46.387,0
1492696064.768,29.297,3.906,42.969,44.434,72.266,0
1492696064.772,-1.465,-10.254,72.266,34.668,30.762,0
1492696064.776,0.488,-0.488,43.457,30.273,48.828,0
1492696064.780,32.227,-2.930,32.227,41.016,66.895,0
1492696064.784,62.988,11.230,34.668,70.312,43.457,0
1492696064.787,74.707,32.227,39.551,75.684,40.527,0
1492696064.791,42.969,13.672,28.320,41.016,37.598,0
1492696064.795,51.270,33.691,40.039,65.430,40.527,0
1492696064.799,62.500,42.480,42.480,62.500,45.410,0
1492696064.803,31.250,14.160,19.043,39.062,24.414,0
1492696064.807,9.277,-8.301,35.156,18.555,16.602,0
1492696064.811,17.578,-19.043,43.945,7.812,66.895,0
1492696064.815,20.996,-5.371,30.273,31.738,67.383,0
1492696064.819,17.090,-22.461,23.926,36.133,38.086,0
1492696064.823,56.152,-9.766,38.086,45.898,36.621,0
1492696064.827,57.129,21.484,49.805,54.688,31.250,0
1492696064.830,47.852,38.574,52.734,82.031,27.344,0
1492696064.834,83.008,40.039,36.133,86.914,19.043,0
1492696064.838,60.059,24.414,21.973,45.898,16.602,0
1492696064.842,49.805,15.137,30.762,44.434,43.457,0
1492696064.846,32.227,-5.859,31.738,39.551,35.645,0
1492696064.850,26.855,0.488,47.363,34.668,11.230,0
1492696064.854,46.875,12.695,57.129,42.969,57.129,0
1492696064.858,26.367,11.719,48.340,32.715,81.543,0
1492696064.862,-3.906,4.883,26.855,21.484,54.688,0
1492696064.866,11.230,-0.977,15.625,5.371,36.621,0
1492696064.869,44.434,19.043,31.250,30.273,44.922,0
1492696064.873,58.594,35.645,-6.348,58.105,59.082,0
1492696064.877,74.219,40.527,1.953,83.984,17.578,0
1492696064.881,67.871,32.227,46.875,83.496,-9.766,0
1492696064.885,27.344,12.695,57.129,43.457,20.020,0
1492696064.889,0.977,9.766,46.875,27.344,28.809,0
1492696064.893,4.395,7.812,20.508,31.738,-0.977,0
1492696064.897,10.254,-15.625,25.391,29.785,-1.465,0
1492696064.901,25.391,-11.230,21.484,27.344,31.250,0
1492696064.905,46.387,17.578,45.410,56.152,36.133,0
1492696064.909,68.848,43.457,59.570,95.215,14.160,0
1492696064.912,78.613,52.246,23.926,92.285,34.668,0
1492696064.916,51.270,19.043,4.395,47.852,70.312,0
1492696064.920,40.527,6.348,42.969,50.293,40.039,0
1492696064.924,41.504,0.977,66.406,42.969,13.184,0
1492696064.928,22.461,-9.766,40.527,10.254,11.230,0
1492696064.932,23.926,0.977,43.457,3.418,24.414,0
1492696064.936,32.227,19.043,60.059,13.672,41.016,0
1492696064.940,50.781,38.086,54.199,62.012,-12.207,0
1492696064.944,74.219,42.969,9.277,78.613,-9.766,0
1492696064.948,67.871,28.320,-9.277,46.875,42.969,0
1492696064.952,42.969,18.066,-16.113,37.109,32.227,0
1492696064.955,51.758,22.461,5.371,29.785,10.742,0
1492696064.959,50.293,20.508,57.617,12.695,37.109,0
1492696064.963,25.391,-5.371,55.176,2.441,40.039,0
1492696064.967,53.223,-1.953,45.898,22.461,33.691,0
1492696064.971,63.965,20.508,55.176,31.738,25.879,0
1492696064.975,47.852,16.602,57.129,22.461,-11.719,0
1492696064.979,48.828,20.020,54.199,28.809,-3.906,0
1492696064.983,35.645,18.066,33.203,37.109,5.859,0
1492696064.987,20.020,11.719,7.812,28.809,-9.277,0
1492696064.991,37.598,18.066,13.672,33.203,24.902,0
1492696064.994,46.875,12.207,46.387,68.359,24.902,0
1492696064.998,33.203,6.836,57.129,67.871,10.254,0
1492696065.002,37.598,14.160,45.410,51.270,34.180,0
1492696065.006,33.203,15.137,20.996,36.621,56.152,0
1492696065.010,12.695,1.953,13.184,11.719,36.133,0
1492696065.014,15.625,-4.883,28.320,15.137,26.367,0
1492696065.018,40.527,11.719,44.922,49.805,5.371,0
1492696065.022,64.453,27.832,51.270,61.523,4.883,0
1492696065.026,41.992,20.020,14.160,52.734,11.230,0
1492696065.030,10.742,10.742,-21.973,26.367,-28.320,0
1492696065.034,14.648,14.648,17.578,26.367,-1.465,0
1492696065.037,42.480,28.320,73.730,49.316,27.344,0
1492696065.041,50.781,24.902,75.684,39.062,9.277,0
1492696065.045,63.477,44.922,54.199,68.848,15.625,0
1492696065.049,71.777,53.711,37.598,69.824,40.527,0
1492696065.053,31.738,11.719,38.086,36.133,62.988,0
1492696065.057,4.883,-9.766,6.836,19.531,22.461,0
1492696065.061,31.250,18.555,1.465,20.508,17.578,0
1492696065.065,74.219,53.711,64.941,66.895,46.387,0
1492696065.069,78.125,36.133,74.219,72.754,53.711,0
1492696065.073,28.809,7.324,14.160,31.250,39.551,0
1492696065.077,14.160,7.812,16.113,21.973,8.301,0
1492696065.080,64.941,34.180,48.340,35.156,26.855,0
1492696065.084,85.449,58.105,70.312,91.309,46.387,0
1492696065.088,36.133,37.598,45.898,62.500,51.270,0
1492696065.092,8.789,23.926,10.742,19.043,45.410,0
1492696065.096,7.324,14.160,25.391,32.715,53.223,0
1492696065.100,21.484,6.836,56.152,24.902,45.410,0
1492696065.104,55.664,31.738,77.148,55.176,16.113,0
1492696065.108,76.660,47.363,75.684,96.191,27.344,0
1492696065.112,50.293,21.484,34.180,50.293,16.602,0
1492696065.116,26.855,2.441,8.789,5.371,-3.418,0
1492696065.119,26.367,0.000,21.484,9.277,-3.906,0
1492696065.123,39.551,14.648,23.926,45.410,11.230,0
1492696065.127,48.340,9.277,1.953,69.824,54.199,0
1492696065.131,62.500,26.367,21.973,86.426,53.711,0
1492696065.135,40.039,41.992,62.500,75.684,15.625,0
1492696065.139,1.953,15.137,74.219,13.672,44.434,0
1492696065.143,32.715,28.320,79.102,13.672,63.477,0
1492696065.147,49.316,36.621,50.293,47.852,44.922,0
1492696065.151,33.203,23.926,16.602,57.129,32.227,0
1492696065.155,30.762,7.324,12.695,42.480,34.180,0
1492696065.159,24.902,-10.742,18.066,11.719,59.082,0
1492696065.162,42.480,13.184,53.223,30.762,31.250,0
1492696065.166,47.363,31.250,42.480,67.383,0.000,0
1492696065.170,35.645,30.273,-7.324,56.152,26.855,0
1492696065.174,30.273,27.344,-5.859,32.715,38.574,0
1492696065.178,25.879,23.438,36.621,31.250,46.387,0
1492696065.182,42.480,30.762,55.176,50.293,48.340,0
1492696065.186,59.082,31.250,43.945,56.152,65.918,0
1492696065.190,61.523,31.250,59.570,52.734,60.547,0
1492696065.194,74.707,57.129,73.730,83.984,28.809,0
1492696065.198,49.805,30.273,38.086,62.012,26.855,0
1492696065.202,17.090,-19.043,-3.906,-16.602,44.434,0
1492696065.205,33.691,10.254,-0.977,7.324,28.320,0
1492696065.209,51.758,41.016,23.438,54.688,-7.812,0
1492696065.213,48.340,29.785,23.438,29.785,-10.742,0
1492696065.217,49.316,23.438,19.043,24.902,44.922,0
1492696065.221,60.547,18.555,37.598,36.621,51.270,0
1492696065.225,59.570,18.066,22.949,28.320,40.527,0
1492696065.229,64.941,28.320,19.043,48.828,41.016,0
1492696065.233,54.199,36.133,53.223,63.965,22.949,0
1492696065.237,47.852,33.691,80.566,47.852,6.836,0
1492696065.241,57.129,29.785,62.012,35.645,-8.789,0
1492696065.244,46.875,38.086,24.414,56.152,15.625,0
1492696065.248,22.461,17.578,50.781,58.594,28.320,0
1492696065.252,40.527,8.301,41.504,50.293,19.531,0
1492696065.256,29.785,-0.488,-35.156,16.602,16.602,0
1492696065.260,5.371,-14.160,-46.387,-10.254,34.668,0
1492696065.264,16.602,-11.719,8.789,15.625,37.109,0
1492696065.268,48.828,21.484,77.148,53.711,-4.883,0
1492696065.272,62.500,45.898,84.473,60.547,-14.648,0
1492696065.276,28.320,21.484,24.902,43.945,-3.418,0
1492696065.280,22.949,15.137,21.484,48.340,18.066,0
1492696065.284,40.039,28.320,62.012,50.293,39.551,0
1492696065.287,40.527,23.438,41.992,40.527,18.555,0
1492696065.291,20.996,-8.789,0.977,31.738,-13.672,0
1492696065.295,10.742,-13.184,-1.953,27.832,-2.930,0
1492696065.299,34.668,6.348,25.391,34.180,-20.508,0
1492696065.303,45.898,20.996,38.574,34.668,-22.461,0
1492696065.307,66.406,41.992,21.973,56.152,25.391,0
1492696065.311,56.641,41.016,4.395,62.500,29.785,0
1492696065.315,48.828,32.227,21.484,44.922,15.137,0
1492696065.319,62.500,19.531,19.043,38.086,47.852,0
1492696065.323,47.852,-4.883,6.836,35.645,86.914,0
1492696065.327,34.180,-15.137,32.715,38.574,56.641,0
1492696065.330,39.551,2.441,65.430,46.387,15.625,0
1492696065.334,45.898,17.090,55.664,43.945,3.906,0
1492696065.338,52.734,22.461,21.484,38.574,9.277,0
1492696065.342,38.574,19.043,3.418,15.137,-2.441,0
1492696065.346,39.062,25.391,11.230,17.578,-15.137,0
1492696065.350,65.918,55.176,44.922,49.316,9.277,0
1492696065.354,56.641,51.758,40.527,34.668,32.715,0
1492696065.358,48.340,38.574,5.371,33.691,2.441,0
1492696065.362,42.480,25.879,8.301,30.273,2.441,0
1492696065.366,56.641,32.227,24.414,29.785,52.734,0
1492696065.369,43.457,24.902,12.207,35.645,35.156,0
1492696065.373,28.809,2.441,19.531,24.414,12.695,0
1492696065.377,57.129,14.160,47.363,25.879,23.926,0
1492696065.381,65.918,32.715,62.500,41.016,34.180,0
1492696065.385,66.406,40.527,41.504,62.988,29.785,0
1492696065.389,43.945,13.672,14.648,43.457,6.836,0
1492696065.393,22.461,5.859,32.227,19.531,11.719,0
1492696065.397,7.812,14.648,59.570,20.020,29.297,0
1492696065.401,23.438,27.344,52.246,26.855,41.504,0
1492696065.405,45.410,33.691,19.531,19.043,32.715,0
1492696065.409,33.203,32.227,17.578,29.297,33.691,0
1492696065.412,31.738,27.344,24.902,38.086,70.801,0
1492696065.416,69.824,29.785,11.230,55.176,71.289,0
1492696065.420,87.891,46.875,30.762,83.008,25.879,0
1492696065.424,52.734,38.574,60.547,73.242,39.551,0
1492696065.428,23.926,21.484,41.992,54.199,75.195,0
1492696065.432,19.531,10.254,2.930,14.160,48.828,0
1492696065.436,20.020,1.465,14.160,-2.930,24.902,0
1492696065.440,21.973,9.766,45.898,9.277,29.297,0
1492696065.444,41.504,27.832,36.621,34.180,36.621,0
1492696065.448,68.848,24.902,29.297,46.875,39.551,0
1492696065.452,70.801,26.855,35.645,41.016,11.719,0
1492696065.455,55.176,40.527,29.785,47.852,22.461,0
1492696065.459,51.270,44.922,30.273,36.621,35.645,0
1492696065.463,89.844,73.242,44.922,73.242,27.832,0
1492696065.467,87.402,62.500,16.113,67.871,38.086,0
1492696065.471,47.363,43.457,-11.719,17.090,46.387,0
1492696065.475,25.879,16.113,-0.977,13.184,35.645,0
1492696065.479,9.766,-18.555,16.113,-6.836,-8.301,0
1492696065.483,49.316,13.184,10.742,-4.883,-9.277,0
1492696065.487,64.453,44.922,31.738,16.602,29.785,0
1492696065.491,22.461,33.691,52.246,10.742,38.574,0
1492696065.494,51.758,24.902,33.203,18.066,-1.465,0
1492696065.498,80.078,50.293,28.809,53.223,6.836,0
1492696065.502,44.922,41.016,29.297,53.711,55.176,0
1492696065.506,33.691,18.066,7.324,19.043,34.668,0
1492696065.510,61.523,38.086,-16.602,23.926,16.113,0
1492696065.514,71.777,37.598,12.207,51.758,27.344,0
1492696065.518,36.133,11.719,41.504,24.414,55.176,0
1492696065.522,31.738,18.066,18.066,3.418,50.293,0
1492696065.526,41.992,27.832,25.879,34.668,32.715,0
1492696065.530,43.457,13.184,62.012,44.922,19.043,0
1492696065.534,44.434,11.719,62.500,41.016,5.371,0
1492696065.537,46.387,22.949,30.762,49.316,11.230,0
1492696065.541,44.922,7.324,-3.418,42.480,15.625,0
1492696065.545,48.340,5.859,-7.324,38.086,33.203,0
1492696065.549,54.199,29.297,12.207,54.688,41.504,0
1492696065.553,37.109,29.785,43.945,62.012,13.184,0
1492696065.557,44.434,25.879,73.730,48.828,18.555,0
1492696065.561,62.012,36.621,76.172,63.965,45.410,0
1492696065.565,79.102,38.574,21.484,85.938,36.133,0
1492696065.569,70.312,30.273,12.695,77.148,16.602,0
1492696065.573,64.453,31.250,48.340,82.031,23.926,0
1492696065.577,33.203,-9.766,-4.883,46.387,44.434,0
1492696065.580,-9.766,-37.598,-29.785,12.695,34.180,0
1492696065.584,23.438,-7.324,-8.789,32.715,37.109,0
1492696065.588,52.734,5.859,5.859,47.852,34.180,0
1492696065.592,42.969,17.090,27.832,52.734,45.898,0
1492696065.596,57.617,25.879,58.105,45.410,49.805,0
1492696065.600,60.059,28.809,67.871,41.504,13.184,0
1492696065.604,39.062,27.344,52.246,35.645,32.715,0
1492696065.608,23.926,14.160,46.875,33.691,63.965,0
1492696065.612,47.852,25.391,26.367,46.387,25.391,0
1492696065.616,53.711,30.762,-10.742,31.250,12.695,0
1492696065.619,40.527,13.672,-33.203,17.090,46.387,0
1492696065.623,46.875,16.113,-15.137,18.555,45.898,0
1492696065.627,49.316,36.621,38.574,34.180,5.371,0
1492696065.631,45.898,28.809,40.527,33.203,16.113,0
1492696065.635,24.414,7.324,10.742,-5.371,40.527,0
1492696065.639,-7.324,-2.930,15.625,-24.902,50.781,0
1492696065.643,27.832,17.578,16.113,10.254,1.465,0
1492696065.647,73.242,41.504,34.668,34.180,-26.855,0
1492696065.651,53.711,39.062,75.195,26.855,17.578,0
1492696065.655,65.918,34.668,48.828,29.785,30.273,0
1492696065.659,66.406,25.879,-10.742,8.301,29.785,0
1492696065.662,46.387,3.906,-3.906,-24.414,19.531,0
1492696065.666,46.387,-5.859,-12.207,-22.461,31.738,0
1492696065.670,55.664,15.625,-17.090,3.906,28.320,0
1492696065.674,57.617,39.551,20.996,30.273,-5.859,0
1492696065.678,62.500,51.758,51.758,41.992,-27.344,0
1492696065.682,64.453,34.668,48.828,36.133,-4.395,0
1492696065.686,51.270,20.020,42.969,35.645,17.090,0
1492696065.690,34.180,18.066,47.852,24.414,-19.043,0
1492696065.694,42.969,34.180,20.996,42.480,-0.488,0
1492696065.698,41.016,40.039,-15.625,62.988,23.926,0
1492696065.702,43.945,17.090,-20.508,38.574,18.555,0
1492696065.705,48.340,3.906,12.207,16.113,19.531,0
1492696065.709,42.480,11.230,19.531,28.320,29.297,0
1492696065.713,38.574,6.348,5.859,15.137,49.805,0
1492696065.717,27.832,2.441,24.414,14.648,24.414,0
1492696065.721,33.203,33.203,36.621,60.547,-19.531,0
1492696065.725,29.785,38.574,55.664,41.992,-4.395,0
1492696065.729,27.832,17.090,40.527,3.906,37.598,0
1492696065.733,26.367,6.348,22.461,12.695,12.207,0
1492696065.737,22.949,10.254,21.973,23.926,-36.621,0
1492696065.741,38.574,26.367,30.273,41.992,10.742,0
1492696065.744,62.500,31.738,31.738,42.969,22.949,0
1492696065.748,61.035,20.996,14.648,39.551,20.508,0
1492696065.752,38.086,7.324,5.371,36.133,55.176,0
1492696065.756,24.414,-3.906,61.035,28.809,50.781,0
1492696065.760,30.762,3.418,57.617,31.250,21.973,0
1492696065.764,46.387,18.555,17.090,39.062,31.738,0
1492696065.768,30.762,0.000,18.555,24.414,48.828,0
1492696065.772,20.020,20.508,10.742,14.160,39.551,0
1492696065.776,31.250,27.344,12.207,20.020,58.105,0
1492696065.780,26.855,4.395,18.555,14.160,15.625,0
1492696065.784,40.039,10.254,32.227,28.320,-9.277,0
1492696065.787,56.641,31.250,39.062,47.363,16.113,0
1492696065.791,90.332,68.848,51.270,79.102,4.883,0
1492696065.795,74.707,45.410,57.129,60.059,2.930,0
1492696065.799,45.898,10.742,41.504,43.457,47.852,0
1492696065.803,41.504,0.488,19.043,36.621,39.551,0
1492696065.807,-1.465,-20.020,28.809,-3.906,6.348,0
1492696065.811,-18.555,-21.484,-5.859,-15.625,6.348,0
1492696065.815,4.395,-1.465,-28.809,3.418,28.320,0
1492696065.819,12.207,18.555,26.855,31.250,57.129,0
1492696065.823,21.484,30.273,70.312,42.480,31.250,0
1492696065.827,45.898,33.691,61.035,39.551,-7.324,0
1492696065.830,50.781,26.367,39.062,38.574,10.742,0
1492696065.834,64.453,44.434,41.992,44.922,37.598,0
1492696065.838,80.078,52.246,41.504,48.340,20.996,0
1492696065.842,71.289,29.785,21.973,48.828,28.809,0
1492696065.846,34.668,5.859,-4.883,40.527,41.016,0
1492696065.850,20.020,14.648,-12.207,23.438,29.785,0
1492696065.854,27.832,23.926,-1.953,23.926,39.551,0
1492696065.858,32.227,2.441,27.344,26.855,38.086,0
1492696065.862,29.785,-16.113,45.898,11.230,55.176,0
1492696065.866,35.156,3.418,44.434,27.832,40.527,0
1492696065.869,61.035,34.180,56.641,57.129,-0.977,0
1492696065.873,54.199,16.113,41.016,45.898,-8.301,0
1492696065.877,55.176,36.133,38.086,55.664,9.766,0
1492696065.881,50.293,43.457,38.086,59.082,9.766,0
1492696065.885,40.527,15.137,27.344,43.457,-18.555,0
1492696065.889,61.035,26.855,16.602,30.762,5.371,0
1492696065.893,49.316,35.156,-9.277,5.371,46.875,0
1492696065.897,33.691,22.949,12.695,18.555,19.043,0
1492696065.901,20.020,14.160,51.270,34.180,25.391,0
1492696065.905,19.043,6.836,24.414,14.648,44.922,0
1492696065.909,48.340,-2.441,36.133,22.949,10.742,0
1492696065.912,42.969,-4.883,49.316,38.086,-20.020,0
1492696065.916,47.363,19.531,50.293,36.621,-2.930,0
1492696065.920,54.199,24.902,58.594,30.273,48.340,0
1492696065.924,49.805,17.578,41.504,25.391,64.453,0
1492696065.928,66.406,38.574,40.527,51.270,53.223,0
1492696065.932,78.125,43.945,27.832,67.871,61.523,0
1492696065.936,68.848,36.621,28.320,59.570,73.730,0
1492696065.940,59.570,39.551,61.523,43.457,34.180,0
1492696065.944,62.988,34.180,78.613,47.852,10.742,0
1492696065.948,43.457,4.883,31.738,35.645,32.227,0
1492696065.952,27.344,-13.184,-38.574,0.977,53.711,0
1492696065.955,19.043,0.977,-28.809,-0.977,30.762,0
1492696065.959,33.691,18.066,11.719,24.902,-12.207,0
1492696065.963,51.758,25.879,21.484,56.641,18.066,0
1492696065.967,66.406,35.645,29.297,66.895,42.480,0
1492696065.971,47.363,16.113,14.160,49.316,9.766,0
1492696065.975,21.973,13.672,18.555,41.992,-3.906,0
1492696065.979,33.203,31.250,51.270,41.016,33.691,0
1492696065.983,41.016,27.344,70.801,49.316,46.875,0
1492696065.987,42.969,11.719,76.172,44.434,2.930,0
1492696065.991,40.527,5.859,54.688,40.527,-15.625,0
1492696065.994,28.809,24.902,18.066,50.293,4.883,0
1492696065.998,21.973,30.762,28.320,53.223,35.645,0
1492696066.002,30.273,10.742,41.016,44.434,1.465,0
1492696066.006,36.621,14.160,11.230,41.504,-18.066,0
1492696066.010,33.691,15.137,-28.809,34.668,54.688,0
1492696066.014,40.527,12.207,-23.438,28.320,73.730,0
1492696066.018,45.898,22.461,12.207,23.438,16.602,0
1492696066.022,42.969,26.855,46.387,32.227,37.109,0
1492696066.026,63.965,39.551,73.730,75.684,54.688,0
1492696066.030,51.758,23.926,50.781,59.082,24.414,0
1492696066.034,46.875,22.949,61.523,44.922,33.203,0
1492696066.037,59.570,34.180,58.105,78.125,38.574,0
1492696066.041,44.434,20.996,-7.812,47.852,32.227,0
1492696066.045,36.621,16.113,-3.906,14.160,30.273,0
1492696066.049,31.738,5.859,26.855,25.391,3.906,0
1492696066.053,50.293,18.555,2.930,46.387,11.230,0
1492696066.057,71.289,35.645,4.395,58.594,42.480,0
1492696066.061,53.223,30.762,32.715,42.969,26.367,0
1492696066.065,35.645,31.250,69.824,27.344,16.113,0
1492696066.069,40.527,19.531,51.758,28.320,43.457,0
1492696066.073,40.039,19.043,8.301,43.945,50.781,0
1492696066.077,42.480,25.879,26.855,37.598,22.461,0
1492696066.080,61.523,36.621,38.086,48.340,-2.930,0
1492696066.084,51.758,34.180,18.066,68.359,20.996,0
1492696066.088,30.762,21.484,19.531,59.570,43.945,0
1492696066.092,37.598,20.508,46.875,49.805,38.086,0
1492696066.096,43.945,7.812,38.086,43.457,28.809,0
1492696066.100,37.109,13.184,22.949,48.340,12.207,0
1492696066.104,52.734,27.832,30.762,58.105,27.344,0
1492696066.108,57.129,10.254,36.621,35.645,21.973,0
1492696066.112,27.344,-13.672,30.762,36.133,-4.883,0
1492696066.116,8.789,-9.277,20.020,44.922,49.316,0
1492696066.119,23.926,19.043,35.156,35.156,54.688,0
1492696066.123,45.410,39.551,50.293,43.457,26.855,0
1492696066.127,69.824,51.270,43.457,91.309,17.578,0
1492696066.131,84.961,45.410,17.090,98.145,23.438,0
1492696066.135,61.035,18.555,-13.672,53.711,48.828,0
1492696066.139,44.434,5.859,13.672,44.434,19.531,0
1492696066.143,48.828,11.230,32.715,46.875,0.000,0
1492696066.147,41.504,-14.648,22.949,13.184,27.832,0
1492696066.151,47.852,-6.836,42.969,30.273,35.645,0
1492696066.155,34.668,32.715,47.363,49.805,4.883,0
1492696066.159,31.738,50.293,38.574,39.062,13.672,0
1492696066.162,51.270,38.086,55.176,47.363,52.246,0
1492696066.166,61.523,19.531,34.180,38.574,56.641,0
1492696066.170,33.203,2.930,-14.648,6.836,33.691,0
1492696066.174,10.254,-7.812,-15.137,-0.977,45.410,0
1492696066.178,20.020,1.953,6.836,-2.441,39.551,0
1492696066.182,36.621,14.648,17.578,12.695,0.977,0
1492696066.186,25.391,16.113,10.254,25.391,16.113,0
1492696066.190,17.578,6.836,48.340,27.344,30.762,0
1492696066.194,18.066,-0.977,71.289,17.090,26.367,0
1492696066.198,7.812,3.906,44.922,-7.812,19.531,0
1492696066.202,33.691,23.926,50.781,34.668,9.766,0
1492696066.205,57.129,38.574,56.641,72.754,33.203,0
1492696066.209,52.734,23.438,15.625,59.082,56.152,0
1492696066.213,44.922,12.207,8.789,36.621,30.273,0
1492696066.217,33.691,6.836,0.000,21.973,26.367,0
1492696066.221,26.367,-2.441,-27.832,21.484,30.762,0
1492696066.225,17.578,-10.742,-10.742,9.277,21.973,0
1492696066.229,34.668,-2.930,29.785,16.602,42.480,0
1492696066.233,23.926,-5.371,18.066,31.250,61.523,0
1492696066.237,41.016,6.348,23.926,49.316,50.293,0
1492696066.241,77.637,31.738,67.871,65.430,29.297,0
1492696066.244,60.547,27.344,71.289,44.922,9.277,0
1492696066.248,70.801,47.363,69.824,60.059,-5.371,0
1492696066.252,78.125,40.527,43.945,58.594,38.086,0
1492696066.256,55.176,12.695,32.715,18.555,49.316,0
1492696066.260,51.758,0.488,34.180,21.973,14.160,0
1492696066.264,32.715,-3.418,-7.812,24.902,40.039,0
1492696066.268,25.391,7.812,-37.598,15.137,63.965,0
1492696066.272,47.852,22.949,-17.090,19.043,60.059,0
1492696066.276,71.289,30.273,31.738,30.273,67.383,0
1492696066.280,53.711,15.137,58.594,18.555,64.453,0
1492696066.284,27.832,4.395,50.781,0.000,50.781,0
1492696066.287,46.387,25.879,20.508,24.902,20.508,0
1492696066.291,62.988,44.922,5.859,23.438,24.414,0
1492696066.295,53.711,41.992,-0.488,17.578,36.133,0
1492696066.299,27.344,11.719,-13.184,-0.488,30.273,0
1492696066.303,19.043,10.254,7.324,-11.719,-7.324,0
1492696066.307,37.598,19.531,45.898,8.301,-16.602,0
1492696066.311,23.438,0.977,31.250,-17.090,36.133,0
1492696066.315,26.367,4.395,28.809,-15.625,48.340,0
1492696066.319,52.246,14.648,54.688,20.020,27.832,0
1492696066.323,57.129,20.020,40.527,33.203,12.695,0
1492696066.327,49.316,27.832,41.016,29.785,40.039,0
1492696066.330,22.949,24.414,41.992,24.902,26.855,0
1492696066.334,30.762,23.926,15.625,34.180,-22.949,0
1492696066.338,49.316,23.926,8.789,40.527,-6.348,0
1492696066.342,38.086,31.250,12.695,36.133,25.879,0
1492696066.346,34.180,9.277,9.277,24.414,20.996,0
1492696066.350,38.574,-10.742,36.621,16.113,3.906,0
1492696066.354,36.621,7.324,56.152,30.762,19.043,0
1492696066.358,29.297,13.672,21.973,41.992,41.016,0
1492696066.362,49.805,17.090,9.766,40.039,25.879,0
1492696066.366,71.777,39.062,18.555,57.617,32.227,0
1492696066.369,48.340,33.691,51.758,62.500,48.340,0
1492696066.373,31.250,15.137,28.809,38.574,39.062,0
1492696066.377,50.781,8.789,-8.301,34.668,20.996,0
1492696066.381,82.031,24.414,46.387,42.480,21.973,0
1492696066.385,97.168,48.340,57.129,47.363,41.016,0
1492696066.389,87.402,47.852,11.230,48.340,31.738,0
1492696066.393,75.684,41.992,12.695,38.086,-2.441,0
1492696066.397,65.918,19.531,22.949,34.180,15.625,0
1492696066.401,62.012,22.949,50.781,43.457,54.688,0
1492696066.405,48.828,34.180,43.945,40.039,35.645,0
1492696066.409,41.504,17.578,1.465,-0.977,21.484,0
1492696066.412,23.438,0.488,-9.766,-38.574,30.273,0
1492696066.416,31.250,5.371,13.672,-2.930,22.461,0
1492696066.420,71.777,31.250,51.758,64.453,32.715,0
1492696066.424,52.246,27.344,42.969,61.523,-0.977,0
1492696066.428,30.762,29.297,10.742,29.297,-7.324,0
1492696066.432,59.570,31.250,1.953,24.902,42.969,0
1492696066.436,53.223,12.207,-2.930,12.695,29.297,0
1492696066.440,37.109,16.602,16.602,14.160,16.602,0
1492696066.444,62.500,41.992,55.664,27.344,50.293,0
1492696066.448,63.965,48.340,47.363,31.738,60.547,0
1492696066.452,61.035,43.457,26.855,25.879,55.176,0
1492696066.455,36.133,14.648,8.301,17.578,33.691,0
1492696066.459,15.137,-4.395,-3.418,31.250,31.250,0
1492696066.463,35.156,12.207,20.020,49.316,58.105,0
1492696066.467,37.598,-7.324,27.344,49.316,31.738,0
1492696066.471,34.180,-9.277,20.508,36.133,19.043,0
1492696066.475,41.992,18.066,28.809,48.340,12.695,0
1492696066.479,35.156,1.953,5.371,55.664,24.902,0
1492696066.483,25.391,0.000,1.465,45.410,17.578,0
1492696066.487,70.312,42.969,40.527,71.289,-15.137,0
1492696066.491,106.934,67.383,75.195,98.633,22.949,0
1492696066.494,82.031,48.340,49.316,88.867,45.410,0
1492696066.498,36.621,13.184,5.859,41.992,12.207,0
1492696066.502,22.949,-7.812,6.836,6.836,7.324,0
1492696066.506,39.062,-6.836,18.066,40.039,46.387,0
1492696066.510,35.156,-3.906,22.461,39.062,50.293,0
1492696066.514,44.434,0.000,26.855,33.203,46.875,0
1492696066.518,57.129,-4.883,4.883,61.035,41.016,0
1492696066.522,49.316,5.859,5.371,53.223,11.230,0
1492696066.526,73.242,48.340,46.875,66.406,29.785,0
1492696066.530,110.352,78.613,86.426,97.656,21.484,0
1492696066.534,75.684,42.480,28.320,76.172,11.719,0
1492696066.537,22.461,-2.441,-22.949,34.180,33.203,0
1492696066.541,9.277,-14.648,0.000,0.000,13.184,0
1492696066.545,28.809,1.465,21.484,3.418,-4.395,0
1492696066.549,60.547,18.555,35.645,29.297,19.531,0
1492696066.553,58.105,5.859,0.977,21.484,51.270,0
1492696066.557,51.270,9.277,-4.395,12.695,34.668,0
1492696066.561,56.152,35.645,22.949,40.039,18.066,0
1492696066.565,91.797,45.410,59.082,78.125,49.316,0
1492696066.569,96.191,25.391,47.363,56.641,54.199,0
1492696066.573,66.406,26.855,27.832,25.391,3.906,0
1492696066.577,61.523,42.480,32.715,26.855,4.395,0
1492696066.580,61.523,38.574,9.277,11.719,45.898,0
1492696066.584,53.711,14.648,-11.230,-7.324,43.457,0
1492696066.588,74.219,32.715,7.324,40.039,44.434,0
1492696066.592,93.750,55.664,32.715,64.941,32.227,0
1492696066.596,89.355,36.133,37.598,39.551,14.648,0
1492696066.600,74.219,11.230,10.742,32.715,35.645,0
1492696066.604,62.988,14.160,-19.531,38.574,44.434,0
1492696066.608,79.102,39.551,-17.090,50.293,29.785,0
1492696066.612,70.312,22.461,-18.066,20.020,27.344,0
1492696066.616,60.547,15.137,20.020,5.371,41.504,0
1492696066.619,79.102,21.973,66.406,18.066,10.742,0
1492696066.623,69.824,10.254,50.293,8.789,9.766,0
1492696066.627,76.660,19.531,27.344,30.762,37.109,0
1492696066.631,87.891,20.996,6.348,40.527,30.273,0
1492696066.635,85.938,20.508,7.812,22.461,11.719,0
1492696066.639,119.629,29.785,57.617,31.250,20.508,0
1492696066.643,125.488,26.367,68.359,47.852,32.715,0
1492696066.647,99.121,17.578,23.926,39.062,23.438,0
1492696066.651,93.262,20.508,6.348,34.180,19.531,0
1492696066.655,96.191,11.719,-0.488,39.062,17.578,0
1492696066.659,79.590,8.301,-32.715,26.855,8.301,0
1492696066.662,71.777,9.277,-18.555,18.066,8.789,0
1492696066.666,90.332,6.348,48.828,33.203,41.992,0
1492696066.670,69.336,10.254,57.617,25.879,54.688,0
1492696066.674,63.965,11.230,18.555,25.391,32.715,0
1492696066.678,79.590,4.395,24.902,34.668,2.930,0
1492696066.682,74.219,8.789,36.133,42.969,-33.203,0
1492696066.686,83.984,21.484,43.945,61.523,-0.977,0
1492696066.690,87.891,20.508,61.035,60.059,30.273,0
1492696066.694,75.684,23.438,50.781,59.570,13.672,0
1492696066.698,92.773,34.180,55.176,55.664,40.039,0
1492696066.702,115.723,39.062,27.832,57.129,62.500,0
1492696066.705,117.676,38.574,-4.395,85.938,31.250,0
1492696066.709,71.777,6.836,0.977,71.289,-13.672,0
1492696066.713,46.875,-8.789,26.855,47.363,-6.836,0
1492696066.717,78.613,15.137,55.664,48.340,31.738,0
1492696066.721,80.566,22.949,57.617,41.992,48.828,0
1492696066.725,70.312,15.625,53.711,48.340,27.344,0
1492696066.729,50.293,1.465,27.344,37.109,31.250,0
1492696066.733,49.316,7.324,12.695,23.438,24.902,0
1492696066.737,56.641,23.926,16.113,19.043,7.324,0
1492696066.741,77.637,40.039,37.109,58.105,26.855,0
1492696066.744,103.516,69.824,35.156,83.984,56.641,0
1492696066.748,84.961,51.758,15.625,71.777,55.664,0
1492696066.752,67.871,8.301,-1.465,58.594,23.926,0
1492696066.756,64.453,0.000,-4.883,41.992,20.020,0
1492696066.760,60.547,-12.207,10.742,21.973,26.855,0
1492696066.764,64.941,-8.789,35.645,14.160,19.531,0
1492696066.768,62.988,20.996,56.152,35.156,15.137,0
1492696066.772,63.477,37.109,57.129,62.988,14.648,0
1492696066.776,64.941,29.785,40.039,54.688,30.762,0
1492696066.780,68.359,31.738,30.273,61.035,53.223,0
1492696066.784,52.734,28.809,34.668,57.129,38.574,0
1492696066.787,35.156,28.320,27.344,54.199,36.133,0
1492696066.791,42.480,23.926,27.344,57.617,56.641,0
1492696066.795,43.945,14.160,38.086,30.273,39.062,0
1492696066.799,41.504,2.441,22.949,27.832,23.438,0
1492696066.803,57.617,7.324,27.832,54.688,15.137,0
1492696066.807,62.500,15.137,27.344,53.711,12.695,0
1492696066.811,44.434,18.555,32.227,32.227,49.805,0
1492696066.815,40.039,26.367,45.410,29.297,39.551,0
1492696066.819,59.082,22.461,19.531,43.945,23.926,0
1492696066.823,76.172,29.785,3.418,66.406,53.223,0
1492696066.827,77.637,45.898,20.020,83.496,28.320,0
1492696066.830,59.570,39.062,19.043,84.961,-4.883,0
1492696066.834,55.664,38.086,35.645,71.289,49.316,0
1492696066.838,67.871,52.734,81.055,72.754,58.594,0
1492696066.842,60.059,28.320,64.941,69.824,15.625,0
1492696066.846,56.152,12.207,34.180,60.059,19.531,0
1492696066.850,42.969,4.395,20.020,49.805,35.156,0
1492696066.854,8.301,-11.230,12.695,18.066,38.086,0
1492696066.858,7.324,-7.324,39.062,10.254,12.207,0
1492696066.862,41.504,0.977,39.062,37.598,-13.672,0
1492696066.866,65.918,20.020,25.391,60.547,29.785,0
1492696066.869,87.891,58.105,32.715,94.727,38.086,0
1492696066.873,74.707,51.270,5.859,101.074,10.254,0
1492696066.877,55.664,26.367,-4.395,82.520,-1.953,0
1492696066.881,60.547,33.203,6.836,80.566,36.621,0
1492696066.885,49.316,25.879,33.691,53.711,41.504,0
1492696066.889,34.180,0.977,72.754,26.367,-1.953,0
1492696066.893,26.367,-16.602,49.805,13.184,16.113,0
1492696066.897,28.809,5.371,28.320,16.602,25.391,0
1492696066.901,48.828,30.273,38.574,45.898,29.297,0
1492696066.905,63.477,28.809,37.109,43.945,20.508,0
1492696066.909,56.641,15.137,46.387,11.719,9.277,0
1492696066.912,64.453,23.438,31.738,39.551,53.223,0
1492696066.916,78.125,29.785,-12.695,69.824,59.082,0
1492696066.920,87.891,30.762,-4.883,67.383,24.414,0
1492696066.924,76.172,41.016,43.945,66.895,42.480,0
1492696066.928,52.246,20.996,53.223,36.133,39.551,0
1492696066.932,61.035,22.949,79.102,39.062,39.551,0
1492696066.936,65.918,29.785,70.801,58.594,36.133,0
1492696066.940,50.293,14.160,-12.695,34.668,20.020,0
1492696066.944,44.922,13.184,-39.551,9.277,23.926,0
1492696066.948,41.992,27.832,-10.742,12.207,3.906,0
1492696066.952,69.824,45.410,39.062,57.617,7.812,0
1492696066.955,93.750,29.297,50.293,73.242,51.270,0
1492696066.959,73.730,17.578,1.953,49.805,41.504,0
1492696066.963,68.359,26.855,-11.230,40.527,6.836,0
1492696066.967,65.918,30.273,55.176,34.180,34.668,0
1492696066.971,39.062,5.859,85.938,17.090,50.293,0
1492696066.975,32.715,-16.113,44.922,-8.789,22.461,0
1492696066.979,32.715,-8.789,12.695,6.836,31.738,0
1492696066.983,40.527,10.254,32.715,39.551,42.969,0
1492696066.987,64.453,28.320,42.969,47.852,17.578,0
1492696066.991,58.105,36.133,28.320,53.711,14.648,0
1492696066.994,64.941,31.250,41.992,62.500,9.277,0
1492696066.998,69.824,29.297,45.898,54.199,6.836,0
1492696067.002,37.109,10.742,30.273,33.203,42.969,0
1492696067.006,43.945,-17.578,12.695,25.879,53.223,0
1492696067.010,60.059,-9.277,13.184,35.156,41.504,0
1492696067.014,60.059,34.668,45.410,57.617,41.992,0
1492696067.018,54.688,15.625,22.461,34.180,47.852,0
1492696067.022,42.969,-9.766,-6.348,34.668,28.320,0
1492696067.026,42.480,3.906,14.160,56.152,26.367,0
1492696067.030,52.734,20.508,55.664,56.152,59.082,0
1492696067.034,56.152,48.828,71.777,68.848,39.062,0
1492696067.037,28.320,27.344,33.691,39.062,-17.090,0
1492696067.041,26.367,1.953,0.488,19.531,1.465,0
1492696067.045,45.410,3.906,32.715,17.578,47.852,0
1492696067.049,37.109,13.672,55.176,-1.465,35.156,0
1492696067.053,36.133,21.973,22.461,22.949,26.367,0
1492696067.057,73.730,31.250,35.645,49.316,29.297,0
1492696067.061,87.402,44.434,35.645,63.965,47.852,0
1492696067.065,39.551,30.273,18.066,48.340,46.875,0
1492696067.069,15.137,9.277,3.906,6.348,16.602,0
1492696067.073,41.992,26.855,14.160,13.184,14.648,0
1492696067.077,41.016,29.297,3.418,17.578,5.859,0
1492696067.080,51.758,29.785,13.672,24.902,17.578,0
1492696067.084,70.312,31.738,55.176,44.434,24.414,0
1492696067.088,43.945,14.160,39.062,20.996,21.973,0
1492696067.092,29.785,18.066,50.781,18.066,36.133,0
1492696067.096,70.312,39.551,73.730,53.223,27.832,0
1492696067.100,61.523,45.410,53.223,54.199,20.020,0
1492696067.104,24.414,5.859,37.109,20.996,40.527,0
1492696067.108,37.109,-4.883,28.809,16.602,47.852,0
1492696067.112,50.781,21.973,15.137,51.270,24.902,0
1492696067.116,59.082,30.762,22.461,50.781,34.180,0
1492696067.119,34.180,12.695,14.648,-9.277,30.762,0
1492696067.123,63.477,19.531,26.855,25.879,17.578,0
1492696067.127,80.566,28.809,39.062,75.195,22.949,0
1492696067.131,36.621,18.555,41.504,62.988,10.742,0
1492696067.135,38.574,33.691,54.199,77.148,9.277,0
1492696067.139,57.129,35.645,54.688,68.848,18.066,0
1492696067.143,50.293,15.137,48.828,55.176,5.371,0
1492696067.147,28.809,14.648,31.250,69.336,35.645,0
1492696067.151,42.480,26.855,50.781,68.848,53.223,0
1492696067.155,53.223,20.020,60.059,51.270,15.137,0
1492696067.159,43.945,10.254,22.949,51.758,35.156,0
1492696067.162,19.531,2.930,34.668,28.809,56.641,0
1492696067.166,23.438,5.371,39.062,34.180,25.391,0
1492696067.170,44.922,21.484,-8.789,62.988,16.113,0
1492696067.174,40.039,18.555,-18.555,54.199,10.254,0
1492696067.178,21.484,-5.371,-6.348,38.574,8.789,0
1492696067.182,17.578,0.488,41.016,21.484,37.598,0
1492696067.186,55.176,17.578,83.496,39.062,31.738,0
1492696067.190,76.660,27.344,55.176,71.289,-14.648,0
1492696067.194,66.406,34.180,31.250,57.129,-17.090,0
1492696067.198,44.434,20.020,14.160,24.902,31.250,0
1492696067.202,27.344,11.230,-21.973,29.297,33.203,0
1492696067.205,33.691,21.973,14.648,45.410,13.184,0
1492696067.209,37.598,14.648,73.242,20.996,29.297,0
1492696067.213,41.504,4.883,60.547,8.789,42.969,0
1492696067.217,66.895,29.785,35.645,22.949,22.949,0
1492696067.221,63.477,31.250,29.785,26.855,0.977,0
1492696067.225,38.086,-8.789,27.832,12.207,22.949,0
1492696067.229,51.758,20.508,64.941,41.016,45.898,0
1492696067.233,73.242,62.012,57.129,77.637,36.621,0
1492696067.237,84.473,41.992,-2.441,42.969,12.207,0
1492696067.241,57.617,20.508,-9.766,25.879,41.992,0
1492696067.244,50.293,31.738,14.160,30.273,53.711,0
1492696067.248,74.219,29.297,61.523,32.227,25.391,0
1492696067.252,42.969,9.766,72.754,39.062,-4.395,0
1492696067.256,33.691,18.555,63.965,39.062,17.578,0
1492696067.260,58.594,31.250,70.312,57.617,51.758,0
1492696067.264,52.246,41.504,57.129,60.059,50.781,0
1492696067.268,43.457,28.809,39.551,37.109,38.086,0
1492696067.272,40.527,9.766,41.504,39.062,41.016,0
1492696067.276,32.227,8.789,12.207,37.109,39.551,0
1492696067.280,49.316,8.301,15.137,36.133,10.742,0
1492696067.284,65.918,26.367,72.754,52.734,24.902,0
1492696067.287,48.828,31.250,95.703,45.898,39.551,0
1492696067.291,38.086,20.508,67.383,54.688,18.555,0
1492696067.295,53.711,30.762,44.434,77.148,36.621,0
1492696067.299,35.645,5.371,18.066,37.598,40.039,0
1492696067.303,20.020,-19.043,10.742,6.348,28.809,0
1492696067.307,50.293,21.973,27.832,41.992,24.902,0
1492696067.311,47.852,22.949,13.184,49.805,5.859,0
1492696067.315,33.203,-11.719,15.625,16.113,-1.465,0
1492696067.319,37.598,-0.977,13.672,27.832,13.184,0
1492696067.323,33.203,7.324,0.977,40.527,-3.418,0
1492696067.327,66.895,26.855,52.246,61.523,-2.441,0
1492696067.330,87.891,33.691,75.195,75.195,47.363,0
1492696067.334,69.824,22.949,70.801,60.547,46.875,0
1492696067.338,47.363,19.043,74.219,36.133,39.551,0
1492696067.342,46.387,0.488,57.617,34.668,28.320,0
1492696067.346,61.035,7.324,34.180,47.363,40.039,0
1492696067.350,28.809,-1.465,2.930,30.762,27.344,0
1492696067.354,13.184,-20.996,-13.672,23.438,11.719,0
1492696067.358,37.109,-25.879,-33.203,33.691,30.762,0
1492696067.362,40.527,-18.066,-10.254,30.762,25.391,0
1492696067.366,33.203,2.441,62.500,25.879,47.852,0
1492696067.369,56.641,29.785,103.027,43.457,56.641,0
1492696067.373,70.312,43.945,106.445,70.312,30.273,0
1492696067.377,49.316,16.602,66.406,57.617,33.691,0
1492696067.381,22.949,-19.043,31.738,7.324,35.156,0
1492696067.385,39.062,-18.066,27.832,8.301,20.020,0
1492696067.389,58.105,9.766,38.086,67.383,27.344,0
1492696067.393,39.551,14.160,45.410,43.945,47.852,0
1492696067.397,42.480,9.766,55.664,23.926,70.312,0
1492696067.401,39.062,18.066,64.941,80.566,70.801,0
1492696067.405,20.020,16.113,41.504,71.289,55.176,0
1492696067.409,69.824,46.387,62.988,76.660,71.777,0
1492696067.412,87.402,53.223,45.898,88.867,33.691,0
1492696067.416,36.133,5.859,-8.789,45.410,15.137,0
1492696067.420,18.555,-8.789,7.812,33.691,47.852,0
1492696067.424,20.996,3.906,32.227,41.504,38.086,0
1492696067.428,23.926,0.488,27.344,39.551,21.484,0
1492696067.432,31.738,-14.160,50.293,25.879,5.371,0
1492696067.436,51.758,2.930,94.238,40.039,43.945,0
1492696067.440,59.570,23.926,62.012,71.777,59.082,0
1492696067.444,59.570,31.250,44.434,89.355,55.176,0
1492696067.448,80.566,40.039,85.938,101.562,43.945,0
1492696067.452,83.496,51.270,80.566,85.449,28.809,0
1492696067.455,54.688,48.340,61.035,58.594,34.180,0
1492696067.459,36.133,16.602,35.645,54.688,23.926,0
1492696067.463,30.273,-14.648,-26.855,13.672,21.973,0
1492696067.467,21.973,-15.137,-39.062,-6.836,26.367,0
1492696067.471,20.996,-5.371,-5.371,22.461,0.000,0
1492696067.475,45.898,11.719,29.297,37.109,20.508,0
1492696067.479,84.961,30.273,57.617,52.246,42.480,0
1492696067.483,83.496,36.133,57.129,41.016,30.762,0
1492696067.487,30.762,18.066,30.273,20.508,46.387,0
1492696067.491,32.227,12.207,50.781,33.691,38.086,0
1492696067.494,45.898,20.996,58.105,27.344,34.180,0
1492696067.498,35.645,18.555,41.992,17.090,59.570,0
1492696067.502,53.223,33.203,89.844,55.176,33.691,0
1492696067.506,51.758,30.762,96.191,67.383,17.578,0
1492696067.510,21.973,1.953,39.062,24.902,27.832,0
1492696067.514,29.297,8.301,21.484,20.020,32.715,0
1492696067.518,42.480,25.879,7.324,36.621,29.785,0
1492696067.522,37.109,3.418,-13.672,14.160,36.133,0
1492696067.526,35.156,-16.113,0.488,11.719,48.828,0
1492696067.530,43.457,2.930,17.578,57.617,40.039,0
1492696067.534,49.316,18.555,30.273,69.336,8.789,0
1492696067.537,47.852,21.973,83.496,72.754,27.832,0
1492696067.541,52.734,21.973,112.793,63.965,46.875,0
1492696067.545,55.176,22.461,79.590,46.387,26.855,0
1492696067.549,31.738,17.578,53.711,43.457,26.855,0
1492696067.553,21.973,2.930,13.672,29.297,20.508,0
1492696067.557,46.387,10.742,-0.977,44.434,24.902,0
1492696067.561,70.801,25.879,62.012,62.012,28.320,0
1492696067.565,51.758,14.160,62.988,39.062,13.672,0
1492696067.569,44.922,12.207,36.133,44.922,16.602,0
1492696067.573,65.918,29.785,58.105,82.031,32.227,0
1492696067.577,54.199,29.785,13.672,63.477,24.414,0
1492696067.580,40.039,5.371,-0.977,24.414,12.695,0
1492696067.584,50.293,2.441,46.875,50.781,22.949,0
1492696067.588,39.551,14.160,42.969,55.176,19.043,0
1492696067.592,21.484,14.648,18.555,25.391,28.320,0
1492696067.596,30.762,37.109,26.367,18.066,43.945,0
1492696067.600,34.668,34.180,41.504,11.230,25.879,0
1492696067.604,31.250,19.043,48.340,7.324,40.527,0
1492696067.608,32.227,24.902,43.457,21.484,28.320,0
1492696067.612,22.461,-2.441,27.344,9.766,20.020,0
1492696067.616,47.363,5.859,54.688,26.855,62.500,0
1492696067.619,51.270,18.066,45.410,63.477,48.828,0
1492696067.623,25.879,2.441,7.324,40.527,33.203,0
1492696067.627,16.113,14.160,24.414,8.789,11.230,0
1492696067.631,18.066,15.137,42.480,1.953,24.414,0
1492696067.635,29.785,17.090,29.297,13.184,86.914,0
1492696067.639,35.156,24.902,41.504,32.227,62.012,0
1492696067.643,32.227,28.320,47.363,48.340,3.906,0
1492696067.647,31.738,29.785,50.781,42.480,11.230,0
1492696067.651,19.531,15.625,41.992,15.625,44.434,0
1492696067.655,27.344,6.348,10.254,23.926,15.137,0
1492696067.659,28.809,16.113,18.066,48.340,2.441,0
1492696067.662,3.906,0.977,20.020,15.137,46.875,0
1492696067.666,18.555,8.789,32.715,-6.836,26.855,0
1492696067.670,63.477,50.781,89.844,60.059,17.578,0
1492696067.674,87.402,63.477,113.281,102.051,40.527,0
1492696067.678,26.855,7.812,42.480,41.016,32.715,0
1492696067.682,16.113,-9.766,39.551,27.344,28.809,0
1492696067.686,66.406,26.855,54.199,61.035,28.809,0
1492696067.690,55.176,25.391,31.250,60.059,17.578,0
1492696067.694,36.133,15.137,42.480,73.730,50.781,0
1492696067.698,20.996,-2.930,14.160,48.340,33.691,0
1492696067.702,18.066,-3.906,13.672,23.438,-7.812,0
1492696067.705,16.113,13.184,40.527,29.297,18.066,0
1492696067.709,-1.953,6.836,33.691,18.066,31.250,0
1492696067.713,10.742,12.207,48.340,13.672,23.438,0
1492696067.717,63.965,45.410,82.520,43.945,20.508,0
1492696067.721,82.520,54.688,61.035,59.082,18.555,0
1492696067.725,52.734,32.715,30.762,58.105,12.207,0
1492696067.729,36.133,6.836,17.578,52.246,13.672,0
1492696067.733,25.391,-5.859,14.648,28.320,29.297,0
1492696067.737,28.320,17.578,43.945,48.828,27.344,0
1492696067.741,37.109,22.461,59.082,52.246,11.719,0
1492696067.744,22.461,-3.906,50.293,21.484,12.695,0
1492696067.748,4.395,-15.625,38.574,12.207,19.531,0
1492696067.752,-1.465,-1.953,59.082,13.672,59.570,0
1492696067.756,9.766,7.324,35.156,34.180,44.922,0
1492696067.760,57.129,43.457,47.852,84.473,-9.277,0
1492696067.764,74.707,61.523,66.406,78.613,-2.930,0
1492696067.768,37.109,27.344,29.297,52.246,8.789,0
1492696067.772,18.066,16.113,18.555,57.129,16.113,0
1492696067.776,42.969,26.855,10.254,58.105,-4.883,0
1492696067.780,44.434,15.137,37.109,53.711,-2.441,0
1492696067.784,41.504,4.395,90.820,54.199,33.691,0
1492696067.787,22.949,-1.465,71.777,43.945,26.855,0
1492696067.791,5.371,-0.488,34.668,20.508,-20.508,0
1492696067.795,12.695,5.859,54.688,35.645,7.324,0
1492696067.799,-4.883,-11.719,44.434,35.156,73.242,0
1492696067.803,20.508,12.695,36.133,44.922,36.621,0
1492696067.807,62.500,55.176,41.504,71.777,14.160,0
1492696067.811,58.594,51.270,20.020,63.477,28.320,0
1492696067.815,22.949,10.742,0.488,30.273,47.363,0
1492696067.819,18.555,0.488,49.316,13.672,40.527,0
1492696067.823,31.250,9.277,75.195,27.832,13.184,0
1492696067.827,17.578,-0.488,65.430,24.414,41.504,0
1492696067.830,10.254,-12.207,39.551,0.488,31.738,0
1492696067.834,45.898,3.906,15.137,11.719,21.484,0
1492696067.838,50.781,31.250,40.039,33.203,36.133,0
1492696067.842,45.410,40.039,62.012,47.852,50.781,0
1492696067.846,58.105,42.969,66.895,51.758,20.020,0
1492696067.850,15.137,27.344,40.527,31.250,-20.508,0
1492696067.854,8.301,22.461,23.438,26.367,7.324,0
1492696067.858,31.738,38.574,33.203,49.316,33.691,0
1492696067.862,19.531,13.672,32.227,39.062,26.367,0
1492696067.866,3.418,1.953,32.227,35.645,15.137,0
1492696067.869,2.930,24.414,53.223,62.012,51.270,0
1492696067.873,9.766,7.324,44.922,38.574,51.270,0
1492696067.877,-20.020,-23.438,2.441,4.395,-1.953,0
1492696067.881,-2.441,-7.812,43.945,25.879,2.930,0
1492696067.885,45.898,22.949,74.707,59.570,19.531,0
1492696067.889,37.598,23.438,21.973,51.270,40.039,0
1492696067.893,20.020,31.738,20.996,48.340,20.020,0
1492696067.897,5.859,17.090,29.785,44.922,-8.301,0
1492696067.901,9.766,20.020,43.457,51.270,27.344,0
1492696067.905,16.113,25.879,54.199,60.547,47.363,0
1492696067.909,14.648,17.090,45.898,42.969,49.316,0
1492696067.912,52.734,35.645,30.762,60.059,47.363,0
1492696067.916,49.805,24.414,4.395,71.289,36.621,0
1492696067.920,6.348,-5.859,3.906,33.203,21.484,0
1492696067.924,17.090,8.301,27.344,47.852,20.020,0
1492696067.928,27.344,18.555,41.992,60.059,13.672,0
1492696067.932,19.043,-4.883,50.781,36.621,15.137,0
1492696067.936,0.977,-7.324,62.012,23.438,13.672,0
1492696067.940,21.973,14.160,60.547,30.273,6.348,0
1492696067.944,34.180,17.578,34.668,37.109,10.254,0
1492696067.948,1.953,15.625,25.391,29.785,20.996,0
1492696067.952,5.859,13.672,30.273,31.738,38.574,0
1492696067.955,-0.977,-11.719,29.297,9.277,29.297,0
1492696067.959,33.203,13.672,72.266,42.480,36.621,0
1492696067.963,79.102,57.617,78.613,85.449,53.223,0
1492696067.967,44.434,36.621,11.230,55.176,30.762,0
1492696067.971,0.488,7.812,0.000,22.461,13.184,0
1492696067.975,-3.418,-6.348,29.785,2.930,22.949,0
1492696067.979,24.902,4.395,75.195,20.996,38.086,0
1492696067.983,33.203,19.043,48.340,46.387,-13.184,0
1492696067.987,21.484,7.812,-43.457,30.273,-22.461,0
1492696067.991,23.438,0.000,-24.902,27.832,41.016,0
1492696067.994,34.180,18.066,58.105,45.410,72.266,0
1492696067.998,41.016,52.246,67.871,48.828,68.848,0
1492696068.002,23.926,42.480,37.598,40.527,41.016,0
1492696068.006,15.137,17.578,47.852,29.785,30.273,0
1492696068.010,26.855,2.930,71.777,31.738,20.020,0
1492696068.014,38.086,16.113,54.199,53.711,0.000,0
1492696068.018,48.340,33.691,37.109,67.871,13.672,0
1492696068.022,38.574,14.160,30.273,58.105,22.949,0
1492696068.026,20.020,-7.324,2.441,38.086,14.160,0
1492696068.030,45.898,16.602,7.324,54.688,-4.883,0
1492696068.034,50.293,27.344,41.992,64.941,3.906,0
1492696068.037,2.930,1.953,31.250,32.227,44.434,0
1492696068.041,-14.160,-6.836,13.184,16.113,10.742,0
1492696068.045,-3.418,6.348,47.363,22.949,-18.066,0
1492696068.049,31.738,26.855,90.820,39.062,43.945,0
1492696068.053,18.066,17.578,92.773,39.551,64.453,0
1492696068.057,-25.879,-4.883,39.062,31.738,50.293,0
1492696068.061,11.719,24.902,32.715,62.012,37.109,0
1492696068.065,38.086,46.387,50.293,73.242,19.043,0
1492696068.069,25.391,20.020,19.531,56.641,39.551,0
1492696068.073,29.785,4.395,8.789,56.641,15.625,0
1492696068.077,9.766,-2.441,21.973,31.738,-37.598,0
1492696068.080,-34.668,-24.902,38.574,-0.977,11.230,0
1492696068.084,-14.160,-4.883,74.707,29.297,62.988,0
1492696068.088,19.531,29.785,91.797,65.918,35.645,0
1492696068.092,0.977,8.301,56.641,40.039,27.344,0
1492696068.096,-13.672,-10.742,28.320,45.410,48.340,0
1492696068.100,10.742,15.625,41.016,52.734,30.273,0
1492696068.104,47.852,61.035,46.875,42.969,28.809,0
1492696068.108,49.805,69.824,-3.418,82.031,47.852,0
1492696068.112,12.207,13.672,-3.418,58.594,8.301,0
1492696068.116,-4.883,-7.324,65.918,46.875,-5.859,0
1492696068.119,10.742,19.531,97.656,50.293,14.160,0
1492696068.123,-7.812,6.348,66.895,11.719,35.156,0
1492696068.127,-16.602,4.395,69.336,18.066,52.734,0
1492696068.131,-7.812,20.508,76.172,38.574,39.551,0
1492696068.135,-12.695,8.789,27.344,33.691,20.508,0
1492696068.139,-1.953,8.789,9.766,45.410,39.551,0
1492696068.143,37.598,30.762,18.555,72.266,37.598,0
1492696068.147,23.926,20.020,2.441,63.477,4.395,0
1492696068.151,-34.180,-2.441,-3.418,26.367,24.902,0
1492696068.155,-22.949,-6.836,50.781,22.461,37.109,0
1492696068.159,-8.301,0.488,77.148,46.875,46.387,0
1492696068.162,14.648,33.691,100.586,70.801,13.672,0
1492696068.166,23.438,38.086,122.559,70.801,1.953,0
1492696068.170,-14.648,-0.488,45.410,27.344,31.738,0
1492696068.174,-13.184,-13.184,-8.301,8.789,25.879,0
1492696068.178,1.465,-7.324,23.438,19.043,25.391,0
1492696068.182,-1.953,1.953,34.668,41.016,11.719,0
1492696068.186,33.203,25.391,23.926,69.824,28.809,0
1492696068.190,53.711,37.598,51.758,74.219,0.000,0
1492696068.194,24.414,16.113,51.758,52.246,-31.738,0
1492696068.198,1.465,-10.742,6.348,34.180,24.902,0
1492696068.202,8.789,-9.277,13.184,24.902,65.430,0
1492696068.205,56.641,41.016,65.430,47.852,56.152,0
1492696068.209,41.504,27.832,71.289,42.969,0.488,0
1492696068.213,-5.859,-12.207,54.199,7.812,-9.766,0
1492696068.217,1.465,7.812,60.059,7.324,44.434,0
1492696068.221,-12.695,2.930,52.246,9.766,58.594,0
1492696068.225,8.301,7.324,28.809,40.039,25.879,0
1492696068.229,63.477,34.180,26.367,84.961,18.066,0
1492696068.233,60.059,41.504,35.645,82.520,57.617,0
1492696068.237,14.160,24.902,10.254,51.270,48.340,0
1492696068.241,8.789,11.719,42.480,22.949,30.273,0
1492696068.244,54.199,35.156,98.145,37.598,3.906,0
1492696068.248,56.641,14.648,78.125,49.316,11.719,0
1492696068.252,29.785,-2.930,47.852,25.391,-5.859,0
1492696068.256,20.508,21.973,32.715,38.574,-12.695,0
1492696068.260,36.621,26.855,46.875,69.824,44.922,0
1492696068.264,41.504,20.996,41.992,52.246,58.105,0
1492696068.268,62.500,45.898,77.148,73.242,28.809,0
1492696068.272,58.105,49.805,63.965,83.496,4.883,0
1492696068.276,29.297,24.414,-2.441,46.387,20.508,0
1492696068.280,20.508,17.090,24.902,53.223,26.367,0
1492696068.284,24.414,10.742,78.125,51.758,28.320,0
1492696068.287,53.223,34.668,81.055,62.988,34.180,0
1492696068.291,54.199,36.133,41.992,58.105,55.176,0
1492696068.295,25.391,-1.465,22.949,25.879,54.688,0
1492696068.299,21.973,6.836,38.574,39.062,7.812,0
1492696068.303,44.922,33.203,48.340,68.848,-5.371,0
1492696068.307,47.363,30.762,45.898,61.523,27.832,0
1492696068.311,31.250,20.508,53.223,41.016,12.207,0
1492696068.315,49.316,24.414,17.090,30.273,-0.977,0
1492696068.319,68.848,35.156,-33.203,46.387,20.996,0
1492696068.323,42.969,31.250,3.906,38.574,35.156,0
1492696068.327,23.438,16.113,72.754,14.648,25.391,0
1492696068.330,50.781,33.203,86.426,38.574,2.930,0
1492696068.334,48.828,41.016,60.547,47.852,43.457,0
1492696068.338,21.973,2.441,30.273,22.461,53.223,0
1492696068.342,25.391,-11.719,8.301,12.207,42.969,0
1492696068.346,38.574,25.879,32.227,41.016,42.480,0
1492696068.350,36.621,25.879,41.016,47.852,26.855,0
1492696068.354,34.668,-3.418,5.859,34.668,55.176,0
1492696068.358,53.223,8.789,31.250,45.410,35.645,0
1492696068.362,41.504,15.625,69.824,34.668,-1.953,0
1492696068.366,34.668,11.719,80.078,27.832,16.113,0
1492696068.369,42.480,13.672,49.805,43.457,33.691,0
1492696068.373,51.758,29.297,41.992,63.477,28.320,0
1492696068.377,59.082,16.602,64.941,61.035,26.367,0
1492696068.381,44.922,-3.906,41.016,37.598,64.453,0
1492696068.385,19.043,-2.441,20.508,29.785,32.227,0
1492696068.389,33.691,17.090,39.551,51.270,15.625,0
1492696068.393,70.312,40.039,51.270,71.777,38.086,0
1492696068.397,62.012,29.785,49.805,58.105,19.531,0
1492696068.401,46.875,6.836,48.340,49.316,-3.418,0
1492696068.405,26.855,4.395,41.504,60.547,2.930,0
1492696068.409,27.344,17.090,24.414,60.059,32.227,0
1492696068.412,62.012,39.062,34.668,77.637,49.805,0
1492696068.416,89.844,50.781,63.965,92.285,30.273,0
1492696068.420,82.520,30.762,59.082,51.758,17.090,0
1492696068.424,39.551,3.418,38.086,33.203,60.059,0
1492696068.428,-5.371,-4.395,12.207,28.809,42.969,0
1492696068.432,-0.977,2.441,15.625,20.996,10.254,0
1492696068.436,38.086,14.160,49.805,49.805,33.691,0
1492696068.440,57.129,32.227,36.621,58.105,58.105,0
1492696068.444,39.551,20.996,37.109,17.578,29.785,0
1492696068.448,61.523,22.461,57.129,38.086,35.645,0
1492696068.452,83.496,38.574,39.551,90.820,22.461,0
1492696068.455,52.246,24.414,36.621,75.684,24.414,0
1492696068.459,47.852,10.254,64.453,44.922,53.711,0
1492696068.463,54.688,28.809,71.289,47.852,61.035,0
1492696068.467,34.180,22.949,26.367,40.039,66.406,0
1492696068.471,6.836,-10.742,19.531,8.789,52.246,0
1492696068.475,10.742,-5.371,39.551,19.043,30.273,0
1492696068.479,48.340,35.156,45.410,48.340,29.297,0
1492696068.483,54.688,44.434,24.414,55.664,73.242,0
1492696068.487,24.902,13.184,21.973,16.602,73.242,0
1492696068.491,29.785,17.578,37.598,22.461,49.316,0
1492696068.494,50.293,25.879,49.316,56.152,20.508,0
1492696068.498,23.438,9.766,58.594,36.621,15.137,0
1492696068.502,6.836,-6.348,35.645,38.574,51.270,0
1492696068.506,27.344,-5.371,33.691,52.734,27.832,0
1492696068.510,65.918,32.715,69.336,69.824,4.395,0
1492696068.514,88.867,63.965,88.379,100.586,25.879,0
1492696068.518,57.129,18.555,42.969,62.988,50.293,0
1492696068.522,39.062,-20.996,15.137,15.625,41.992,0
1492696068.526,47.363,-2.441,26.855,27.832,22.949,0
1492696068.530,66.895,23.926,36.621,52.246,31.250,0
1492696068.534,62.012,24.414,26.855,48.828,31.738,0
1492696068.537,36.621,11.230,23.926,49.316,-25.391,0
1492696068.541,16.602,-0.488,37.598,23.438,-13.184,0
1492696068.545,23.926,-7.812,32.227,6.348,36.133,0
1492696068.549,61.035,27.832,40.039,60.059,44.434,0
1492696068.553,77.148,48.828,80.078,100.098,22.949,0
1492696068.557,79.102,35.156,74.219,86.914,4.883,0
1492696068.561,58.594,12.695,33.203,54.199,41.504,0
1492696068.565,64.453,8.301,18.066,42.480,61.523,0
1492696068.569,79.590,14.160,26.367,48.828,39.062,0
1492696068.573,63.477,-4.883,51.758,55.176,33.691,0
1492696068.577,53.223,-5.859,76.660,43.457,33.203,0
1492696068.580,51.758,20.508,79.102,54.688,22.949,0
1492696068.584,66.895,48.828,81.543,71.777,23.438,0
1492696068.588,56.152,27.344,77.148,37.598,4.395,0
1492696068.592,56.152,16.602,63.477,27.344,46.387,0
1492696068.596,71.289,24.414,26.367,44.922,71.777,0
1492696068.600,68.359,19.531,-6.836,51.270,28.809,0
1492696068.604,74.219,30.762,-16.113,72.754,0.488,0
1492696068.608,51.270,20.020,-7.812,56.152,34.668,0
1492696068.612,33.691,-3.906,22.461,19.043,39.062,0
1492696068.616,52.246,10.742,66.895,47.852,35.645,0
1492696068.619,41.992,17.578,98.145,54.688,55.176,0
1492696068.623,51.270,24.414,104.492,42.969,44.434,0
1492696068.627,66.406,45.410,78.125,55.176,20.508,0
1492696068.631,52.246,40.527,54.199,68.848,12.695,0
1492696068.635,43.457,20.508,53.711,61.035,51.758,0
1492696068.639,17.090,-1.953,23.926,22.949,37.109,0
1492696068.643,39.062,8.789,17.578,37.598,7.324,0
1492696068.647,87.891,41.016,2.441,80.078,19.531,0
1492696068.651,85.938,41.016,-1.465,84.473,47.363,0
1492696068.655,41.504,-1.465,53.223,46.387,66.895,0
1492696068.659,20.020,-18.555,86.914,26.367,22.461,0
1492696068.662,45.898,7.324,66.895,54.688,10.742,0
1492696068.666,57.129,22.461,39.551,64.453,31.738,0
1492696068.670,53.711,25.879,47.852,74.707,2.930,0
1492696068.674,59.082,27.832,72.266,73.730,-7.324,0
1492696068.678,43.945,17.578,63.477,56.152,-1.465,0
1492696068.682,63.965,25.391,16.113,82.520,29.297,0
1492696068.686,81.543,34.668,-6.836,73.242,45.410,0
1492696068.690,42.480,13.672,42.969,11.719,15.137,0
1492696068.694,31.738,0.000,82.520,11.719,9.766,0
1492696068.698,47.852,-3.906,73.242,33.203,53.223,0
1492696068.702,45.898,5.371,81.543,40.039,37.598,0
1492696068.705,59.082,13.672,57.129,47.852,26.855,0
1492696068.709,58.105,20.996,14.648,62.012,51.758,0
1492696068.713,49.805,30.273,42.969,60.547,25.391,0
1492696068.717,47.852,29.785,40.527,48.828,24.902,0
1492696068.721,41.504,28.320,1.465,49.805,18.555,0
1492696068.725,47.852,38.574,15.625,60.547,14.160,0
1492696068.729,36.621,26.367,5.859,37.598,9.766,0
1492696068.733,28.809,1.953,10.254,21.973,-7.812,0
1492696068.737,33.691,-0.488,70.801,31.738,26.367,0
1492696068.741,35.156,2.930,96.680,21.973,40.527,0
1492696068.744,21.973,-4.395,85.449,37.109,47.852,0
1492696068.748,41.504,3.418,51.758,73.730,45.410,0
1492696068.752,98.145,40.527,50.781,103.027,7.324,0
1492696068.756,79.102,36.133,59.570,82.031,47.852,0
1492696068.760,43.457,16.602,13.184,37.109,54.688,0
1492696068.764,27.344,8.301,0.488,41.016,24.902,0
1492696068.768,34.180,6.348,52.246,83.496,14.648,0
1492696068.772,35.645,-9.277,48.340,77.148,20.508,0
1492696068.776,29.297,-8.301,39.551,56.152,12.207,0
1492696068.780,55.176,9.277,59.570,70.312,3.418,0
1492696068.784,51.758,18.066,53.711,73.730,26.855,0
1492696068.787,49.316,34.668,46.387,63.477,44.434,0
1492696068.791,63.477,36.621,82.520,72.754,32.715,0
1492696068.795,55.664,19.043,56.641,64.941,39.551,0
1492696068.799,23.438,-18.555,-34.180,31.738,23.438,0
1492696068.803,3.906,-24.414,-3.906,11.230,27.832,0
1492696068.807,30.273,14.160,88.379,35.156,16.602,0
1492696068.811,72.754,49.316,104.980,63.965,16.602,0
1492696068.815,102.051,65.430,94.238,84.961,40.039,0
1492696068.819,76.660,35.645,16.113,67.871,14.648,0
1492696068.823,37.109,7.324,-32.227,36.621,11.719,0
1492696068.827,44.922,29.297,28.809,50.781,18.555,0
1492696068.830,42.480,35.156,17.578,36.133,45.410,0
1492696068.834,12.207,2.930,4.883,-6.348,60.547,0
1492696068.838,-5.371,2.930,42.480,-7.812,27.832,0
1492696068.842,19.531,22.949,56.641,17.578,10.254,0
1492696068.846,38.574,22.461,72.266,30.273,11.230,0
1492696068.850,41.016,19.043,58.105,23.438,-0.488,0
1492696068.854,22.949,-12.695,11.230,-7.324,8.301,0
1492696068.858,4.883,-3.418,-6.348,-0.488,28.320,0
1492696068.862,43.945,31.738,24.414,23.926,32.227,0
1492696068.866,72.754,52.246,68.359,52.734,38.574,0
1492696068.869,79.590,63.477,51.758,86.426,-31.738,0
1492696068.873,84.961,47.852,6.836,67.871,-22.949,0
1492696068.877,51.270,19.043,5.859,39.551,51.758,0
1492696068.881,32.227,9.766,64.453,30.273,20.020,0
1492696068.885,72.266,40.527,97.656,56.641,18.066,0
1492696068.889,47.363,24.414,43.945,44.434,34.668,0
1492696068.893,8.789,-7.812,-6.348,18.066,42.480,0
1492696068.897,24.414,-4.883,-5.859,31.250,62.012,0
1492696068.901,30.273,9.766,40.039,37.109,33.691,0
1492696068.905,50.781,31.250,74.707,59.570,31.250,0
1492696068.909,52.734,33.203,88.867,55.664,36.133,0
1492696068.912,59.570,25.391,40.527,65.430,-16.602,0
1492696068.916,63.477,20.996,-25.391,81.543,-17.090,0
1492696068.920,44.922,23.926,14.160,74.707,52.246,0
1492696068.924,26.367,12.695,64.941,60.547,53.223,0
1492696068.928,35.645,23.926,102.539,56.641,12.207,0
1492696068.932,41.504,27.344,96.680,44.922,10.254,0
1492696068.936,32.227,8.301,33.691,25.391,22.461,0
1492696068.940,35.645,18.066,26.367,28.809,16.602,0
1492696068.944,35.645,8.301,44.434,29.785,19.531,0
1492696068.948,32.227,1.953,37.109,39.062,44.922,0
1492696068.952,21.973,25.391,12.695,44.922,67.383,0
1492696068.955,38.086,29.785,-11.719,48.828,48.340,0
1492696068.959,61.523,38.574,37.598,48.828,4.883,0
1492696068.963,24.902,28.320,50.781,31.250,6.836,0
1492696068.967,11.719,4.395,44.922,22.461,48.340,0
1492696068.971,40.527,1.465,85.938,25.879,57.617,0
1492696068.975,46.875,33.691,84.961,41.016,46.875,0
1492696068.979,39.551,42.969,33.691,44.434,56.641,0
1492696068.983,52.734,29.297,18.555,61.035,55.176,0
1492696068.987,49.316,22.461,18.555,56.641,38.574,0
1492696068.991,20.996,4.883,-35.156,28.809,26.367,0
1492696068.994,19.043,-6.348,-13.672,13.672,45.410,0
1492696068.998,28.320,8.301,83.496,8.789,54.688,0
1492696069.002,43.457,25.391,122.559,33.203,29.785,0
1492696069.006,42.969,19.043,85.938,28.809,6.836,0
1492696069.010,36.621,19.531,32.227,27.832,8.789,0
1492696069.014,30.762,14.648,9.277,22.461,41.016,0
1492696069.018,54.199,28.809,29.297,44.434,21.973,0
1492696069.022,70.801,41.016,36.621,67.383,-6.836,0
1492696069.026,55.664,31.250,10.742,46.387,41.016,0
1492696069.030,50.781,28.809,-21.484,43.457,58.105,0
1492696069.034,64.941,23.926,16.602,61.035,54.199,0
1492696069.037,49.316,4.883,44.922,38.574,50.293,0
1492696069.041,40.527,30.762,77.148,45.898,39.062,0
1492696069.045,32.715,34.668,85.938,56.152,27.344,0
1492696069.049,12.695,-13.672,39.062,20.996,21.973,0
1492696069.053,29.297,-5.859,47.852,31.250,25.391,0
1492696069.057,42.480,28.809,41.992,54.688,34.180,0
1492696069.061,55.664,37.598,-0.977,50.781,19.043,0
1492696069.065,65.918,37.598,20.020,46.875,-4.883,0
1492696069.069,49.316,32.227,61.523,46.387,-1.465,0
1492696069.073,61.523,41.992,62.012,62.988,47.852,0
1492696069.077,60.059,31.250,46.387,57.129,32.227,0
1492696069.080,30.762,-16.602,38.574,31.738,9.766,0
1492696069.084,4.883,-35.645,19.531,13.184,59.570,0
1492696069.088,19.043,-9.277,15.137,19.043,60.059,0
1492696069.092,38.086,14.648,42.969,30.273,30.762,0
1492696069.096,32.715,24.902,50.781,35.156,5.859,0
1492696069.100,57.129,40.039,66.895,66.895,15.625,0
1492696069.104,68.848,38.086,37.598,54.688,31.250,0
1492696069.108,46.387,41.992,8.301,38.086,21.973,0
1492696069.112,53.711,63.965,60.059,39.551,-4.395,0
1492696069.116,50.781,44.922,48.340,26.367,-11.230,0
1492696069.119,23.438,4.883,-1.953,15.625,23.926,0
1492696069.123,21.484,0.488,3.418,2.441,5.371,0
1492696069.127,35.645,20.996,36.133,13.184,14.160,0
1492696069.131,42.969,22.461,50.781,43.457,49.316,0
1492696069.135,63.965,33.203,31.250,61.523,42.480,0
1492696069.139,73.242,40.527,11.230,47.363,9.766,0
1492696069.143,65.430,43.457,31.250,37.598,-7.324,0
1492696069.147,60.059,25.391,57.129,37.598,5.859,0
1492696069.151,61.523,20.020,64.941,27.832,2.441,0
1492696069.155,57.617,31.738,37.109,27.344,4.395,0
1492696069.159,57.129,28.320,38.574,33.691,1.953,0
1492696069.162,72.266,39.551,44.434,49.805,36.133,0
1492696069.166,41.016,13.672,23.438,35.645,41.504,0
1492696069.170,39.062,-5.371,30.762,31.250,29.297,0
1492696069.174,45.410,15.137,43.457,49.316,20.996,0
1492696069.178,37.109,29.297,54.688,56.152,26.855,0
1492696069.182,56.152,27.832,11.230,50.781,22.461,0
1492696069.186,46.875,15.137,-12.207,34.180,22.461,0
1492696069.190,43.457,17.090,2.441,25.391,32.227,0
1492696069.194,45.898,34.668,38.086,36.621,31.738,0
1492696069.198,33.691,20.996,50.293,41.504,20.508,0
1492696069.202,31.738,12.207,20.996,27.344,-17.090,0
1492696069.205,52.246,35.645,73.242,31.738,14.160,0
1492696069.209,59.082,64.453,98.633,48.340,41.504,0
1492696069.213,37.109,35.156,29.785,29.785,9.277,0
1492696069.217,42.480,23.438,11.230,35.156,22.461,0
1492696069.221,28.809,36.133,10.742,33.691,67.871,0
1492696069.225,20.508,20.020,25.391,5.371,33.203,0
1492696069.229,49.316,18.555,45.410,13.672,21.973,0
1492696069.233,83.008,36.133,10.742,42.480,52.246,0
1492696069.237,86.426,38.574,8.789,45.898,24.414,0
1492696069.241,62.988,39.551,32.227,35.156,11.719,0
1492696069.244,47.852,41.992,24.902,12.695,-13.184,0
1492696069.248,44.922,20.996,41.016,-6.836,-5.371,0
1492696069.252,40.039,14.648,36.621,22.461,45.410,0
1492696069.256,42.480,38.574,14.648,49.805,15.137,0
1492696069.260,40.039,36.133,18.555,42.480,10.742,0
1492696069.264,36.621,6.348,21.973,24.414,38.574,0
1492696069.268,34.180,10.742,44.434,33.203,62.988,0
1492696069.272,20.996,9.277,46.387,27.344,36.621,0
1492696069.276,38.574,19.531,55.664,42.969,1.953,0
1492696069.280,75.195,50.293,62.500,91.797,44.922,0
1492696069.284,54.688,31.250,30.762,65.430,57.617,0
1492696069.287,15.625,12.207,13.184,29.785,19.043,0
1492696069.291,22.461,24.414,17.090,37.109,5.859,0
1492696069.295,31.738,29.785,23.926,31.738,49.805,0
1492696069.299,16.602,-6.348,22.949,21.484,59.082,0
1492696069.303,18.066,-14.160,17.090,37.598,45.410,0
1492696069.307,25.391,30.273,42.480,43.945,42.969,0
1492696069.311,44.434,54.199,81.055,57.129,35.156,0
1492696069.315,57.129,32.227,57.129,54.199,22.461,0
1492696069.319,64.453,40.527,49.805,67.383,19.531,0
1492696069.323,53.711,41.992,35.156,62.500,41.504,0
1492696069.327,48.340,20.996,-2.441,39.551,68.359,0
1492696069.330,53.711,31.250,-8.301,56.641,55.664,0
1492696069.334,45.898,36.133,32.227,60.547,-7.812,0
1492696069.338,47.852,33.691,48.340,59.082,17.090,0
1492696069.342,27.344,4.883,8.301,37.109,55.664,0
1492696069.346,20.996,-7.324,21.973,22.949,20.508,0
1492696069.350,35.645,11.719,83.496,44.922,35.645,0
1492696069.354,48.340,21.484,58.105,58.105,44.922,0
1492696069.358,52.246,28.320,22.949,43.945,24.902,0
1492696069.362,26.855,23.926,27.832,9.277,20.508,0
1492696069.366,30.273,12.695,19.043,9.766,26.367,0
1492696069.369,56.641,24.414,7.812,26.855,30.762,0
1492696069.373,52.734,49.316,33.203,46.875,32.715,0
1492696069.377,71.777,51.758,42.480,79.102,14.648,0
1492696069.381,89.844,41.504,41.992,70.312,4.883,0
1492696069.385,30.273,3.418,19.531,26.367,13.184,0
1492696069.389,7.812,-0.488,-2.930,18.555,33.203,0
1492696069.393,9.277,12.695,36.621,16.113,12.695,0
1492696069.397,27.832,21.484,59.082,38.086,1.465,0
1492696069.401,49.316,28.809,45.410,56.152,44.922,0
1492696069.405,46.875,22.461,33.203,40.527,24.414,0
1492696069.409,43.945,20.996,16.113,32.227,13.672,0
1492696069.412,24.414,12.695,17.090,39.062,21.973,0
1492696069.416,15.137,7.812,19.043,38.086,9.766,0
1492696069.420,28.320,15.137,26.855,39.551,6.348,0
1492696069.424,58.594,27.832,38.086,42.969,13.672,0
1492696069.428,61.035,41.016,44.922,47.852,12.695,0
1492696069.432,39.551,39.062,52.246,63.477,33.691,0
1492696069.436,16.602,4.883,19.531,42.480,57.129,0
1492696069.440,11.719,-0.977,15.625,8.789,14.648,0
1492696069.444,50.293,28.809,53.223,46.875,14.648,0
1492696069.448,66.406,34.180,49.316,67.871,50.781,0
1492696069.452,31.738,37.598,13.672,43.457,17.578,0
1492696069.455,48.340,58.594,9.277,58.594,5.371,0
1492696069.459,64.941,40.527,15.137,58.594,40.039,0
1492696069.463,34.180,15.137,23.926,27.832,47.363,0
1492696069.467,27.344,16.113,26.367,14.160,43.945,0
1492696069.471,52.246,33.691,37.598,39.551,41.504,0
1492696069.475,57.129,35.156,58.105,41.504,33.691,0
1492696069.479,48.828,24.414,42.480,23.438,27.344,0
1492696069.483,53.223,33.691,20.508,40.039,20.020,0
1492696069.487,41.016,34.668,9.277,28.320,19.043,0
1492696069.491,27.832,-0.977,14.160,0.000,18.066,0
1492696069.494,62.012,-10.742,4.395,20.508,18.066,0
1492696069.498,102.539,35.645,0.000,66.895,13.184,0
1492696069.502,81.055,47.363,9.277,43.457,-8.789,0
1492696069.506,69.824,42.969,34.180,44.922,34.180,0
1492696069.510,69.336,42.969,54.688,70.801,65.918,0
1492696069.514,35.156,27.832,27.344,48.340,36.621,0
1492696069.518,31.250,19.043,11.230,31.250,-11.230,0
1492696069.522,44.434,31.738,35.156,43.945,-2.441,0
1492696069.526,39.062,28.809,74.219,57.617,35.645,0
1492696069.530,23.926,6.348,52.734,33.691,23.438,0
1492696069.534,6.836,-3.906,19.531,7.324,18.066,0
1492696069.537,26.855,6.836,37.598,26.855,18.555,0
1492696069.541,62.500,26.367,31.250,58.105,-0.488,0
1492696069.545,41.992,12.695,13.184,31.738,2.441,0
1492696069.549,14.160,9.277,23.438,34.180,17.578,0
1492696069.553,23.438,30.762,35.156,49.805,48.340,0
1492696069.557,32.715,36.621,25.879,57.617,40.527,0
1492696069.561,72.754,46.387,43.457,65.430,11.230,0
1492696069.565,78.125,54.688,45.410,59.082,29.785,0
1492696069.569,62.012,53.223,41.504,61.523,54.199,0
1492696069.573,64.941,41.992,56.641,74.219,30.762,0
1492696069.577,54.688,16.602,44.922,55.176,-0.488,0
1492696069.580,56.641,18.555,11.719,41.992,26.855,0
1492696069.584,44.434,25.391,-1.465,47.363,28.809,0
1492696069.588,10.254,-0.488,-11.719,19.531,20.508,0
1492696069.592,27.344,14.648,19.043,29.297,40.527,0
1492696069.596,54.688,46.875,56.152,42.480,66.895,0
1492696069.600,41.992,26.855,46.387,27.832,56.152,0
1492696069.604,48.340,37.109,26.855,40.527,28.320,0
1492696069.608,65.918,49.805,40.039,38.574,26.855,0
1492696069.612,40.527,24.414,47.852,10.742,25.391,0
1492696069.616,36.133,18.555,29.297,29.785,19.531,0
1492696069.619,44.434,20.020,-5.859,35.645,-11.719,0
1492696069.623,27.344,0.488,-15.137,6.836,-2.441,0
1492696069.627,16.602,1.465,1.953,0.977,59.570,0
1492696069.631,25.391,15.137,28.809,16.113,36.133,0
1492696069.635,31.250,22.949,30.762,16.602,-7.324,0
1492696069.639,45.898,42.969,45.410,31.250,19.043,0
1492696069.643,61.523,45.410,75.684,61.523,43.945,0
1492696069.647,69.824,35.156,54.199,65.918,42.969,0
1492696069.651,65.918,35.645,13.184,56.641,23.926,0
1492696069.655,63.965,39.551,11.230,48.340,5.859,0
1492696069.659,43.945,24.902,35.156,45.898,27.832,0
1492696069.662,17.090,22.461,32.715,47.852,28.320,0
1492696069.666,22.461,5.371,18.555,29.297,-4.883,0
1492696069.670,36.133,8.301,26.855,26.855,12.207,0
1492696069.674,35.645,27.344,46.875,44.922,49.805,0
1492696069.678,16.113,10.742,49.805,12.207,32.715,0
1492696069.682,-0.977,4.883,33.203,6.348,32.227,0
1492696069.686,44.922,31.738,50.781,46.875,59.570,0
1492696069.690,68.359,42.969,52.734,71.289,27.344,0
1492696069.694,47.363,32.715,40.039,61.523,15.625,0
1492696069.698,46.387,37.109,3.418,55.664,40.039,0
1492696069.702,32.227,30.762,-2.930,59.082,25.879,0
1492696069.705,28.809,27.832,57.129,51.758,24.414,0
1492696069.709,47.852,16.602,84.473,40.527,-5.859,0
1492696069.713,38.086,21.973,49.316,17.090,-21.973,0
1492696069.717,24.902,23.438,17.090,9.277,23.438,0
1492696069.721,28.320,3.906,23.438,13.184,50.781,0
1492696069.725,11.719,11.230,55.664,11.719,28.809,0
1492696069.729,24.902,20.508,62.012,17.090,13.184,0
1492696069.733,36.133,13.672,47.852,28.320,33.203,0
1492696069.737,44.922,23.438,23.438,30.273,16.602,0
1492696069.741,54.688,50.781,9.277,67.871,8.789,0
1492696069.744,38.086,50.781,9.277,70.312,46.387,0
1492696069.748,61.523,62.988,36.621,63.965,59.082,0
1492696069.752,64.453,49.316,32.715,62.500,29.297,0
1492696069.756,45.898,20.508,26.367,40.039,4.395,0
1492696069.760,32.715,12.207,40.039,34.668,18.555,0
1492696069.764,23.438,7.812,22.461,31.250,47.852,0
1492696069.768,38.574,28.320,47.363,44.922,40.039,0
1492696069.772,20.020,15.137,41.992,25.879,20.508,0
1492696069.776,10.254,-14.648,13.672,10.254,32.227,0
1492696069.780,46.875,0.977,54.199,32.715,19.043,0
1492696069.784,69.824,35.156,89.355,71.777,24.902,0
1492696069.787,53.223,33.203,23.926,74.219,19.043,0
1492696069.791,33.203,17.090,8.301,33.203,9.766,0
1492696069.795,39.551,23.926,27.832,48.340,13.672,0
1492696069.799,58.105,31.250,5.371,71.289,-9.766,0
1492696069.803,64.453,30.762,11.719,64.941,33.691,0
1492696069.807,63.965,36.133,52.734,76.172,66.895,0
1492696069.811,49.316,13.672,40.527,53.711,57.129,0
1492696069.815,62.500,4.395,0.488,52.246,47.363,0
1492696069.819,83.496,30.762,57.617,56.641,63.477,0
1492696069.823,62.012,40.039,76.172,37.598,54.688,0
1492696069.827,23.926,27.344,40.039,29.297,22.949,0
1492696069.830,26.855,30.273,26.367,26.855,20.020,0
1492696069.834,54.199,38.574,14.648,31.738,30.273,0
1492696069.838,59.082,42.480,21.484,46.875,35.156,0
1492696069.842,63.477,62.500,34.180,56.641,10.254,0
1492696069.846,61.035,59.570,11.230,36.621,0.488,0
1492696069.850,52.734,41.504,-12.695,21.973,26.367,0
1492696069.854,57.617,49.316,11.719,56.152,43.945,0
1492696069.858,57.617,59.082,63.965,75.684,15.625,0
1492696069.862,37.598,32.715,55.664,49.805,-0.977,0
1492696069.866,28.320,27.344,-2.441,42.969,31.738,0
1492696069.869,19.531,35.156,-9.277,27.344,41.504,0
1492696069.873,20.996,26.855,40.039,9.766,17.090,0
1492696069.877,38.086,21.973,43.945,39.551,11.719,0
1492696069.881,35.156,25.879,50.293,56.641,53.711,0
1492696069.885,43.457,38.086,75.195,52.734,38.574,0
1492696069.889,67.871,48.340,38.086,50.781,34.668,0
1492696069.893,83.984,45.898,29.785,77.148,23.438,0
1492696069.897,46.875,21.973,25.879,64.453,27.832,0
1492696069.901,34.668,27.344,2.930,39.551,53.711,0
1492696069.905,45.898,39.062,-25.879,50.781,19.043,0
1492696069.909,28.809,13.184,-17.578,28.320,31.738,0
1492696069.912,42.969,16.602,27.832,30.762,59.082,0
1492696069.916,45.898,29.297,62.988,40.039,27.832,0
1492696069.920,38.086,24.414,60.059,43.457,5.859,0
1492696069.924,47.852,32.715,58.105,60.059,28.809,0
1492696069.928,66.895,48.828,71.289,64.941,39.062,0
1492696069.932,95.215,75.195,67.383,77.637,10.254,0
1492696069.936,79.102,54.199,61.035,76.172,13.184,0
1492696069.940,38.086,-6.348,11.230,25.391,19.531,0
1492696069.944,20.020,-19.043,-25.391,-21.484,6.836,0
1492696069.948,32.227,0.000,-0.488,11.230,0.000,0
1492696069.952,63.965,22.461,20.020,33.691,-3.906,0
1492696069.955,104.980,50.293,41.016,64.941,8.301,0
1492696069.959,84.473,37.598,41.992,47.852,18.555,0
1492696069.963,62.988,24.414,47.852,16.602,28.320,0
1492696069.967,65.918,29.297,61.035,30.762,39.551,0
1492696069.971,71.289,27.832,30.273,26.367,34.668,0
1492696069.975,81.055,35.156,52.246,53.223,41.504,0
1492696069.979,56.641,30.273,69.824,73.730,47.852,0
1492696069.983,35.156,16.602,15.137,54.199,22.461,0
1492696069.987,44.434,23.926,-2.441,48.340,7.324,0
1492696069.991,54.688,36.133,15.137,45.898,16.602,0
1492696069.994,43.457,29.785,24.902,45.410,11.719,0
1492696069.998,58.105,34.180,36.621,67.383,34.668,0
1492696070.002,55.176,34.668,29.785,65.430,62.500,0
1492696070.006,10.254,7.324,18.066,32.227,35.156,0
1492696070.010,26.855,7.324,33.203,34.180,9.766,0
1492696070.014,24.414,4.883,33.203,13.672,12.695,0
1492696070.018,15.625,11.230,44.434,28.809,29.297,0
1492696070.022,39.062,24.902,61.035,56.641,20.508,0
1492696070.026,34.668,17.578,21.973,38.574,14.160,0
1492696070.030,72.266,29.297,8.789,74.219,33.203,0
1492696070.034,73.730,39.062,43.457,86.914,29.785,0
1492696070.037,7.812,4.883,57.617,22.949,19.531,0
1492696070.041,19.043,0.977,61.035,21.484,9.277,0
1492696070.045,66.895,26.367,76.660,53.711,16.113,0
1492696070.049,76.660,32.227,89.355,55.664,32.715,0
1492696070.053,41.992,22.949,56.641,60.059,19.531,0
1492696070.057,-0.488,11.230,-2.930,26.367,23.926,0
1492696070.061,1.465,6.348,-13.184,-4.883,49.316,0
1492696070.065,19.531,-1.465,1.953,6.836,33.691,0
1492696070.069,35.156,0.488,-0.488,25.879,35.156,0
1492696070.073,54.688,29.297,1.953,52.734,48.828,0
1492696070.077,59.082,54.199,18.066,52.246,48.828,0
1492696070.080,64.453,56.641,42.969,43.457,43.945,0
1492696070.084,59.570,39.062,63.477,48.828,-1.465,0
1492696070.088,61.523,51.758,81.055,61.035,-8.301,0
1492696070.092,20.508,22.949,55.664,11.230,29.785,0
1492696070.096,-0.977,-19.043,22.461,-6.348,48.340,0
1492696070.100,27.344,2.930,20.508,25.879,23.926,0
1492696070.104,42.480,20.508,27.832,30.762,33.691,0
1492696070.108,62.012,18.555,48.828,57.129,39.062,0
1492696070.112,55.664,18.066,43.945,63.965,1.465,0
1492696070.116,42.480,28.809,10.254,44.922,33.203,0
1492696070.119,36.621,25.879,-14.160,30.762,20.508,0
1492696070.123,53.223,34.668,22.461,56.152,11.719,0
1492696070.127,76.172,42.480,60.059,79.102,11.230,0
1492696070.131,65.918,39.551,67.871,78.125,1.953,0
1492696070.135,41.992,15.137,36.621,64.941,23.926,0
1492696070.139,28.809,-9.277,-5.859,28.320,25.391,0
1492696070.143,45.898,6.348,12.695,29.297,9.277,0
1492696070.147,25.879,-9.277,26.367,28.809,0.488,0
1492696070.151,26.367,1.465,30.762,27.344,31.250,0
1492696070.155,53.223,32.715,44.434,51.758,68.359,0
1492696070.159,45.898,27.832,41.992,52.734,32.227,0
1492696070.162,37.598,20.996,43.457,35.156,-3.418,0
1492696070.166,60.059,14.160,60.547,27.832,55.664,0
1492696070.170,58.594,14.160,49.316,30.273,44.922,0
1492696070.174,44.434,20.996,38.086,33.691,-6.348,0
1492696070.178,36.621,12.207,18.555,30.762,12.207,0
1492696070.182,47.363,21.484,31.738,50.293,38.086,0
1492696070.186,66.406,23.438,12.207,56.641,24.414,0
1492696070.190,62.012,21.973,-30.762,30.762,0.977,0
1492696070.194,47.363,27.344,13.184,21.973,0.977,0
1492696070.198,21.973,0.488,41.992,9.766,27.832,0
1492696070.202,38.574,-1.465,43.457,20.996,28.320,0
1492696070.205,78.613,35.156,32.715,69.336,30.762,0
1492696070.209,82.031,54.199,-3.906,85.449,34.668,0
1492696070.213,46.875,33.203,0.488,41.504,43.457,0
1492696070.217,15.137,-7.324,25.879,-3.418,25.391,0
1492696070.221,-1.953,-21.973,29.297,-20.020,17.578,0
1492696070.225,-2.930,-17.090,26.855,-10.742,44.922,0
1492696070.229,26.367,5.859,16.113,16.113,31.738,0
1492696070.233,39.062,26.855,18.555,32.227,7.324,0
1492696070.237,38.086,24.902,16.113,31.738,3.418,0
1492696070.241,39.062,14.160,12.695,31.250,26.855,0
1492696070.244,43.945,23.926,29.785,59.570,27.832,0
1492696070.248,43.457,25.391,35.156,65.430,24.902,0
1492696070.252,43.945,4.883,48.828,47.363,44.922,0
1492696070.256,64.453,0.488,45.898,54.199,56.152,0
1492696070.260,62.012,20.508,18.555,53.711,46.875,0
1492696070.264,32.715,17.090,14.648,26.855,23.926,0
1492696070.268,21.484,1.465,0.977,-3.418,14.160,0
1492696070.272,15.137,-20.508,3.418,-16.113,21.973,0
1492696070.276,29.785,-1.953,30.273,10.742,34.180,0
1492696070.280,37.109,21.484,27.344,27.344,-3.906,0
1492696070.284,54.199,2.441,17.090,17.578,4.883,0
1492696070.287,71.289,15.625,44.922,29.785,65.918,0
1492696070.291,63.965,35.645,55.176,44.434,31.250,0
1492696070.295,58.105,31.738,48.340,55.664,19.531,0
1492696070.299,48.340,20.996,43.945,61.035,47.363,0
1492696070.303,23.926,3.418,12.695,42.969,48.828,0
1492696070.307,26.855,9.277,-10.742,26.855,26.855,0
1492696070.311,30.762,4.883,-5.371,13.672,-3.418,0
1492696070.315,53.711,21.484,53.223,37.109,28.809,0
1492696070.319,69.336,29.297,65.430,31.250,48.828,0
1492696070.323,43.945,-0.977,12.695,7.324,18.066,0
1492696070.327,33.203,10.742,12.207,0.977,14.160,0
1492696070.330,42.480,28.809,44.922,2.930,34.180,0
1492696070.334,46.387,14.648,53.223,15.137,51.758,0
1492696070.338,54.199,8.301,19.043,24.902,17.090,0
1492696070.342,76.172,18.066,4.395,40.039,2.441,0
1492696070.346,51.270,2.441,29.785,31.738,38.574,0
1492696070.350,33.691,-9.766,44.922,27.832,39.551,0
1492696070.354,62.988,23.926,33.203,65.918,38.574,0
1492696070.358,81.543,62.012,17.578,101.074,45.410,0
1492696070.362,69.824,49.805,12.695,85.938,42.480,0
1492696070.366,58.105,28.320,8.789,53.223,33.203,0
1492696070.369,42.969,23.438,9.766,13.672,13.184,0
1492696070.373,38.086,17.578,58.594,23.438,25.879,0
1492696070.377,49.805,2.441,67.383,59.082,46.387,0
1492696070.381,43.457,2.441,42.480,53.711,37.109,0
1492696070.385,32.227,15.137,30.762,40.039,27.344,0
1492696070.389,40.039,20.508,41.992,35.156,43.457,0
1492696070.393,53.223,10.254,42.969,28.320,48.828,0
1492696070.397,65.430,6.348,29.297,55.664,36.133,0
1492696070.401,44.922,3.906,24.414,81.055,35.645,0
1492696070.405,23.926,12.695,20.020,65.918,59.082,0
1492696070.409,49.316,32.227,50.293,66.895,48.340,0
1492696070.412,51.270,25.391,51.270,58.105,-5.371,0
1492696070.416,50.293,28.320,36.133,60.059,-17.090,0
1492696070.420,74.707,44.922,39.062,78.125,24.902,0
1492696070.424,62.012,33.691,38.086,71.289,33.203,0
1492696070.428,47.852,9.766,47.852,69.336,27.344,0
1492696070.432,34.668,3.418,34.180,43.945,33.691,0
1492696070.436,18.555,-11.719,19.043,19.531,16.113,0
1492696070.440,21.973,-25.879,10.742,22.949,8.789,0
1492696070.444,29.785,0.977,8.301,20.996,36.133,0
1492696070.448,48.340,23.438,24.902,30.273,62.988,0
1492696070.452,71.777,24.902,43.457,49.805,65.430,0
1492696070.455,105.957,63.477,60.059,92.285,24.902,0
1492696070.459,108.887,69.824,49.316,81.055,19.531,0
1492696070.463,73.242,36.133,12.207,28.809,35.645,0
1492696070.467,45.410,18.555,-11.230,10.742,32.715,0
1492696070.471,43.945,19.043,-5.371,25.879,48.340,0
1492696070.475,52.734,18.555,42.969,32.715,48.340,0
1492696070.479,60.059,15.137,62.012,31.738,20.508,0
1492696070.483,53.711,16.113,31.250,22.949,37.598,0
1492696070.487,37.598,-3.418,23.926,2.441,59.082,0
1492696070.491,54.199,5.371,31.738,36.621,20.020,0
1492696070.494,78.613,42.969,33.203,63.965,-3.906,0
1492696070.498,60.059,31.738,20.996,58.105,26.855,0
1492696070.502,50.293,22.949,39.062,59.082,22.461,0
1492696070.506,48.828,41.504,54.688,53.223,4.883,0
1492696070.510,43.945,19.043,18.066,55.176,26.855,0
1492696070.514,29.785,-6.348,-14.648,32.227,60.059,0
1492696070.518,25.391,13.672,18.066,16.113,48.340,0
1492696070.522,53.711,41.992,43.945,43.945,45.410,0
1492696070.526,50.781,24.902,25.391,53.711,67.383,0
1492696070.530,51.270,-7.812,22.461,38.086,49.805,0
1492696070.534,60.059,22.949,72.754,48.828,29.297,0
1492696070.537,62.500,49.805,80.566,73.242,34.180,0
1492696070.541,84.473,46.387,46.387,85.449,41.992,0
1492696070.545,83.496,45.898,42.969,69.336,3.418,0
1492696070.549,49.316,16.113,14.160,42.480,6.348,0
1492696070.553,48.828,7.324,10.742,49.805,27.344,0
1492696070.557,69.824,20.508,22.949,63.965,31.738,0
1492696070.561,49.805,7.812,5.371,37.109,31.738,0
1492696070.565,51.270,24.414,12.695,43.457,23.438,0
1492696070.569,64.941,23.926,25.879,53.223,27.832,0
1492696070.573,71.289,25.879,33.691,46.387,62.500,0
1492696070.577,110.840,41.992,46.387,72.266,72.754,0
1492696070.580,109.863,46.875,59.082,80.078,31.738,0
1492696070.584,53.711,41.504,25.879,47.852,38.086,0
1492696070.588,49.805,35.645,16.113,48.340,66.406,0
1492696070.592,71.777,34.180,47.852,42.480,65.430,0
1492696070.596,71.289,26.367,42.969,29.785,33.691,0
1492696070.600,50.293,24.414,29.785,39.062,29.297,0
1492696070.604,57.129,41.016,27.344,23.438,46.875,0
1492696070.608,36.133,42.480,-7.812,5.371,36.133,0
1492696070.612,23.438,15.137,-11.230,6.348,26.367,0
1492696070.616,57.617,20.020,34.180,27.344,26.855,0
1492696070.619,64.941,38.574,37.598,31.738,43.945,0
1492696070.623,96.191,50.293,61.523,50.293,11.230,0
1492696070.627,90.332,42.480,80.078,44.434,7.324,0
1492696070.631,42.969,25.391,28.809,13.672,51.270,0
1492696070.635,20.508,9.277,-4.883,10.742,45.898,0
1492696070.639,29.297,0.488,-11.719,7.812,16.602,0
1492696070.643,46.387,11.230,22.949,7.812,-6.836,0
1492696070.647,28.809,5.371,30.762,4.883,3.906,0
1492696070.651,41.016,25.879,27.832,39.062,3.418,0
1492696070.655,87.402,61.035,45.898,77.148,1.953,0
1492696070.659,88.379,45.898,21.973,57.129,42.969,0
1492696070.662,68.359,21.973,12.695,41.504,84.961,0
1492696070.666,49.316,18.555,27.832,49.805,62.500,0
1492696070.670,46.387,23.926,31.738,44.922,52.734,0
1492696070.674,51.270,19.531,44.922,36.621,40.039,0
1492696070.678,79.102,10.254,35.645,22.949,43.945,0
1492696070.682,89.355,18.555,12.695,2.930,13.184,0
1492696070.686,88.867,45.410,41.504,40.527,8.789,0
1492696070.690,100.586,58.105,63.965,85.449,39.551,0
1492696070.694,97.656,46.875,59.082,70.312,24.902,0
1492696070.698,54.199,27.344,28.320,49.805,8.789,0
1492696070.702,52.734,17.578,5.371,44.922,8.301,0
1492696070.705,77.148,8.789,0.488,41.992,24.414,0
1492696070.709,61.035,6.836,4.883,47.363,27.832,0
1492696070.713,64.453,13.184,23.438,46.387,30.762,0
1492696070.717,54.199,14.648,37.598,47.363,34.180,0
1492696070.721,50.781,24.414,38.086,49.316,38.574,0
1492696070.725,47.363,32.227,23.438,41.504,46.875,0
1492696070.729,43.945,30.273,35.645,37.598,52.246,0
1492696070.733,78.125,59.570,60.547,70.312,19.531,0
1492696070.737,96.680,68.848,24.902,87.891,16.602,0
1492696070.741,74.707,40.527,15.625,60.059,38.574,0
1492696070.744,42.969,20.020,28.809,37.598,13.672,0
1492696070.748,47.363,4.883,32.715,31.738,13.672,0
1492696070.752,62.012,14.160,43.945,54.688,44.434,0
1492696070.756,62.988,31.250,46.387,50.293,31.738,0
1492696070.760,60.059,28.809,50.293,15.625,13.672,0
1492696070.764,38.086,4.883,29.297,10.742,24.902,0
1492696070.768,31.250,6.836,18.555,12.207,63.477,0
1492696070.772,25.391,25.879,15.137,20.996,70.801,0
1492696070.776,29.785,34.668,4.883,10.742,35.645,0
1492696070.780,54.199,48.828,5.371,14.160,35.645,0
1492696070.784,66.406,38.086,3.418,41.504,25.391,0
1492696070.787,87.402,41.992,35.156,70.312,-22.461,0
1492696070.791,82.520,41.016,41.016,69.824,-22.949,0
1492696070.795,57.617,45.898,41.992,54.688,28.809,0
1492696070.799,67.383,63.477,69.336,44.922,48.828,0
1492696070.803,36.133,20.508,33.203,7.324,28.809,0
