timestamps,TP9,AF7,AF8,TP10,Right AUX,Marker0
1492686006.766,33.203,38.086,51.758,57.129,37.598,0
1492686006.770,12.695,30.273,29.297,39.062,33.691,0
1492686006.774,44.922,46.875,100.586,58.594,61.035,0
1492686006.778,29.297,38.086,153.320,52.246,51.758,0
1492686006.782,39.551,49.805,146.973,62.988,36.133,0
1492686006.786,73.242,71.777,134.277,81.543,37.109,0
1492686006.790,49.805,53.223,117.676,66.406,13.672,0
1492686006.794,12.207,22.949,69.336,26.367,45.898,0
1492686006.798,14.648,9.277,42.969,24.414,53.223,0
1492686006.801,17.578,10.742,20.996,33.203,9.277,0
1492686006.805,22.461,18.555,-26.855,56.641,17.578,0
1492686006.809,56.152,34.180,0.977,63.477,70.312,0
1492686006.813,103.027,40.527,59.082,83.984,64.453,0
1492686006.817,101.562,41.504,110.352,104.492,39.062,0
1492686006.821,58.594,34.668,121.582,58.105,30.273,0
1492686006.825,34.180,22.461,133.301,51.270,47.852,0
1492686006.829,20.020,27.344,127.441,78.125,21.973,0
1492686006.833,35.156,30.762,99.121,63.477,-9.766,0
1492686006.837,72.754,28.809,84.961,22.461,-3.906,0
1492686006.840,59.570,17.090,52.734,42.969,-33.691,0
1492686006.844,28.809,23.926,1.465,88.867,-29.785,0
1492686006.848,50.293,42.480,-32.715,74.219,-21.973,0
1492686006.852,38.574,23.926,-10.742,28.320,-13.672,0
1492686006.856,38.086,18.066,79.102,50.293,-6.836,0
1492686006.860,73.242,18.555,122.070,59.570,-26.855,0
1492686006.864,62.500,3.906,116.699,34.180,-38.574,0
1492686006.868,17.090,1.953,110.352,37.109,-4.883,0
1492686006.872,49.805,20.996,99.121,43.945,-12.695,0
1492686006.876,114.258,40.527,71.777,53.711,-40.039,0
1492686006.880,120.605,44.434,31.250,78.125,-19.043,0
1492686006.883,97.168,30.762,-0.488,95.215,-1.953,0
1492686006.887,69.336,25.391,-33.691,69.336,4.395,0
1492686006.891,40.527,14.160,-26.367,32.715,-22.461,0
1492686006.895,77.637,7.324,36.133,21.973,-12.695,0
1492686006.899,115.234,8.301,53.223,20.996,18.066,0
1492686006.903,88.379,8.301,39.062,49.805,-4.395,0
1492686006.907,84.473,9.766,33.203,60.059,10.742,0
1492686006.911,70.312,-10.742,29.785,42.480,37.109,0
1492686006.915,23.438,-29.297,52.246,18.066,54.688,0
1492686006.919,57.129,3.906,63.477,47.363,25.391,0
1492686006.923,128.418,34.180,61.035,83.008,8.301,0
1492686006.926,141.602,11.719,85.449,62.500,19.531,0
1492686006.930,61.035,-8.789,45.410,21.484,14.648,0
1492686006.934,51.758,6.836,-35.645,18.555,19.531,0
1492686006.938,81.055,0.488,6.836,30.273,38.086,0
1492686006.942,56.152,-8.301,33.691,11.719,39.062,0
1492686006.946,88.867,6.348,2.441,8.301,28.320,0
1492686006.950,93.750,5.371,1.465,21.484,-8.301,0
1492686006.954,96.191,22.461,8.789,62.012,-19.531,0
1492686006.958,116.211,19.531,54.688,51.758,6.836,0
1492686006.962,78.613,-1.953,83.496,41.016,6.836,0
1492686006.965,52.246,-12.695,64.941,42.480,25.391,0
1492686006.969,126.953,7.812,46.387,48.340,17.090,0
1492686006.973,131.348,31.250,2.441,64.453,-14.160,0
1492686006.977,67.383,8.789,-1.953,29.785,-20.508,0
1492686006.981,67.871,3.906,44.434,16.602,-22.949,0
1492686006.985,71.777,7.812,73.730,36.621,-22.461,0
1492686006.989,68.848,-13.184,58.594,34.180,-1.953,0
1492686006.993,73.730,-30.273,45.410,-1.953,-17.578,0
1492686006.997,79.102,-13.184,17.578,33.203,-28.320,0
1492686007.001,66.895,-4.395,-12.207,55.664,-5.859,0
1492686007.005,50.781,-22.461,15.625,54.199,25.879,0
1492686007.008,60.059,-11.230,27.344,55.664,14.648,0
1492686007.012,104.492,12.207,-32.227,34.668,-15.137,0
1492686007.016,129.883,18.066,20.020,53.711,12.695,0
1492686007.020,113.770,19.043,78.613,56.641,20.508,0
1492686007.024,54.688,1.465,34.668,62.988,0.488,0
1492686007.028,33.203,-20.508,65.918,38.086,-1.465,0
1492686007.032,45.898,-23.438,124.512,10.742,25.391,0
1492686007.036,36.621,-14.160,56.152,8.301,32.715,0
1492686007.040,41.992,1.465,-3.418,6.348,20.020,0
1492686007.044,45.410,-2.441,13.184,29.297,16.602,0
1492686007.048,58.105,-2.930,3.418,47.852,48.340,0
1492686007.051,109.863,4.883,21.973,76.172,46.875,0
1492686007.055,114.746,20.020,90.332,84.473,18.555,0
1492686007.059,57.617,10.742,96.191,47.363,28.809,0
1492686007.063,51.270,-13.184,14.648,44.922,36.621,0
1492686007.067,74.707,-4.883,6.836,70.312,23.926,0
1492686007.071,71.289,-19.043,1.465,72.266,4.395,0
1492686007.075,71.777,-22.949,5.371,67.383,-11.719,0
1492686007.079,37.598,2.930,76.172,48.828,-3.906,0
1492686007.083,25.879,6.836,43.457,19.531,15.137,0
1492686007.087,105.957,18.066,-12.695,49.805,5.859,0
1492686007.090,98.145,4.883,24.902,85.938,3.418,0
1492686007.094,30.762,-0.488,100.098,60.059,22.949,0
1492686007.098,95.215,21.973,90.820,41.016,5.859,0
1492686007.102,90.820,4.883,39.551,32.227,-5.371,0
1492686007.106,27.832,-1.953,28.320,31.250,4.883,0
1492686007.110,50.781,20.996,38.086,48.340,14.648,0
1492686007.114,46.387,6.348,20.020,46.387,15.625,0
1492686007.118,25.391,-1.465,-6.348,54.199,-3.418,0
1492686007.122,41.992,21.484,23.926,77.637,-22.949,0
1492686007.126,48.340,17.090,30.273,62.988,-26.367,0
1492686007.130,36.621,-2.441,65.918,38.574,-4.883,0
1492686007.133,89.355,6.348,94.238,53.223,-18.555,0
1492686007.137,84.473,25.879,88.379,90.820,-13.184,0
1492686007.141,10.742,9.766,85.449,88.379,2.930,0
1492686007.145,21.484,-11.230,53.711,51.758,-9.766,0
1492686007.149,7.324,3.418,68.848,43.457,-0.977,0
1492686007.153,-4.395,20.508,58.105,48.340,9.766,0
1492686007.157,23.926,13.184,10.742,42.969,4.883,0
1492686007.161,13.184,0.000,5.859,49.316,-22.949,0
1492686007.165,26.367,3.418,-17.578,54.199,-28.320,0
1492686007.169,49.805,20.020,-21.484,50.293,10.254,0
1492686007.173,41.992,27.832,-10.254,47.363,24.902,0
1492686007.176,65.430,30.273,57.129,64.941,-15.137,0
1492686007.180,57.129,48.340,148.926,93.262,-7.812,0
1492686007.184,42.480,37.109,114.746,72.266,23.926,0
1492686007.188,27.344,20.996,57.617,54.199,15.137,0
1492686007.192,14.160,25.391,53.711,63.477,14.648,0
1492686007.196,28.809,5.859,3.418,47.852,16.602,0
1492686007.200,20.996,-0.488,2.441,21.484,29.297,0
1492686007.204,10.254,15.625,77.637,15.137,36.133,0
1492686007.208,17.090,29.297,96.680,31.738,19.531,0
1492686007.212,-18.066,23.438,63.477,50.781,26.367,0
1492686007.215,13.672,47.363,71.777,79.590,30.273,0
1492686007.219,79.102,72.754,42.969,74.707,0.488,0
1492686007.223,91.309,49.805,-48.828,51.270,-17.578,0
1492686007.227,33.203,19.531,-37.109,28.809,3.906,0
1492686007.231,21.484,21.484,-20.996,16.602,0.977,0
1492686007.235,68.848,37.109,46.875,64.453,-24.414,0
1492686007.239,29.785,31.738,93.262,70.801,10.254,0
1492686007.243,22.461,39.062,77.148,69.336,27.832,0
1492686007.247,57.617,44.434,108.887,66.895,4.883,0
1492686007.251,50.293,42.969,119.141,57.129,-13.184,0
1492686007.255,47.852,44.922,52.246,76.172,-35.156,0
1492686007.258,19.043,16.602,-76.172,18.555,3.418,0
1492686007.262,11.230,5.371,-69.824,15.137,33.691,0
1492686007.266,33.203,29.297,47.363,67.383,-18.066,0
1492686007.270,48.340,35.156,122.559,53.223,-42.969,0
1492686007.274,62.012,35.645,101.074,56.152,-3.906,0
1492686007.278,73.242,55.664,73.242,85.449,-3.418,0
1492686007.282,121.582,71.777,62.012,114.258,-52.734,0
1492686007.286,81.055,49.316,57.617,99.121,-33.203,0
1492686007.290,8.301,24.902,61.035,56.641,7.324,0
1492686007.294,9.277,26.367,-3.418,37.109,-7.812,0
1492686007.298,16.602,9.277,-3.906,7.812,7.324,0
1492686007.301,15.137,0.488,36.621,11.719,13.184,0
1492686007.305,9.766,17.578,73.730,62.012,-41.992,0
1492686007.309,50.781,27.344,103.516,57.617,-27.344,0
1492686007.313,90.332,39.062,99.121,87.402,-33.203,0
1492686007.317,44.922,37.109,61.035,97.656,-56.152,0
1492686007.321,52.246,50.781,35.156,73.242,-46.387,0
1492686007.325,116.211,58.105,35.156,81.543,-43.945,0
1492686007.329,92.285,26.367,49.805,50.781,-31.250,0
1492686007.333,32.227,19.043,41.016,46.875,-25.879,0
1492686007.337,35.156,25.879,51.758,58.594,-51.758,0
1492686007.340,57.129,27.344,101.074,52.734,-48.340,0
1492686007.344,41.992,58.105,104.492,51.270,-35.156,0
1492686007.348,45.410,60.059,83.984,62.012,-34.668,0
1492686007.352,50.293,26.367,49.805,61.035,-48.340,0
1492686007.356,30.762,20.508,-15.625,43.945,-94.238,0
1492686007.360,49.805,43.457,-72.754,62.988,-94.727,0
1492686007.364,82.031,76.660,-10.254,75.195,-44.434,0
1492686007.368,53.711,68.359,71.289,63.965,-52.734,0
1492686007.372,58.105,44.922,107.910,58.105,-93.262,0
1492686007.376,88.867,50.781,138.184,55.664,-88.867,0
1492686007.380,66.895,43.945,141.602,58.594,-49.805,0
1492686007.383,36.133,18.555,107.910,59.570,-76.660,0
1492686007.387,79.102,38.574,37.598,55.176,-99.121,0
1492686007.391,84.473,53.711,5.371,56.641,-70.312,0
1492686007.395,-7.324,20.996,16.602,61.035,-70.312,0
1492686007.399,-9.277,19.043,43.457,79.102,-80.078,0
1492686007.403,29.785,35.645,26.367,84.473,-99.121,0
1492686007.407,67.871,56.152,70.312,68.359,-74.707,0
1492686007.411,128.418,83.984,119.629,100.098,-58.105,0
1492686007.415,76.172,52.246,90.820,102.051,-75.195,0
1492686007.419,17.090,0.488,89.355,43.457,-57.617,0
1492686007.423,65.430,11.230,53.223,25.391,-27.344,0
1492686007.426,65.430,31.250,20.996,48.828,-25.879,0
1492686007.430,22.949,34.668,58.594,74.707,-30.762,0
1492686007.434,30.273,42.969,81.543,81.055,-34.668,0
1492686007.438,81.543,38.574,41.504,43.457,-32.227,0
1492686007.442,84.473,50.293,110.840,50.293,-60.059,0
1492686007.446,78.125,81.543,139.648,90.820,-71.289,0
1492686007.450,93.750,68.359,35.156,66.895,-34.668,0
1492686007.454,52.734,26.855,-7.324,44.922,-12.695,0
1492686007.458,19.043,-0.488,10.254,24.902,-15.625,0
1492686007.462,28.320,10.254,65.430,27.832,-51.758,0
1492686007.465,48.828,24.902,80.078,59.082,-35.156,0
1492686007.469,79.102,20.508,3.906,79.102,-1.465,0
1492686007.473,83.496,19.531,56.641,83.008,-10.742,0
1492686007.477,81.055,33.691,149.902,68.359,-8.301,0
1492686007.481,72.266,37.598,97.168,66.406,-0.977,0
1492686007.485,52.246,38.574,83.008,84.961,-23.926,0
1492686007.489,39.551,33.203,65.430,86.426,-40.039,0
1492686007.493,42.969,11.230,-40.527,42.969,-38.086,0
1492686007.497,64.453,-2.930,-26.367,24.414,-27.832,0
1492686007.501,28.809,23.438,8.789,55.664,-5.371,0
1492686007.505,8.301,31.738,-7.812,48.340,-26.367,0
1492686007.508,47.363,12.695,59.570,16.602,-40.527,0
1492686007.512,65.430,15.625,114.258,14.160,8.789,0
1492686007.516,101.562,36.621,94.238,55.176,25.879,0
1492686007.520,97.168,45.898,84.961,70.312,14.648,0
1492686007.524,57.617,42.969,34.668,72.754,26.367,0
1492686007.528,60.547,42.480,-24.414,83.496,26.367,0
1492686007.532,46.875,36.133,27.344,63.965,8.301,0
1492686007.536,67.871,36.621,74.707,54.199,8.789,0
1492686007.540,52.734,22.949,93.750,37.109,6.348,0
1492686007.544,17.578,13.672,70.312,18.555,17.578,0
1492686007.548,20.508,4.883,40.039,23.926,26.367,0
1492686007.551,6.348,-1.953,40.527,14.160,-9.277,0
1492686007.555,21.973,17.090,41.992,12.207,2.441,0
1492686007.559,57.617,49.316,75.684,62.988,45.898,0
1492686007.563,52.246,51.758,45.898,62.500,37.598,0
1492686007.567,69.336,39.062,1.465,34.180,12.207,0
1492686007.571,108.398,38.574,53.711,34.180,18.066,0
1492686007.575,72.754,18.555,155.762,32.227,23.438,0
1492686007.579,-3.418,5.371,206.055,49.316,0.000,0
1492686007.583,-8.301,1.953,188.477,30.762,10.742,0
1492686007.587,32.715,-2.930,169.434,20.996,34.668,0
1492686007.590,37.598,-2.441,118.164,59.570,50.781,0
1492686007.594,39.062,15.137,87.891,77.148,45.898,0
1492686007.598,69.824,44.434,110.840,38.086,43.945,0
1492686007.602,103.027,68.848,140.625,40.527,45.410,0
1492686007.606,96.191,60.547,150.391,46.387,32.227,0
1492686007.610,66.895,27.832,66.406,46.387,-9.766,0
1492686007.614,22.949,15.625,84.961,41.504,-34.668,0
1492686007.618,10.254,20.508,165.527,41.504,18.555,0
1492686007.622,60.547,23.438,145.996,40.527,51.758,0
1492686007.626,92.285,26.367,80.566,26.855,11.719,0
1492686007.630,52.734,19.531,77.148,41.504,-0.488,0
1492686007.633,32.715,27.832,147.461,67.871,9.766,0
1492686007.637,57.617,37.109,175.781,69.824,4.883,0
1492686007.641,80.566,20.508,122.559,57.129,4.883,0
1492686007.645,23.926,6.836,47.852,41.504,1.465,0
1492686007.649,-20.508,13.672,34.180,16.602,20.508,0
1492686007.653,45.898,38.086,43.457,38.086,20.508,0
1492686007.657,81.055,51.270,83.984,52.734,18.555,0
1492686007.661,60.547,35.156,120.117,29.297,28.809,0
1492686007.665,68.848,36.133,101.074,38.574,57.129,0
1492686007.669,109.863,56.641,134.277,54.199,35.156,0
1492686007.673,104.980,39.062,113.281,50.781,-16.602,0
1492686007.676,29.297,-0.488,70.312,19.531,-17.578,0
1492686007.680,-6.836,-20.020,74.707,4.395,13.184,0
1492686007.684,36.621,1.953,64.453,33.691,22.949,0
1492686007.688,60.547,18.555,20.020,42.480,-5.859,0
1492686007.692,59.570,12.695,35.645,26.855,4.395,0
1492686007.696,86.914,10.742,96.680,26.855,14.160,0
1492686007.700,93.750,37.598,128.906,63.965,-0.977,0
1492686007.704,77.637,53.223,129.395,72.754,-4.883,0
1492686007.708,68.848,47.363,84.473,63.477,0.977,0
1492686007.712,81.055,27.832,56.641,57.617,-4.883,0
1492686007.715,54.199,1.465,60.547,30.273,10.254,0
1492686007.719,20.996,12.207,40.527,34.180,14.648,0
1492686007.723,11.230,34.668,47.852,62.988,-7.324,0
1492686007.727,28.320,43.945,93.262,79.102,7.324,0
1492686007.731,78.613,42.480,96.191,75.684,-22.949,0
1492686007.735,69.336,27.344,22.949,35.156,-31.738,0
1492686007.739,31.250,16.602,-16.113,24.902,27.832,0
1492686007.743,32.227,7.812,46.387,30.762,4.883,0
1492686007.747,51.270,12.695,73.730,36.133,-17.578,0
1492686007.751,85.938,55.664,92.773,74.707,-16.602,0
1492686007.755,52.246,32.715,104.980,64.453,11.719,0
1492686007.758,6.348,-3.418,14.648,20.508,14.160,0
1492686007.762,55.664,15.137,-4.395,25.391,19.043,0
1492686007.766,70.312,25.879,10.742,48.340,50.293,0
1492686007.770,45.410,36.621,4.395,58.594,13.672,0
1492686007.774,29.297,26.855,36.133,50.293,0.488,0
1492686007.778,54.199,23.926,83.984,42.969,-1.465,0
1492686007.782,73.242,27.832,123.535,41.504,4.883,0
1492686007.786,61.523,29.785,117.188,44.922,0.000,0
1492686007.790,39.062,21.973,96.680,15.137,7.324,0
1492686007.794,39.551,8.789,71.289,-7.812,2.441,0
1492686007.798,46.387,26.855,22.949,39.551,0.977,0
1492686007.801,20.020,45.898,-0.488,83.984,30.273,0
1492686007.805,37.109,19.531,15.625,56.641,29.297,0
1492686007.809,95.215,19.043,55.176,34.180,38.086,0
1492686007.813,61.523,19.531,86.426,31.738,41.504,0
1492686007.817,-5.859,8.301,81.055,12.207,32.715,0
1492686007.821,25.391,30.762,89.844,4.395,23.438,0
1492686007.825,54.688,54.199,60.059,67.383,17.578,0
1492686007.829,33.691,62.012,-2.930,88.867,38.574,0
1492686007.833,68.359,58.105,31.738,37.109,20.020,0
1492686007.837,56.641,55.664,69.336,28.809,0.000,0
1492686007.840,13.184,40.527,68.848,20.996,1.465,0
1492686007.844,29.297,31.250,65.430,15.625,4.883,0
1492686007.848,45.410,41.016,59.082,28.320,5.371,0
1492686007.852,44.434,54.199,69.336,47.363,-13.672,0
1492686007.856,28.320,50.781,69.824,65.430,4.883,0
1492686007.860,70.312,62.500,46.875,65.918,18.555,0
1492686007.864,93.262,61.035,57.617,54.199,-15.625,0
1492686007.868,17.090,60.059,119.629,52.734,-50.781,0
1492686007.872,17.578,66.406,122.559,54.688,-6.836,0
1492686007.876,45.898,34.668,28.809,23.438,6.836,0
1492686007.880,38.574,31.738,-8.301,32.227,-5.371,0
1492686007.883,48.828,59.082,90.820,73.730,26.855,0
1492686007.887,71.289,66.895,116.211,55.176,11.230,0
1492686007.891,30.762,40.527,55.176,19.043,1.465,0
1492686007.895,-19.043,36.133,53.223,15.625,20.996,0
1492686007.899,18.066,38.574,83.984,26.855,15.137,0
1492686007.903,62.500,55.664,93.750,55.664,7.324,0
1492686007.907,96.680,72.266,41.992,63.477,12.207,0
1492686007.911,101.074,45.410,-37.598,47.852,-27.832,0
1492686007.915,25.391,25.391,6.348,7.324,-34.180,0
1492686007.919,32.715,32.715,131.836,0.977,-22.949,0
1492686007.923,27.832,34.668,131.836,19.531,-32.715,0
1492686007.926,-25.879,24.902,73.730,-16.602,-12.695,0
1492686007.930,40.527,32.227,78.613,-29.785,3.906,0
1492686007.934,95.215,63.477,76.172,35.645,-18.555,0
1492686007.938,47.852,61.523,79.590,59.570,-9.277,0
1492686007.942,14.160,42.480,107.910,9.766,22.949,0
1492686007.946,16.602,35.645,127.441,-0.977,-1.953,0
1492686007.950,13.184,43.945,122.559,21.973,5.859,0
1492686007.954,41.992,50.293,100.586,22.461,9.277,0
1492686007.958,61.523,43.457,45.410,9.766,-4.395,0
1492686007.962,35.156,30.762,-10.742,-17.578,3.906,0
1492686007.965,21.973,46.875,28.320,-9.766,11.719,0
1492686007.969,41.992,69.824,96.680,41.504,14.648,0
1492686007.973,9.277,45.410,98.145,28.320,-0.977,0
1492686007.977,-19.043,41.504,86.914,5.859,10.742,0
1492686007.981,0.488,79.102,101.074,11.719,27.832,0
1492686007.985,8.301,83.984,110.352,6.836,-0.488,0
1492686007.989,-2.441,43.457,74.707,-31.738,5.371,0
1492686007.993,-27.344,27.832,79.102,-36.133,51.758,0
1492686007.997,-37.109,31.738,126.953,-34.180,51.758,0
1492686008.001,-24.414,33.203,136.230,-43.945,26.855,0
1492686008.005,-4.883,37.598,110.840,-19.531,-25.391,0
1492686008.008,44.922,54.199,79.590,12.695,1.465,0
1492686008.012,46.875,68.359,34.668,14.160,28.320,0
1492686008.016,-18.066,41.504,31.738,-15.625,9.277,0
1492686008.020,-23.438,21.973,65.918,-6.348,6.348,0
1492686008.024,-4.395,48.828,56.152,8.789,36.133,0
1492686008.028,4.395,60.059,38.574,-1.953,37.109,0
1492686008.032,-22.949,37.598,62.012,-24.414,-7.812,0
1492686008.036,-17.090,23.926,96.680,-31.738,11.230,0
1492686008.040,9.766,26.855,106.934,-10.742,25.879,0
1492686008.044,16.602,49.316,103.027,17.578,-22.949,0
1492686008.048,26.367,46.875,54.688,-6.348,-26.367,0
1492686008.051,61.035,36.133,33.203,-10.254,4.395,0
1492686008.055,41.504,35.156,43.945,0.000,23.926,0
1492686008.059,-5.859,47.363,43.457,31.738,3.906,0
1492686008.063,11.719,62.012,73.730,43.945,-27.832,0
1492686008.067,53.711,51.758,62.012,18.066,-5.859,0
1492686008.071,50.293,40.527,68.359,0.000,8.789,0
1492686008.075,-10.742,31.250,112.305,-10.254,21.484,0
1492686008.079,-23.438,10.742,99.121,3.418,-11.230,0
1492686008.083,19.531,20.508,49.805,12.207,-13.672,0
1492686008.087,71.289,51.270,39.551,25.391,19.531,0
1492686008.090,91.309,57.617,83.008,34.668,-3.418,0
1492686008.094,83.984,59.082,65.918,74.219,14.160,0
1492686008.098,15.137,43.945,25.879,67.383,24.902,0
1492686008.102,6.836,31.250,52.246,20.508,17.090,0
1492686008.106,118.652,92.773,87.891,74.219,-19.531,0
1492686008.110,109.863,105.957,78.613,95.703,-18.555,0
1492686008.114,48.340,44.434,63.477,42.480,21.484,0
1492686008.118,68.848,42.480,54.199,55.176,41.504,0
1492686008.122,79.102,70.801,54.199,89.844,59.570,0
1492686008.126,65.918,76.172,67.383,90.332,44.922,0
1492686008.130,50.781,57.617,57.617,54.199,30.762,0
1492686008.133,23.438,28.809,17.578,22.949,17.090,0
1492686008.137,11.230,32.715,62.012,26.855,18.066,0
1492686008.141,81.543,69.336,166.992,54.199,4.395,0
1492686008.145,112.793,69.336,159.668,73.730,0.488,0
1492686008.149,97.168,63.477,138.184,89.355,18.066,0
1492686008.153,103.516,70.312,135.742,79.102,-4.883,0
1492686008.157,64.941,57.129,53.711,67.383,37.109,0
1492686008.161,68.359,56.641,-2.930,73.730,46.875,0
1492686008.165,85.449,58.105,42.480,53.223,-8.301,0
1492686008.169,51.758,34.668,53.711,41.016,-0.977,0
1492686008.173,56.641,31.250,36.621,73.242,1.953,0
1492686008.176,69.336,52.734,46.875,70.801,29.785,0
1492686008.180,99.609,55.176,59.082,57.129,28.320,0
1492686008.184,104.980,38.574,47.363,57.129,-7.812,0
1492686008.188,83.496,41.504,65.918,38.086,13.184,0
1492686008.192,61.523,62.012,134.277,55.176,30.273,0
1492686008.196,45.898,44.434,107.422,57.617,-8.789,0
1492686008.200,87.402,31.250,65.918,59.570,-43.457,0
1492686008.204,107.910,28.320,76.660,56.152,3.906,0
1492686008.208,95.215,28.809,59.570,74.707,2.930,0
1492686008.212,81.543,65.430,49.316,108.887,-28.320,0
1492686008.215,58.594,63.965,54.199,99.609,-26.367,0
1492686008.219,43.945,32.715,37.598,66.406,5.371,0
1492686008.223,42.969,19.531,53.711,53.223,-7.324,0
1492686008.227,75.195,23.438,58.594,76.172,-21.484,0
1492686008.231,61.523,27.344,60.059,77.637,-11.230,0
1492686008.235,72.754,56.641,103.516,62.988,0.488,0
1492686008.239,133.301,98.145,136.230,100.098,11.230,0
1492686008.243,91.797,75.195,84.961,93.750,15.137,0
1492686008.247,73.242,48.340,34.180,58.105,30.762,0
1492686008.251,85.449,43.945,75.684,60.547,47.363,0
1492686008.255,49.805,44.434,104.492,72.754,36.133,0
1492686008.258,47.363,47.852,114.258,81.543,17.578,0
1492686008.262,60.547,47.363,92.773,75.684,27.832,0
1492686008.266,59.082,47.852,69.336,69.336,32.715,0
1492686008.270,97.168,57.617,55.664,77.637,16.602,0
1492686008.274,106.934,49.805,22.949,78.125,49.316,0
1492686008.278,109.863,61.523,64.453,71.289,57.129,0
1492686008.282,117.188,59.570,151.855,72.266,35.645,0
1492686008.286,93.262,35.156,140.137,78.125,43.945,0
1492686008.290,91.309,46.875,43.945,100.586,29.785,0
1492686008.294,101.562,46.875,7.812,87.891,43.457,0
1492686008.298,54.688,27.832,61.035,61.035,36.133,0
1492686008.301,44.922,21.973,97.168,64.453,34.180,0
1492686008.305,50.781,27.832,130.371,69.336,71.289,0
1492686008.309,53.711,40.527,147.949,88.867,53.223,0
1492686008.313,99.121,44.434,133.789,91.309,43.457,0
1492686008.317,123.047,54.199,63.477,81.543,17.578,0
1492686008.321,122.559,73.730,3.418,85.449,20.996,0
1492686008.325,105.469,65.918,85.938,70.312,52.734,0
1492686008.329,76.660,43.945,143.555,48.828,44.434,0
1492686008.333,93.750,38.574,119.629,53.711,33.203,0
1492686008.337,105.469,40.527,85.938,50.293,36.621,0
1492686008.340,51.758,39.062,23.438,38.086,51.270,0
1492686008.344,16.602,31.738,20.020,20.020,44.434,0
1492686008.348,37.598,35.645,67.383,41.504,37.109,0
1492686008.352,45.898,41.016,60.547,70.312,72.754,0
1492686008.356,49.316,28.320,28.320,50.781,92.773,0
1492686008.360,54.688,21.484,65.918,39.551,113.281,0
1492686008.364,30.762,21.484,53.711,48.828,111.328,0
1492686008.368,58.105,45.410,17.578,56.641,92.285,0
1492686008.372,105.469,60.059,60.059,51.270,110.840,0
1492686008.376,107.910,40.527,75.195,43.457,105.957,0
1492686008.380,89.844,35.645,94.238,62.012,50.781,0
1492686008.383,66.406,31.250,94.727,62.500,80.078,0
1492686008.387,44.434,19.043,96.680,45.410,102.051,0
1492686008.391,24.414,14.648,66.895,25.879,51.270,0
1492686008.395,-1.953,7.812,22.949,34.668,77.148,0
1492686008.399,16.602,13.184,0.000,35.645,110.352,0
1492686008.403,26.367,20.508,41.992,24.902,106.934,0
1492686008.407,42.969,20.996,94.727,50.293,116.699,0
1492686008.411,74.707,32.715,109.863,49.805,132.812,0
1492686008.415,64.941,38.574,132.812,40.039,110.352,0
1492686008.419,46.387,34.668,70.801,52.246,75.195,0
1492686008.423,38.086,43.457,-59.082,54.688,99.121,0
1492686008.426,71.777,69.824,-16.113,55.664,101.074,0
1492686008.430,69.824,63.965,90.332,51.270,93.262,0
1492686008.434,55.664,42.969,109.375,64.941,113.281,0
1492686008.438,74.707,40.039,112.305,55.664,85.449,0
1492686008.442,68.359,29.297,96.191,16.113,122.070,0
1492686008.446,35.645,19.043,88.379,-4.395,159.668,0
1492686008.450,46.387,27.344,58.594,3.418,114.746,0
1492686008.454,58.105,47.363,41.504,16.113,112.305,0
1492686008.458,45.898,64.453,77.637,30.762,134.277,0
1492686008.462,64.453,58.594,70.801,7.324,138.184,0
1492686008.465,40.527,50.293,38.574,19.531,159.668,0
1492686008.469,15.137,65.430,34.180,78.613,144.043,0
1492686008.473,56.152,71.289,31.738,68.359,127.441,0
1492686008.477,102.539,73.730,50.293,53.223,175.293,0
1492686008.481,85.938,68.848,59.570,63.965,166.504,0
1492686008.485,60.547,26.855,16.602,24.414,130.371,0
1492686008.489,84.961,1.953,27.344,-40.039,161.621,0
1492686008.493,97.168,25.391,57.129,-4.395,182.617,0
1492686008.497,66.406,50.781,90.332,43.457,167.969,0
1492686008.501,84.473,58.594,96.191,48.340,175.781,0
1492686008.505,59.082,56.152,83.496,69.336,213.379,0
1492686008.508,29.297,49.316,112.793,70.312,221.191,0
1492686008.512,63.477,43.945,65.430,44.434,200.684,0
1492686008.516,78.125,50.293,45.410,54.688,201.172,0
1492686008.520,70.312,43.457,52.246,76.172,204.102,0
1492686008.524,71.777,1.953,18.555,21.484,186.035,0
1492686008.528,80.566,-13.672,20.508,-8.789,185.059,0
1492686008.532,34.180,-22.461,53.711,2.930,224.121,0
1492686008.536,4.395,-22.949,61.035,6.836,226.074,0
1492686008.540,23.926,-15.137,52.246,-0.488,222.168,0
1492686008.544,30.762,-3.906,19.043,31.738,252.441,0
1492686008.548,2.930,3.418,23.926,39.062,279.297,0
1492686008.551,4.395,-5.371,78.613,21.973,259.277,0
1492686008.555,35.645,5.371,82.031,31.250,239.746,0
1492686008.559,28.320,16.602,38.574,23.438,233.887,0
1492686008.563,33.203,16.602,25.879,27.344,222.168,0
1492686008.567,72.266,29.297,52.734,39.551,254.395,0
1492686008.571,84.961,30.762,85.938,26.367,234.863,0
1492686008.575,41.504,-14.648,65.918,-23.438,191.895,0
1492686008.579,8.789,-26.855,26.367,-27.832,199.219,0
1492686008.583,44.434,1.953,50.293,36.621,205.078,0
1492686008.587,63.477,0.000,49.316,60.547,199.219,0
1492686008.590,43.945,-2.930,1.465,57.129,200.684,0
1492686008.594,18.066,-0.977,-10.742,37.109,223.633,0
1492686008.598,62.988,6.836,61.035,20.508,166.992,0
1492686008.602,86.426,9.766,104.004,38.574,159.668,0
1492686008.606,69.824,15.137,83.984,38.574,183.594,0
1492686008.610,104.492,31.738,97.656,59.082,159.668,0
1492686008.614,96.191,32.715,67.383,85.449,118.652,0
1492686008.618,53.711,24.414,12.695,71.289,88.867,0
1492686008.622,58.105,6.348,46.875,41.992,94.727,0
1492686008.626,64.941,0.488,83.496,33.691,104.004,0
1492686008.630,53.711,12.207,76.660,52.246,83.984,0
1492686008.633,54.688,18.066,74.707,58.105,48.828,0
1492686008.637,72.754,30.762,125.488,52.734,74.219,0
1492686008.641,85.449,37.109,130.371,65.918,91.309,0
1492686008.645,90.332,20.020,100.098,69.336,91.797,0
1492686008.649,76.660,16.602,107.422,80.078,104.004,0
1492686008.653,82.520,22.949,82.031,83.008,114.258,0
1492686008.657,117.188,38.574,63.477,83.496,110.840,0
1492686008.661,86.426,28.809,11.719,98.633,79.102,0
1492686008.665,56.152,-7.324,7.812,46.387,61.523,0
1492686008.669,83.008,-6.836,77.148,54.199,69.824,0
1492686008.673,56.641,1.953,109.375,78.613,90.820,0
1492686008.676,40.039,12.695,98.145,78.613,47.363,0
1492686008.680,69.336,3.906,37.109,64.941,30.762,0
1492686008.684,78.613,3.906,41.504,48.828,84.961,0
1492686008.688,102.051,45.410,121.094,80.566,108.398,0
1492686008.692,106.934,45.410,143.066,92.773,49.805,0
1492686008.696,66.895,20.020,115.723,69.336,46.387,0
1492686008.700,43.945,28.320,73.730,85.938,92.773,0
1492686008.704,83.496,41.504,66.895,103.027,83.008,0
1492686008.708,109.375,39.062,104.980,93.750,42.480,0
1492686008.712,82.520,30.762,135.254,95.215,18.555,0
1492686008.715,80.078,25.879,94.727,88.379,31.250,0
1492686008.719,114.746,37.109,57.129,96.191,11.230,0
1492686008.723,110.352,41.504,100.098,89.844,-6.348,0
1492686008.727,84.961,43.945,126.953,79.102,43.457,0
1492686008.731,74.219,35.156,95.215,88.379,42.969,0
1492686008.735,73.730,11.719,57.617,69.336,0.488,0
1492686008.739,75.684,11.230,52.246,48.828,-1.953,0
1492686008.743,69.824,12.207,71.777,43.945,31.738,0
1492686008.747,58.594,20.996,91.309,71.289,47.363,0
1492686008.751,79.102,16.602,83.496,80.566,37.598,0
1492686008.755,74.707,5.371,80.566,60.547,30.762,0
1492686008.758,43.457,29.785,97.168,68.359,28.320,0
1492686008.762,52.734,32.227,93.750,47.852,52.246,0
1492686008.766,78.125,19.531,45.898,41.992,41.504,0
1492686008.770,77.148,29.785,34.668,58.105,28.809,0
1492686008.774,49.316,28.809,73.242,74.707,47.852,0
1492686008.778,19.043,9.277,110.840,36.133,56.641,0
1492686008.782,32.227,18.555,119.629,40.527,41.016,0
1492686008.786,83.008,42.969,79.102,83.984,37.109,0
1492686008.790,68.359,39.551,77.148,67.383,61.035,0
1492686008.794,88.867,33.203,101.074,77.148,42.969,0
1492686008.798,123.047,58.594,114.746,108.398,37.109,0
1492686008.801,101.074,81.543,97.656,131.836,61.523,0
1492686008.805,85.938,57.129,85.449,104.980,66.406,0
1492686008.809,96.680,49.805,126.953,87.891,24.902,0
1492686008.813,96.680,57.129,155.762,110.352,17.090,0
1492686008.817,74.707,46.875,161.621,104.980,76.172,0
1492686008.821,101.562,44.434,134.277,116.699,55.176,0
1492686008.825,133.789,56.152,108.398,133.789,15.625,0
1492686008.829,125.488,62.988,97.656,130.371,15.137,0
1492686008.833,157.715,84.961,102.051,147.949,25.879,0
1492686008.837,198.242,103.027,86.426,170.898,16.113,0
1492686008.840,127.441,55.176,78.125,124.512,1.953,0
1492686008.844,83.008,20.508,124.512,82.520,3.906,0
1492686008.848,125.488,38.086,139.160,78.125,-19.043,0
1492686008.852,142.090,64.453,135.742,109.375,-10.254,0
1492686008.856,103.516,72.266,142.578,119.141,-3.418,0
1492686008.860,96.680,56.641,137.207,95.703,-11.230,0
1492686008.864,151.855,67.871,115.234,110.352,9.766,0
1492686008.868,125.488,68.848,88.379,111.328,-1.953,0
1492686008.872,76.172,32.227,93.750,73.730,-59.082,0
1492686008.876,93.262,33.691,102.051,68.848,-61.035,0
1492686008.880,68.848,41.016,126.953,81.543,-28.320,0
1492686008.883,67.871,31.250,155.273,79.590,-31.250,0
1492686008.887,85.938,8.789,93.750,61.035,-70.801,0
1492686008.891,80.078,7.324,16.113,61.035,-49.316,0
1492686008.895,85.938,27.832,28.320,64.941,-16.113,0
1492686008.899,78.125,25.879,101.074,59.082,-54.688,0
1492686008.903,58.105,20.508,99.609,65.430,-67.383,0
1492686008.907,84.961,31.738,85.938,78.125,-70.312,0
1492686008.911,115.234,53.711,64.941,82.520,-62.988,0
1492686008.915,71.777,14.648,27.344,30.762,-49.316,0
1492686008.919,59.570,-14.648,55.176,29.297,-56.641,0
1492686008.923,111.328,26.855,107.422,73.730,-23.438,0
1492686008.926,135.742,45.410,142.578,60.059,-16.602,0
1492686008.930,91.797,18.555,88.867,47.363,-47.852,0
1492686008.934,63.477,-4.883,4.883,63.965,-53.711,0
1492686008.938,62.500,-0.977,29.297,67.383,-24.902,0
1492686008.942,97.168,29.297,78.125,81.543,1.465,0
1492686008.946,104.004,22.461,59.082,64.453,-31.250,0
1492686008.950,76.660,2.441,68.359,37.598,-40.527,0
1492686008.954,54.199,-8.301,60.547,22.949,-12.695,0
1492686008.958,79.590,-11.719,31.250,27.344,-14.160,0
1492686008.962,82.031,-14.160,37.109,37.109,-17.578,0
1492686008.965,62.012,-7.812,16.113,23.926,-12.207,0
1492686008.969,98.633,22.949,36.621,49.805,-17.090,0
1492686008.973,96.191,7.324,98.633,50.781,-27.832,0
1492686008.977,55.664,-42.969,59.082,11.719,-28.320,0
1492686008.981,67.383,-32.227,35.645,20.996,-28.809,0
1492686008.985,85.938,-6.836,40.039,26.367,-33.691,0
1492686008.989,85.938,-13.672,14.648,7.324,-42.480,0
1492686008.993,54.688,-16.113,-2.930,5.859,-35.156,0
1492686008.997,33.691,-14.648,20.020,11.719,-32.715,0
1492686009.001,44.434,-28.809,76.172,15.625,-25.391,0
1492686009.005,41.016,-42.480,57.129,-8.301,-21.484,0
1492686009.008,49.316,-38.086,46.387,-15.625,-54.199,0
1492686009.012,72.266,-24.414,78.125,2.441,-57.129,0
1492686009.016,80.566,-5.371,63.965,20.508,-45.898,0
1492686009.020,79.590,12.695,28.320,36.133,-49.805,0
1492686009.024,70.312,14.160,-37.598,23.438,-35.645,0
1492686009.028,75.684,17.090,-53.223,48.340,-33.691,0
1492686009.032,87.891,4.883,39.551,37.598,-61.035,0
1492686009.036,88.867,8.301,105.469,34.668,-88.867,0
1492686009.040,82.031,27.344,99.609,51.758,-126.465,0
1492686009.044,81.543,10.254,90.332,28.320,-105.957,0
1492686009.048,132.812,14.160,149.414,38.086,-83.984,0
1492686009.051,96.191,26.367,103.027,56.152,-118.652,0
1492686009.055,45.410,28.320,-17.090,46.875,-118.164,0
1492686009.059,56.152,20.508,36.133,59.082,-118.652,0
1492686009.063,56.152,21.484,98.145,66.895,-142.578,0
1492686009.067,57.129,20.996,46.387,42.969,-142.090,0
1492686009.071,36.621,3.418,18.555,24.414,-132.812,0
1492686009.075,64.453,6.836,30.273,20.996,-150.879,0
1492686009.079,147.949,37.109,75.195,61.523,-172.852,0
1492686009.083,152.344,77.148,76.172,86.426,-167.480,0
1492686009.087,99.609,66.895,41.016,75.684,-155.762,0
1492686009.090,74.707,40.527,69.824,72.266,-161.621,0
1492686009.094,37.598,23.438,62.500,46.875,-181.641,0
1492686009.098,26.855,13.672,62.988,1.465,-226.562,0
1492686009.102,12.695,12.207,93.750,6.348,-227.051,0
1492686009.106,48.340,23.438,64.453,47.852,-203.613,0
1492686009.110,142.578,51.270,-34.180,78.613,-241.699,0
1492686009.114,101.074,50.293,-2.441,55.664,-260.254,0
1492686009.118,-11.230,26.367,71.289,13.672,-232.910,0
1492686009.122,-14.648,2.441,44.922,-6.348,-233.398,0
1492686009.126,29.785,17.578,4.883,5.859,-249.023,0
1492686009.130,35.156,24.414,27.344,-2.930,-247.559,0
1492686009.133,7.812,5.371,43.945,-17.090,-221.191,0
1492686009.137,45.410,13.184,60.547,13.184,-227.539,0
1492686009.141,75.684,46.875,2.930,40.527,-241.211,0
1492686009.145,34.668,62.012,-53.223,21.973,-237.305,0
1492686009.149,21.484,61.523,13.184,7.324,-209.473,0
1492686009.153,21.484,58.594,62.500,32.715,-185.547,0
1492686009.157,20.020,25.391,66.406,5.859,-194.824,0
1492686009.161,41.016,31.738,85.449,-6.836,-202.148,0
1492686009.165,63.477,42.969,93.750,28.320,-182.129,0
1492686009.169,52.734,31.738,69.824,35.156,-151.367,0
1492686009.173,40.527,31.738,63.965,38.574,-141.602,0
1492686009.176,8.789,20.996,13.672,-3.906,-159.180,0
1492686009.180,7.324,14.648,-26.855,-9.277,-124.023,0
1492686009.184,59.082,4.883,28.320,13.672,-131.348,0
1492686009.188,18.066,-23.926,44.922,-45.410,-161.133,0
1492686009.192,-37.598,-27.344,-6.348,-50.293,-137.207,0
1492686009.196,-16.113,-12.695,-17.578,-20.508,-87.402,0
1492686009.200,-5.859,-14.648,14.160,-26.367,-45.410,0
1492686009.204,17.090,2.930,53.223,-0.977,-17.578,0
1492686009.208,23.926,8.789,20.020,8.301,-10.254,0
1492686009.212,11.230,4.395,-46.387,1.465,-9.277,0
1492686009.215,-6.348,-3.418,-40.039,-15.137,-1.465,0
1492686009.219,9.277,-14.160,37.109,-18.555,-1.465,0
1492686009.223,20.020,-25.879,34.668,-7.324,15.137,0
1492686009.227,-3.906,-13.184,11.230,7.324,59.082,0
1492686009.231,-3.418,10.742,83.008,5.859,46.875,0
1492686009.235,-29.785,-24.414,68.848,-20.996,37.598,0
1492686009.239,-33.203,-47.852,17.090,-30.273,66.895,0
1492686009.243,29.785,-20.996,0.977,-11.230,68.359,0
1492686009.247,74.219,2.441,-29.785,23.926,89.355,0
1492686009.251,28.809,-15.137,-4.883,33.691,71.777,0
1492686009.255,-43.945,-49.805,50.781,25.391,62.988,0
1492686009.258,-67.871,-66.895,61.035,-1.953,95.215,0
1492686009.262,-27.344,-40.527,31.250,-12.695,100.098,0
1492686009.266,28.809,-0.488,-16.602,13.672,84.473,0
1492686009.270,39.551,-17.090,0.977,20.020,83.008,0
1492686009.274,-22.949,-58.105,73.730,-5.859,102.051,0
1492686009.278,-57.129,-71.289,72.754,-33.691,98.145,0
1492686009.282,0.000,-48.340,10.254,-7.812,92.285,0
1492686009.286,20.020,-11.719,-64.941,41.992,111.816,0
1492686009.290,8.301,-1.953,-99.609,46.875,111.328,0
1492686009.294,18.066,-13.184,-42.480,18.555,92.773,0
1492686009.298,35.645,-10.254,71.289,13.184,108.398,0
1492686009.301,70.801,12.695,83.008,35.156,120.605,0
1492686009.305,48.340,-5.859,64.453,9.766,91.309,0
1492686009.309,-14.648,-36.133,16.602,-20.996,83.984,0
1492686009.313,19.531,1.953,-30.762,-0.488,81.543,0
1492686009.317,32.715,-11.719,-31.738,-10.742,56.641,0
1492686009.321,15.137,-15.625,23.926,15.625,36.133,0
1492686009.325,5.371,5.859,92.285,42.969,24.902,0
1492686009.329,2.930,-14.648,68.848,-9.766,53.223,0
1492686009.333,28.809,-16.113,50.781,-21.484,69.336,0
1492686009.337,28.320,-19.531,35.156,-10.742,45.410,0
1492686009.340,8.789,-23.438,6.348,-2.441,6.836,0
1492686009.344,-3.906,0.488,-32.715,16.602,5.371,0
1492686009.348,24.902,16.113,-40.527,38.574,4.395,0
1492686009.352,59.570,44.922,39.551,40.039,2.441,0
1492686009.356,61.035,49.316,87.891,23.926,3.906,0
1492686009.360,26.855,-5.371,66.406,9.766,8.301,0
1492686009.364,7.324,-35.156,66.406,-1.953,-2.441,0
1492686009.368,57.617,-15.137,61.523,-3.906,-12.695,0
1492686009.372,47.852,-11.230,-7.812,-4.883,-8.789,0
1492686009.376,13.672,-11.230,-30.762,2.930,-24.414,0
1492686009.380,39.062,16.602,2.930,34.668,-41.504,0
1492686009.383,65.430,35.156,20.020,56.152,-40.039,0
1492686009.387,49.805,1.953,25.879,15.625,-10.742,0
1492686009.391,12.695,-16.113,86.914,-7.812,4.395,0
1492686009.395,5.371,1.465,80.078,17.090,-22.949,0
1492686009.399,10.254,1.953,-6.836,23.926,-47.852,0
1492686009.403,9.277,-2.441,18.066,6.348,-31.250,0
1492686009.407,13.184,8.301,22.461,17.578,-17.090,0
1492686009.411,47.852,22.461,13.184,42.969,-26.367,0
1492686009.415,90.332,38.086,-5.859,58.594,-28.809,0
1492686009.419,34.180,19.043,6.348,38.574,-23.926,0
1492686009.423,14.648,0.488,69.336,21.484,-9.277,0
1492686009.426,65.918,17.090,116.211,20.508,-7.812,0
1492686009.430,68.359,17.090,118.164,25.879,-30.762,0
1492686009.434,46.875,23.926,63.477,39.062,-41.504,0
1492686009.438,3.418,6.348,33.691,15.137,-20.020,0
1492686009.442,5.371,-24.414,-13.184,-16.602,4.395,0
1492686009.446,42.969,6.348,-26.367,29.297,6.348,0
1492686009.450,33.203,26.367,18.555,62.012,-8.789,0
1492686009.454,44.922,8.789,10.742,37.598,-36.133,0
1492686009.458,86.914,1.465,1.953,21.484,-26.367,0
1492686009.462,22.949,-3.906,2.441,12.695,-22.461,0
1492686009.465,-3.418,21.484,38.086,20.508,-17.090,0
1492686009.469,85.449,69.336,72.266,72.266,-37.598,0
1492686009.473,74.707,48.828,81.055,72.266,-71.289,0
1492686009.477,18.066,3.418,82.031,4.883,4.883,0
1492686009.481,25.391,2.930,52.246,-2.930,36.621,0
1492686009.485,31.738,15.625,57.617,18.555,-0.977,0
1492686009.489,39.551,17.090,74.707,8.301,-16.602,0
1492686009.493,31.738,10.742,59.570,-5.371,-2.441,0
1492686009.497,13.184,12.207,7.324,5.859,20.020,0
1492686009.501,45.410,36.621,-24.902,26.855,-12.207,0
1492686009.505,73.242,44.434,51.758,19.043,-12.207,0
1492686009.508,43.945,15.625,70.801,1.465,4.883,0
1492686009.512,33.691,16.602,58.594,5.371,20.020,0
1492686009.516,73.242,32.715,58.594,18.555,32.227,0
1492686009.520,60.547,13.184,14.160,26.855,17.090,0
1492686009.524,11.230,-20.020,-32.227,-10.254,22.461,0
1492686009.528,18.066,-13.184,13.184,-15.625,35.645,0
1492686009.532,10.254,13.184,106.934,13.672,17.578,0
1492686009.536,0.000,23.438,70.312,-0.488,23.438,0
1492686009.540,51.758,29.297,20.996,32.227,41.016,0
1492686009.544,95.703,33.691,-1.465,71.289,49.316,0
1492686009.548,69.824,31.738,4.395,46.387,41.504,0
1492686009.551,49.316,40.527,37.109,35.645,19.043,0
1492686009.555,47.363,31.250,51.758,23.926,9.277,0
1492686009.559,20.996,15.137,58.594,7.812,4.395,0
1492686009.563,8.789,10.254,49.316,5.859,4.883,0
1492686009.567,32.227,2.441,73.242,-6.836,25.391,0
1492686009.571,40.039,20.020,82.520,19.043,23.926,0
1492686009.575,42.969,26.855,54.199,18.555,3.418,0
1492686009.579,48.828,17.578,45.410,12.207,13.672,0
1492686009.583,35.645,45.410,44.434,65.430,35.156,0
1492686009.587,28.809,44.922,21.484,67.383,34.180,0
1492686009.590,51.270,4.883,-30.762,34.668,35.156,0
1492686009.594,34.668,2.930,-1.953,37.598,47.363,0
1492686009.598,0.000,6.836,22.949,18.066,44.922,0
1492686009.602,46.387,9.277,40.527,2.930,37.598,0
1492686009.606,31.250,21.484,56.152,16.602,3.906,0
1492686009.610,-10.254,15.137,65.430,-8.301,17.090,0
1492686009.614,11.719,9.766,86.426,-15.137,57.617,0
1492686009.618,6.836,-1.465,41.016,-5.859,32.227,0
1492686009.622,46.875,14.160,-7.812,15.625,21.484,0
1492686009.626,66.895,40.039,-17.090,44.922,33.691,0
1492686009.630,43.945,21.973,20.996,27.344,65.918,0
1492686009.633,40.527,14.648,84.961,44.922,53.711,0
1492686009.637,49.805,24.414,78.125,59.082,15.625,0
1492686009.641,32.227,-0.488,69.824,28.809,30.762,0
1492686009.645,20.996,-22.949,80.078,-5.859,42.480,0
1492686009.649,26.855,-1.953,47.852,-5.371,12.207,0
1492686009.653,33.691,-2.930,53.711,2.441,-6.836,0
1492686009.657,47.852,-0.977,77.148,25.391,21.484,0
1492686009.661,52.246,7.812,-13.184,41.504,38.574,0
1492686009.665,38.086,-5.859,-62.988,14.648,35.645,0
1492686009.669,33.691,13.672,16.602,35.645,37.109,0
1492686009.673,46.875,19.043,36.133,59.082,43.945,0
1492686009.676,36.133,-14.160,40.527,18.066,11.230,0
1492686009.680,26.367,-2.930,92.773,-3.906,-5.371,0
1492686009.684,23.438,24.902,140.137,14.160,-0.488,0
1492686009.688,49.316,23.438,79.590,42.969,16.113,0
1492686009.692,47.852,11.719,-7.812,34.180,14.160,0
1492686009.696,30.762,5.371,12.207,-2.930,-15.625,0
1492686009.700,50.781,6.348,23.926,-0.977,-25.391,0
1492686009.704,31.250,2.441,35.645,0.000,17.090,0
1492686009.708,16.113,17.090,48.828,13.672,20.508,0
1492686009.712,40.527,34.668,16.113,29.785,-14.648,0
1492686009.715,55.664,35.645,28.320,31.250,1.465,0
1492686009.719,34.668,24.902,69.824,24.414,18.066,0
1492686009.723,37.598,17.578,31.250,31.738,-20.508,0
1492686009.727,41.016,29.297,30.762,52.246,-35.156,0
1492686009.731,4.395,26.855,92.773,35.156,-8.301,0
1492686009.735,28.809,18.066,83.496,24.414,1.465,0
1492686009.739,72.266,32.227,1.465,63.477,-9.766,0
1492686009.743,56.152,14.160,-65.918,59.082,-42.480,0
1492686009.747,25.879,1.953,-55.664,25.391,-28.320,0
1492686009.751,26.367,8.301,56.641,16.113,-10.742,0
1492686009.755,38.574,0.488,124.512,3.906,-15.625,0
1492686009.758,28.809,11.719,82.031,33.691,-16.602,0
1492686009.762,47.363,32.227,11.230,62.012,3.906,0
1492686009.766,47.363,24.902,8.301,35.645,25.879,0
1492686009.770,13.184,12.695,77.637,18.066,12.695,0
1492686009.774,17.578,30.762,113.770,41.504,11.230,0
1492686009.778,15.625,14.160,77.637,23.438,30.762,0
1492686009.782,17.090,-2.930,25.391,-2.930,3.418,0
1492686009.786,31.738,14.648,-68.848,12.207,-12.207,0
1492686009.790,44.434,32.715,-64.453,44.922,-19.531,0
1492686009.794,72.266,43.945,69.336,56.641,-35.645,0
1492686009.798,41.992,28.809,53.223,34.668,-27.832,0
1492686009.801,-8.301,18.555,13.184,20.020,-42.480,0
1492686009.805,-16.602,26.855,73.730,14.160,-60.547,0
1492686009.809,11.230,29.297,67.871,10.254,-0.977,0
1492686009.813,45.898,17.578,58.594,11.719,4.395,0
1492686009.817,49.316,25.879,71.777,16.113,-60.059,0
1492686009.821,20.020,17.578,65.430,25.879,-17.090,0
1492686009.825,10.742,-5.371,56.641,23.926,8.789,0
1492686009.829,59.082,21.484,68.359,45.898,-25.391,0
1492686009.833,44.922,39.062,37.109,49.316,-33.203,0
1492686009.837,28.320,23.438,-15.625,30.273,-15.625,0
1492686009.840,35.156,5.859,14.160,14.648,-11.719,0
1492686009.844,1.465,2.441,49.316,3.906,-19.531,0
1492686009.848,-4.395,5.859,-27.344,-20.508,-17.578,0
1492686009.852,38.086,22.461,-53.711,2.441,-4.883,0
1492686009.856,41.016,46.875,35.645,42.480,-8.301,0
1492686009.860,6.348,12.207,60.059,19.043,-9.277,0
1492686009.864,7.324,-3.906,61.035,18.555,-20.996,0
1492686009.868,36.621,44.434,93.750,28.320,-12.695,0
1492686009.872,42.480,57.129,66.406,12.695,14.648,0
1492686009.876,22.461,22.461,23.438,-15.625,13.672,0
1492686009.880,5.371,-7.812,-19.043,-27.344,-13.184,0
1492686009.883,23.926,-10.254,-44.434,-22.949,-19.043,0
1492686009.887,50.293,2.930,1.465,5.859,-2.930,0
1492686009.891,32.715,9.766,73.730,26.367,-15.137,0
1492686009.895,41.504,19.043,51.270,24.414,-27.344,0
1492686009.899,68.848,38.086,9.766,37.109,18.066,0
1492686009.903,40.039,20.996,63.965,22.949,19.531,0
1492686009.907,0.977,-13.184,83.984,-1.465,-14.648,0
1492686009.911,13.184,-3.418,82.031,14.648,2.441,0
1492686009.915,52.246,19.531,22.949,20.996,16.602,0
1492686009.919,70.312,32.227,-35.156,45.410,13.184,0
1492686009.923,22.949,20.508,12.207,37.598,-4.395,0
1492686009.926,-20.508,-11.719,58.594,1.953,-8.789,0
1492686009.930,2.930,-7.324,46.875,15.137,7.324,0
1492686009.934,66.406,53.223,39.551,88.867,-13.672,0
1492686009.938,77.637,53.711,56.152,89.355,-43.945,0
1492686009.942,25.391,-5.859,47.852,22.461,-1.465,0
1492686009.946,16.602,-34.668,50.781,15.625,22.461,0
1492686009.950,10.742,-31.250,67.871,11.230,32.227,0
1492686009.954,20.508,-4.395,17.090,12.207,7.324,0
1492686009.958,52.734,23.926,-18.555,41.504,-6.836,0
1492686009.962,54.688,23.926,21.973,38.574,26.855,0
1492686009.965,20.508,11.230,17.578,33.691,43.945,0
1492686009.969,58.105,40.039,22.949,68.848,39.062,0
1492686009.973,91.797,43.945,46.387,34.180,27.832,0
1492686009.977,72.266,15.625,83.496,-8.301,23.926,0
1492686009.981,70.801,13.672,96.680,26.367,-11.719,0
1492686009.985,47.363,6.836,9.277,27.344,-43.457,0
1492686009.989,20.020,5.859,-13.672,1.953,12.695,0
1492686009.993,18.555,9.277,28.809,4.883,30.762,0
1492686009.997,31.738,0.977,-3.906,7.324,1.953,0
1492686010.001,55.176,24.902,45.898,30.273,18.066,0
1492686010.005,42.480,29.785,66.895,31.250,27.344,0
1492686010.008,16.113,-8.301,-16.113,-4.395,21.484,0
1492686010.012,13.184,-7.324,-15.625,6.348,9.766,0
1492686010.016,41.992,13.672,1.953,22.461,26.855,0
1492686010.020,62.012,19.043,0.000,25.879,38.574,0
1492686010.024,42.969,18.555,75.684,24.902,1.953,0
1492686010.028,44.922,15.625,118.652,15.137,-23.926,0
1492686010.032,51.270,28.809,78.613,37.598,-5.371,0
1492686010.036,60.547,55.664,84.473,53.711,12.207,0
1492686010.040,47.363,45.410,41.016,44.434,-3.418,0
1492686010.044,33.691,12.207,-16.113,27.832,-13.184,0
1492686010.048,60.059,4.395,-0.488,16.602,20.020,0
1492686010.051,81.543,15.625,53.711,16.602,14.160,0
1492686010.055,55.664,20.020,80.566,45.410,-6.836,0
1492686010.059,12.207,21.484,53.223,51.270,5.859,0
1492686010.063,50.781,19.043,34.180,45.898,4.883,0
1492686010.067,108.398,26.367,42.969,57.129,-12.207,0
1492686010.071,105.469,48.828,31.738,84.473,-20.996,0
1492686010.075,100.098,62.988,-5.371,111.328,-27.344,0
1492686010.079,63.965,26.855,10.254,76.172,-24.902,0
1492686010.083,17.090,6.836,44.922,57.617,0.488,0
1492686010.087,30.273,20.020,44.434,67.871,15.137,0
1492686010.090,56.641,34.180,32.227,54.199,-0.977,0
1492686010.094,57.129,33.691,34.668,58.594,6.836,0
1492686010.098,68.359,34.180,33.203,62.500,16.113,0
1492686010.102,85.449,25.391,2.930,49.805,-1.953,0
1492686010.106,72.266,8.301,-29.785,29.297,-9.277,0
1492686010.110,46.875,7.324,61.035,34.668,20.020,0
1492686010.114,59.082,8.789,129.395,51.758,9.277,0
1492686010.118,60.059,-5.859,77.637,27.344,-15.625,0
1492686010.122,42.969,2.441,58.594,20.996,19.043,0
1492686010.126,33.203,28.809,16.602,40.527,30.762,0
1492686010.130,38.086,27.832,-34.180,38.086,9.277,0
1492686010.133,60.547,21.484,-61.523,33.691,-1.953,0
1492686010.137,62.500,29.297,-16.602,44.922,7.812,0
1492686010.141,68.359,37.598,80.078,54.199,1.465,0
1492686010.145,21.484,3.906,73.242,19.043,-11.230,0
1492686010.149,11.230,-11.719,45.410,6.348,-11.230,0
1492686010.153,64.941,13.184,-10.254,37.598,-11.719,0
1492686010.157,55.664,25.391,12.695,52.246,-0.977,0
1492686010.161,37.598,28.809,50.781,69.336,-18.555,0
1492686010.165,63.965,24.414,52.246,74.707,-37.598,0
1492686010.169,74.219,17.090,25.879,74.707,-22.461,0
1492686010.173,52.734,19.531,-3.906,57.129,-19.531,0
1492686010.176,69.336,20.996,51.270,40.039,-49.805,0
1492686010.180,67.383,7.812,117.676,33.203,-32.227,0
1492686010.184,55.176,-7.324,93.750,16.113,17.578,0
1492686010.188,33.203,-4.883,14.648,35.645,-3.906,0
1492686010.192,11.230,11.230,-7.812,81.055,-25.879,0
1492686010.196,41.992,12.695,42.969,44.922,-23.438,0
1492686010.200,42.969,7.812,49.316,26.855,-3.906,0
1492686010.204,29.785,16.113,27.344,71.289,-24.902,0
1492686010.208,47.852,20.020,19.043,56.641,-23.438,0
1492686010.212,56.152,13.184,-38.086,40.527,0.000,0
1492686010.215,69.824,20.020,0.488,35.156,13.672,0
1492686010.219,55.664,19.531,88.867,34.668,-9.277,0
1492686010.223,47.363,11.719,92.773,37.598,-62.500,0
1492686010.227,51.270,12.695,85.938,35.156,-38.086,0
1492686010.231,73.242,17.578,69.336,37.598,1.465,0
1492686010.235,75.195,4.883,-1.953,41.504,-26.367,0
1492686010.239,23.438,-16.602,-63.965,34.180,-34.180,0
1492686010.243,14.160,-16.113,-0.488,14.648,-11.719,0
1492686010.247,23.438,-27.832,74.219,-4.395,-2.930,0
1492686010.251,31.250,-11.230,34.180,8.301,13.184,0
1492686010.255,33.203,7.324,59.570,8.301,2.930,0
1492686010.258,32.227,-2.930,68.848,7.812,1.953,0
1492686010.262,73.730,15.137,5.859,52.246,-13.184,0
1492686010.266,47.852,7.324,58.594,41.992,-45.898,0
1492686010.270,6.836,-10.742,56.641,44.434,-45.410,0
1492686010.274,24.902,-15.137,0.488,13.672,-28.320,0
1492686010.278,21.484,-26.855,12.207,-5.371,0.000,0
1492686010.282,0.977,-39.551,6.836,21.484,7.324,0
1492686010.286,29.297,-39.062,0.000,8.789,-10.254,0
1492686010.290,83.984,3.906,28.320,25.879,-7.324,0
1492686010.294,97.656,26.367,54.199,52.734,0.488,0
1492686010.298,75.684,-0.488,58.594,35.645,-14.160,0
1492686010.301,37.598,-26.855,35.156,42.480,-23.438,0
1492686010.305,34.668,-12.207,2.441,32.227,-16.113,0
1492686010.309,28.320,10.254,45.410,24.902,2.930,0
1492686010.313,46.387,5.859,71.777,30.762,0.977,0
1492686010.317,49.316,7.324,69.336,27.344,-9.277,0
1492686010.321,-2.930,9.277,77.637,26.367,26.367,0
1492686010.325,12.695,3.418,56.152,14.648,57.129,0
1492686010.329,34.668,9.277,3.906,16.113,14.160,0
1492686010.333,44.922,23.926,-24.414,23.926,-4.395,0
1492686010.337,72.266,26.367,0.000,33.691,20.020,0
1492686010.340,70.801,8.301,-31.250,29.297,-27.832,0
1492686010.344,20.020,-12.207,-14.160,16.602,-28.809,0
1492686010.348,1.465,-10.742,59.082,0.000,3.418,0
1492686010.352,35.156,21.484,57.617,15.625,10.254,0
1492686010.356,58.594,40.527,57.129,39.062,-31.250,0
1492686010.360,38.574,27.832,79.102,1.465,-54.688,0
1492686010.364,35.645,7.324,53.223,-13.672,-1.465,0
1492686010.368,61.523,12.207,49.805,7.324,-12.207,0
1492686010.372,48.828,19.531,24.902,15.625,-25.879,0
1492686010.376,27.832,5.371,-14.648,12.695,-16.113,0
1492686010.380,20.020,11.230,16.602,3.906,-14.648,0
1492686010.383,20.508,26.855,39.551,20.508,-2.441,0
1492686010.387,42.480,16.602,15.137,28.320,-2.441,0
1492686010.391,26.367,4.395,-49.316,6.348,-7.324,0
1492686010.395,-1.953,2.441,-20.996,-15.625,-3.418,0
1492686010.399,20.508,9.277,62.988,-21.973,7.812,0
1492686010.403,54.688,35.156,61.035,22.461,3.418,0
1492686010.407,64.453,35.645,7.324,46.387,12.695,0
1492686010.411,45.410,29.297,23.926,30.273,33.691,0
1492686010.415,33.203,33.203,69.336,35.156,2.930,0
1492686010.419,29.297,29.297,62.500,41.504,11.230,0
1492686010.423,46.387,31.250,44.434,44.922,72.266,0
1492686010.426,70.312,30.273,37.598,53.223,80.078,0
1492686010.430,83.984,16.602,43.945,48.828,55.664,0
1492686010.434,77.637,24.414,35.156,47.363,58.594,0
1492686010.438,10.254,11.230,5.371,11.230,87.402,0
1492686010.442,9.766,-9.277,-59.570,-5.859,104.004,0
1492686010.446,55.664,8.789,-104.004,44.434,69.336,0
1492686010.450,51.758,37.598,8.301,73.730,36.133,0
1492686010.454,53.223,39.551,133.301,71.289,78.125,0
1492686010.458,63.965,26.367,132.812,60.059,80.078,0
1492686010.462,52.734,25.879,110.352,34.180,51.758,0
1492686010.465,47.852,28.809,55.176,35.156,37.109,0
1492686010.469,33.203,26.367,1.953,23.438,53.711,0
1492686010.473,17.578,12.695,-18.066,9.766,89.355,0
1492686010.477,8.789,12.207,24.414,11.230,77.637,0
1492686010.481,7.812,29.785,49.316,6.836,86.914,0
1492686010.485,64.941,52.734,50.781,53.711,69.336,0
1492686010.489,74.219,39.551,42.480,20.996,28.809,0
1492686010.493,35.645,21.484,5.859,-10.254,17.090,0
1492686010.497,-6.836,5.371,13.184,3.418,58.594,0
1492686010.501,-12.207,-8.301,56.152,-0.488,71.777,0
1492686010.505,3.418,-1.953,35.156,0.977,25.391,0
1492686010.508,59.082,30.273,7.812,35.645,32.227,0
1492686010.512,57.617,30.762,33.691,14.160,32.227,0
1492686010.516,8.301,-3.418,18.555,-10.254,37.109,0
1492686010.520,-9.766,-20.508,10.742,6.348,44.434,0
1492686010.524,-12.695,-12.207,12.695,-5.859,23.926,0
1492686010.528,-0.977,-9.766,-6.348,-19.531,45.410,0
1492686010.532,-20.996,-27.344,28.809,-44.434,71.777,0
1492686010.536,4.395,-9.766,88.867,-31.250,24.414,0
1492686010.540,34.668,9.277,33.203,7.324,5.859,0
1492686010.544,57.617,12.695,-20.020,29.785,42.969,0
1492686010.548,71.289,15.625,-0.488,34.668,36.621,0
1492686010.551,42.969,3.906,-11.230,15.625,15.625,0
1492686010.555,6.348,-4.395,-21.484,-3.418,43.945,0
1492686010.559,26.855,3.906,33.203,10.742,50.781,0
1492686010.563,25.391,-1.465,84.961,-21.484,54.199,0
1492686010.567,4.883,-11.719,22.461,-32.227,58.594,0
1492686010.571,28.809,3.906,1.953,-14.648,43.945,0
1492686010.575,10.254,20.020,99.609,6.348,34.668,0
1492686010.579,4.395,11.719,68.848,12.695,19.043,0
1492686010.583,10.254,-7.812,26.367,-18.555,34.668,0
1492686010.587,45.410,5.371,31.738,-3.906,37.109,0
1492686010.590,80.078,24.414,-25.879,-4.395,39.551,0
1492686010.594,21.484,16.113,-29.297,-13.184,20.996,0
1492686010.598,-17.578,7.812,0.488,-5.859,-12.695,0
1492686010.602,-5.371,-11.719,40.527,-10.254,-1.465,0
1492686010.606,18.555,-10.254,94.727,-11.719,25.879,0
1492686010.610,-13.184,-13.184,84.961,-22.461,50.781,0
1492686010.614,-0.488,-1.465,22.949,0.000,59.570,0
1492686010.618,38.574,10.254,-31.738,11.719,54.199,0
1492686010.622,40.039,6.836,8.789,-7.812,41.504,0
1492686010.626,42.969,9.766,85.449,6.348,30.762,0
1492686010.630,-10.742,7.812,81.543,37.598,29.785,0
1492686010.633,1.953,9.766,32.227,16.113,40.527,0
1492686010.637,31.738,7.324,10.254,-11.719,37.109,0
1492686010.641,5.859,6.348,-22.949,14.160,29.297,0
1492686010.645,21.973,12.207,-2.930,25.879,56.641,0
1492686010.649,25.879,0.488,60.547,20.020,78.613,0
1492686010.653,14.648,12.207,84.473,22.949,71.777,0
1492686010.657,23.438,20.020,62.012,26.855,81.543,0
1492686010.661,16.602,3.906,5.859,12.695,82.031,0
1492686010.665,39.551,17.578,-10.742,35.156,75.684,0
1492686010.669,59.082,31.250,33.691,28.809,68.848,0
1492686010.673,29.297,25.879,54.688,2.441,62.012,0
1492686010.676,31.250,58.594,30.273,80.566,55.664,0
1492686010.680,52.734,99.121,64.453,140.137,66.406,0
1492686010.684,24.902,50.293,106.934,60.059,45.898,0
1492686010.688,10.254,-0.977,49.805,-33.691,26.367,0
1492686010.692,24.414,14.160,1.953,0.977,78.613,0
1492686010.696,20.508,13.184,50.781,47.852,102.051,0
1492686010.700,56.641,17.090,49.805,19.043,81.055,0
1492686010.704,66.406,21.484,58.105,30.273,80.078,0
1492686010.708,41.504,32.715,71.777,76.660,89.844,0
1492686010.712,51.758,68.848,73.242,74.707,74.707,0
1492686010.715,35.156,61.035,132.812,52.734,78.613,0
1492686010.719,1.953,24.902,116.211,37.598,70.312,0
1492686010.723,41.992,21.973,19.043,41.016,38.574,0
1492686010.727,40.527,20.996,13.672,35.645,50.293,0
1492686010.731,4.883,0.488,102.539,-18.066,23.438,0
1492686010.735,38.574,2.441,109.863,-47.852,14.648,0
1492686010.739,53.223,20.996,31.738,-12.695,60.059,0
1492686010.743,19.043,33.203,17.090,38.574,41.992,0
1492686010.747,5.371,39.551,59.082,20.508,11.719,0
1492686010.751,30.273,54.688,79.102,19.531,9.277,0
1492686010.755,43.457,51.270,78.613,41.016,0.488,0
1492686010.758,19.043,41.504,101.074,6.836,-23.438,0
1492686010.762,14.648,50.781,109.375,-9.277,-29.297,0
1492686010.766,26.855,51.270,82.031,9.766,-10.254,0
1492686010.770,29.297,38.086,24.902,28.320,-18.066,0
1492686010.774,64.453,68.359,-2.441,37.598,-55.176,0
1492686010.778,57.129,78.613,8.789,36.621,-58.105,0
1492686010.782,32.227,35.645,44.922,-1.465,-40.039,0
1492686010.786,47.852,37.598,140.625,-6.348,-45.410,0
1492686010.790,48.340,49.805,195.801,18.555,-60.547,0
1492686010.794,66.895,53.223,135.742,27.344,-63.965,0
1492686010.798,82.520,56.152,48.340,21.973,-40.527,0
1492686010.801,85.938,47.852,-5.859,16.113,-54.199,0
1492686010.805,102.539,77.637,30.762,37.598,-60.059,0
1492686010.809,117.676,114.746,58.105,73.242,-62.012,0
1492686010.813,110.352,98.633,58.105,88.867,-60.547,0
1492686010.817,96.191,75.195,97.168,65.430,-32.715,0
1492686010.821,85.938,68.848,80.566,47.852,-29.785,0
1492686010.825,114.258,77.148,86.426,50.293,-31.250,0
1492686010.829,132.324,76.172,128.906,72.754,18.066,0
1492686010.833,106.934,50.781,69.824,56.641,-18.555,0
1492686010.837,147.461,73.730,48.828,65.918,-48.828,0
1492686010.840,143.066,84.473,75.684,105.469,2.930,0
1492686010.844,116.699,53.223,34.668,77.148,-4.883,0
1492686010.848,153.809,53.223,67.383,66.406,-18.555,0
1492686010.852,182.129,74.219,83.496,94.238,-6.348,0
1492686010.856,215.820,103.516,52.246,119.629,0.000,0
1492686010.860,210.449,118.164,56.152,119.629,16.113,0
1492686010.864,161.133,91.309,40.039,96.191,21.484,0
1492686010.868,168.945,88.379,41.016,87.402,-16.113,0
1492686010.872,204.102,125.488,126.465,127.930,-2.441,0
1492686010.876,211.426,126.953,145.508,115.723,39.062,0
1492686010.880,216.309,100.098,87.402,99.609,24.414,0
1492686010.883,187.988,96.191,97.168,117.188,8.301,0
1492686010.887,191.406,132.812,150.879,133.301,43.457,0
1492686010.891,228.027,145.996,118.164,141.602,37.109,0
1492686010.895,191.895,136.719,59.082,131.348,50.781,0
1492686010.899,187.988,163.086,125.977,147.949,73.242,0
1492686010.903,218.262,174.316,145.996,160.645,41.992,0
1492686010.907,166.016,128.906,64.941,121.094,37.598,0
1492686010.911,111.816,96.191,85.938,107.422,51.270,0
1492686010.915,161.621,103.027,131.836,96.191,67.871,0
1492686010.919,155.762,92.773,129.883,71.289,68.848,0
1492686010.923,104.492,89.355,126.465,89.355,50.293,0
1492686010.926,123.047,102.539,94.238,117.188,59.082,0
1492686010.930,121.582,123.047,90.820,130.371,59.570,0
1492686010.934,117.676,131.836,72.266,132.324,52.246,0
1492686010.938,145.020,136.719,96.680,131.348,52.734,0
1492686010.942,153.320,138.672,133.789,125.488,37.109,0
1492686010.946,129.395,117.188,59.570,100.098,40.527,0
1492686010.950,98.145,100.586,31.250,90.332,96.680,0
1492686010.954,137.695,131.836,117.188,112.305,116.211,0
1492686010.958,170.898,164.551,202.148,155.273,93.262,0
1492686010.962,118.652,124.512,160.156,134.277,96.680,0
1492686010.965,117.188,106.445,81.055,83.984,102.051,0
1492686010.969,142.090,111.816,104.004,77.637,111.816,0
1492686010.973,67.871,71.777,91.797,54.199,104.980,0
1492686010.977,84.473,81.055,41.992,50.781,114.746,0
1492686010.981,150.391,121.582,68.848,106.934,125.488,0
1492686010.985,153.320,131.348,144.043,144.043,90.820,0
1492686010.989,149.902,144.531,147.949,159.668,69.824,0
1492686010.993,98.145,111.328,71.777,124.023,103.027,0
1492686010.997,60.059,67.383,70.312,75.195,132.324,1
1492686011.001,57.129,73.730,103.516,68.848,121.094,0
1492686011.005,57.617,99.121,116.699,100.586,110.352,0
1492686011.008,53.711,105.957,141.113,102.539,117.676,0
1492686011.012,75.684,100.586,142.090,81.055,115.723,0
1492686011.016,154.785,128.906,78.613,130.859,95.703,0
1492686011.020,223.633,155.273,10.254,150.391,73.730,0
1492686011.024,166.016,143.555,7.324,133.301,119.629,0
1492686011.028,94.238,117.188,13.672,118.164,143.066,0
1492686011.032,63.477,89.355,54.688,79.590,118.164,0
1492686011.036,39.062,87.891,128.418,70.801,100.586,0
1492686011.040,66.406,85.449,140.137,73.730,81.055,0
1492686011.044,99.609,77.637,119.141,65.918,63.965,0
1492686011.048,95.215,86.914,84.961,95.703,79.102,0
1492686011.051,64.941,75.684,85.449,89.844,105.469,0
1492686011.055,65.918,62.988,94.238,75.684,96.680,0
1492686011.059,77.148,71.289,16.113,85.938,101.074,0
1492686011.063,78.125,83.496,-28.809,97.656,87.891,0
1492686011.067,80.078,82.520,87.891,92.285,91.309,0
1492686011.071,95.703,76.172,154.297,65.430,124.512,0
1492686011.075,83.984,62.012,93.262,56.641,127.930,0
1492686011.079,72.266,62.500,58.105,46.875,129.395,0
1492686011.083,104.492,88.867,4.395,78.613,136.719,0
1492686011.087,70.312,87.402,-32.715,90.820,105.957,0
1492686011.090,58.594,74.219,91.309,87.402,109.375,0
1492686011.094,97.656,91.797,153.809,112.793,132.812,0
1492686011.098,97.168,102.051,119.629,85.938,112.305,0
1492686011.102,76.660,92.773,121.582,56.152,120.117,0
1492686011.106,70.312,87.891,119.141,53.223,104.980,0
1492686011.110,79.590,89.355,127.930,44.922,73.242,0
1492686011.114,99.609,111.816,145.996,86.914,91.797,0
1492686011.118,111.328,119.629,105.469,120.605,113.770,0
1492686011.122,85.449,84.961,14.648,85.938,114.258,0
1492686011.126,100.586,75.684,-39.551,72.754,96.680,0
1492686011.130,137.207,90.332,-71.777,97.656,112.793,0
1492686011.133,117.188,94.238,76.172,115.234,112.793,0
1492686011.137,79.102,98.633,187.012,104.492,100.098,0
1492686011.141,89.355,96.680,147.461,86.914,102.539,0
1492686011.145,119.141,96.191,148.926,103.516,84.473,0
1492686011.149,64.453,71.777,167.969,85.449,54.688,0
1492686011.153,56.641,74.219,159.668,63.477,53.711,0
1492686011.157,96.680,94.727,144.531,106.445,75.684,0
1492686011.161,112.305,89.355,64.941,106.934,81.055,0
1492686011.165,119.141,90.332,-17.090,85.938,78.125,0
1492686011.169,125.488,95.703,34.668,105.469,95.215,0
1492686011.173,100.586,99.609,125.488,110.840,118.652,0
1492686011.176,68.848,73.242,112.305,75.684,113.770,0
1492686011.180,62.500,41.504,50.781,54.199,98.633,0
1492686011.184,61.035,56.152,71.777,59.082,76.660,0
1492686011.188,78.125,65.430,118.164,66.895,88.867,0
1492686011.192,74.219,42.969,104.004,38.086,85.449,0
1492686011.196,66.406,56.641,79.102,66.406,58.105,0
1492686011.200,96.680,82.031,59.570,101.562,57.129,0
1492686011.204,124.512,104.492,71.289,111.328,86.914,0
1492686011.208,93.750,115.234,122.070,132.324,105.957,0
1492686011.212,66.895,100.586,155.273,109.375,115.723,0
1492686011.215,89.355,91.309,74.219,98.145,96.680,0
1492686011.219,98.633,91.797,28.320,94.727,90.820,0
1492686011.223,96.680,93.750,87.402,90.820,84.961,0
1492686011.227,92.285,93.750,120.605,103.516,80.566,0
1492686011.231,93.262,92.285,74.219,92.285,94.238,0
1492686011.235,125.488,99.609,104.492,98.633,75.684,0
1492686011.239,177.246,105.469,139.160,106.934,59.570,0
1492686011.243,113.281,78.613,89.844,72.266,43.945,0
1492686011.247,38.086,51.758,93.262,53.711,26.855,0
1492686011.251,59.570,58.594,88.867,71.777,55.176,0
1492686011.255,60.059,59.570,50.293,65.430,50.293,0
1492686011.258,79.102,51.758,71.777,83.984,61.523,0
1492686011.262,91.309,57.129,125.000,104.492,78.613,0
1492686011.266,67.871,68.359,129.883,82.031,42.480,0
1492686011.270,83.984,66.895,57.129,53.711,47.852,0
1492686011.274,118.652,70.801,-50.293,62.988,45.898,0
1492686011.278,103.516,86.426,-35.156,89.355,43.945,0
1492686011.282,62.500,59.082,84.473,64.941,33.203,0
1492686011.286,80.566,47.852,119.629,63.477,7.324,0
1492686011.290,130.859,76.172,115.723,61.035,3.906,0
1492686011.294,112.793,81.543,134.766,33.691,31.250,0
1492686011.298,103.516,72.754,96.680,47.852,44.922,0
1492686011.301,91.309,65.430,17.090,55.176,13.184,0
1492686011.305,51.270,52.734,41.504,47.852,15.137,0
1492686011.309,41.016,46.387,102.539,48.828,42.969,0
1492686011.313,64.941,61.035,82.031,63.965,20.508,0
1492686011.317,130.859,93.262,43.457,112.793,18.555,0
1492686011.321,125.977,94.238,19.043,100.586,35.156,0
1492686011.325,70.312,45.898,61.523,27.344,35.645,0
1492686011.329,38.574,3.906,95.215,0.000,51.270,0
1492686011.333,29.785,31.738,117.676,61.035,37.598,0
1492686011.337,53.223,76.660,74.707,93.262,6.836,0
1492686011.340,97.168,92.773,9.766,83.008,17.578,0
1492686011.344,106.445,96.680,74.707,94.727,14.160,0
1492686011.348,87.402,84.473,114.258,87.402,-12.695,0
1492686011.352,116.211,79.590,91.309,53.711,2.441,0
1492686011.356,123.047,108.398,110.840,81.543,30.273,0
1492686011.360,120.117,121.094,128.906,105.469,41.016,0
1492686011.364,145.020,116.211,100.098,109.375,28.809,0
1492686011.368,127.930,110.352,103.516,118.652,25.391,0
1492686011.372,49.805,69.824,123.535,59.570,5.371,0
1492686011.376,61.035,75.195,111.816,48.828,7.812,0
1492686011.380,115.234,103.027,96.191,114.746,31.250,0
1492686011.383,130.371,105.957,83.496,130.371,18.066,0
1492686011.387,123.535,99.609,55.664,84.473,20.508,0
1492686011.391,127.930,119.141,61.523,95.215,-3.906,0
1492686011.395,124.512,131.348,125.000,125.000,-44.922,0
1492686011.399,88.867,108.887,104.004,108.398,-6.836,0
1492686011.403,73.242,93.262,75.195,97.168,2.930,0
1492686011.407,108.398,89.355,133.789,83.496,-19.043,0
1492686011.411,155.273,103.516,175.293,99.121,-28.809,0
1492686011.415,118.652,104.004,145.020,96.680,-13.184,0
1492686011.419,69.824,95.703,124.023,87.891,-21.484,0
1492686011.423,90.332,94.727,116.699,91.797,-13.672,0
1492686011.426,139.648,108.398,93.262,111.328,-1.465,0
1492686011.430,121.094,111.328,75.195,98.145,-17.090,0
1492686011.434,85.938,98.145,33.203,100.098,9.277,0
1492686011.438,106.445,107.910,28.320,115.723,-36.133,0
1492686011.442,88.379,99.609,77.148,81.543,-60.059,0
1492686011.446,68.359,62.988,114.258,69.336,1.953,0
1492686011.450,105.469,64.453,83.008,58.594,12.207,0
1492686011.454,98.145,73.730,55.176,76.172,20.996,0
1492686011.458,84.473,72.754,97.168,90.332,27.832,0
1492686011.462,116.211,87.402,81.055,86.426,19.043,0
1492686011.465,98.633,81.055,67.871,86.426,11.719,0
1492686011.469,60.547,58.105,61.035,80.566,18.555,0
1492686011.473,83.496,50.293,41.504,75.684,18.555,0
1492686011.477,114.746,49.316,80.078,65.430,7.324,0
1492686011.481,112.305,69.336,105.957,55.664,-10.254,0
1492686011.485,112.793,82.520,83.984,69.336,21.973,0
1492686011.489,84.473,63.477,62.500,80.078,61.523,0
1492686011.493,87.891,71.777,81.543,84.961,45.898,0
1492686011.497,110.840,80.078,68.359,99.609,45.410,0
1492686011.501,42.480,38.086,47.852,71.289,31.738,0
1492686011.505,27.832,10.254,54.688,23.438,30.762,0
1492686011.508,80.078,35.645,23.438,46.387,13.672,0
1492686011.512,95.703,75.195,51.758,84.961,47.852,0
1492686011.516,96.191,70.801,98.145,78.125,69.824,0
1492686011.520,120.605,76.660,92.773,83.984,47.852,0
1492686011.524,110.840,74.219,59.570,86.426,27.344,0
1492686011.528,83.496,46.387,14.648,90.820,10.254,0
1492686011.532,103.027,49.805,22.949,96.191,43.457,0
1492686011.536,108.398,56.152,80.566,74.707,37.598,0
1492686011.540,48.340,30.762,83.984,43.945,6.836,0
1492686011.544,9.766,-7.324,57.129,19.531,5.371,0
1492686011.548,39.551,6.836,60.547,23.926,21.484,0
1492686011.551,60.059,23.438,43.945,38.086,35.156,0
1492686011.555,115.234,36.133,56.641,60.547,33.691,0
1492686011.559,132.812,35.156,78.613,47.852,30.762,0
1492686011.563,54.688,-2.441,57.617,34.180,46.875,0
1492686011.567,9.766,-17.578,36.133,19.531,38.574,0
1492686011.571,47.852,-4.395,-32.715,13.672,-7.812,0
1492686011.575,86.914,-7.812,-39.551,28.320,-5.859,0
1492686011.579,46.875,-21.973,50.293,21.484,16.113,0
1492686011.583,61.035,14.160,110.352,45.410,40.527,0
1492686011.587,76.660,32.227,125.977,52.246,26.855,0
1492686011.590,30.273,0.488,35.156,13.672,13.184,0
1492686011.594,59.570,-3.906,-18.555,5.859,40.039,0
1492686011.598,73.242,13.184,22.461,39.062,52.734,0
1492686011.602,43.945,22.461,62.988,55.176,48.340,0
1492686011.606,32.227,15.625,40.527,42.480,56.152,0
1492686011.610,19.043,4.883,-6.348,19.043,66.406,0
1492686011.614,62.988,36.133,28.320,62.012,58.105,0
1492686011.618,86.426,44.434,109.863,66.895,44.922,0
1492686011.622,69.824,12.695,122.070,28.320,19.043,0
1492686011.626,25.391,-8.301,69.824,7.324,48.340,0
1492686011.630,21.484,-6.836,40.039,18.555,88.867,0
1492686011.633,65.430,39.551,18.555,85.449,65.918,0
1492686011.637,56.152,31.250,2.441,71.289,25.391,0
1492686011.641,90.332,25.879,31.250,61.523,41.016,0
1492686011.645,103.516,62.012,77.148,87.891,77.148,0
1492686011.649,46.875,25.879,90.820,53.711,83.984,0
1492686011.653,28.809,-11.719,75.195,0.000,85.938,0
1492686011.657,10.254,-2.441,46.387,-2.441,75.195,0
1492686011.661,8.301,19.531,44.922,20.508,31.250,0
1492686011.665,54.199,30.762,59.082,24.902,16.602,0
1492686011.669,97.168,26.367,40.527,26.367,30.273,0
1492686011.673,79.102,39.551,10.254,41.016,46.387,0
1492686011.676,42.480,67.383,38.086,74.707,8.301,0
1492686011.680,34.180,49.316,87.891,61.523,-16.602,0
1492686011.684,-2.441,13.672,58.105,24.902,24.414,0
1492686011.688,27.832,26.367,22.949,38.086,23.438,0
1492686011.692,40.527,24.414,29.785,21.484,27.832,0
1492686011.696,0.000,12.207,35.156,13.184,41.992,0
1492686011.700,6.836,2.930,-18.066,2.441,46.875,0
1492686011.704,74.219,13.672,-76.172,18.555,30.762,0
1492686011.708,122.559,48.828,-70.801,61.035,16.602,0
1492686011.712,61.035,48.340,1.465,66.895,64.453,0
1492686011.715,7.324,19.043,90.820,51.758,64.941,0
1492686011.719,-9.766,-16.113,102.539,14.160,24.414,0
1492686011.723,2.930,-20.508,90.332,-4.883,9.766,0
1492686011.727,34.668,-0.488,85.938,15.625,41.992,0
1492686011.731,48.828,22.461,42.969,26.367,70.312,0
1492686011.735,41.016,10.254,-2.441,18.555,62.012,0
1492686011.739,2.441,-29.297,-62.012,22.461,29.297,0
1492686011.743,1.953,1.953,-68.359,24.902,50.781,0
1492686011.747,43.457,24.902,-33.691,9.766,67.383,0
1492686011.751,55.664,5.859,-6.348,7.812,43.457,0
1492686011.755,46.387,2.930,28.809,7.812,22.949,0
1492686011.758,2.930,-13.672,55.176,-23.438,25.391,0
1492686011.762,-0.977,-23.438,60.059,-13.672,63.965,0
1492686011.766,3.906,-15.137,53.711,14.160,61.523,0
1492686011.770,-5.859,-20.508,38.086,-5.371,33.203,0
1492686011.774,27.344,-19.043,1.465,3.418,56.641,0
1492686011.778,-8.789,-36.133,-35.645,-34.668,67.383,0
1492686011.782,-36.621,-52.734,-81.055,-45.898,49.316,0
1492686011.786,-24.414,-69.824,-122.070,-15.625,78.613,0
1492686011.790,-28.809,-72.266,-54.199,-35.645,84.473,0
1492686011.794,24.414,-37.109,-23.438,0.000,57.617,0
1492686011.798,57.617,-22.461,-36.133,16.602,39.062,0
1492686011.801,20.996,-39.551,23.926,-11.230,55.664,0
1492686011.805,-56.641,-58.594,27.344,-32.227,75.195,0
1492686011.809,-46.875,-48.828,0.977,-29.785,40.039,0
1492686011.813,20.508,-38.574,8.301,-17.090,41.016,0
1492686011.817,-0.488,-40.527,-19.043,-51.270,62.500,0
1492686011.821,-13.184,-47.363,-8.789,-66.406,63.477,0
1492686011.825,-9.766,-41.992,-25.391,-37.109,45.898,0
1492686011.829,-11.719,-18.555,-59.570,1.953,23.438,0
1492686011.833,45.898,15.625,-66.895,27.344,36.621,0
1492686011.837,107.910,51.270,-21.484,67.871,62.988,0
1492686011.840,65.918,31.250,80.566,71.289,62.500,0
1492686011.844,-24.902,-30.273,96.191,-6.836,34.180,0
1492686011.848,-19.043,-31.250,46.387,-23.926,28.809,0
1492686011.852,-16.113,-42.480,6.836,-20.020,46.875,0
1492686011.856,-29.785,-82.031,-35.645,-36.621,16.113,0
1492686011.860,1.465,-71.289,-93.262,-53.711,5.371,0
1492686011.864,-11.230,-64.941,-53.223,-77.637,58.105,0
1492686011.868,9.766,-51.758,-3.906,-47.852,46.387,0
1492686011.872,33.203,-35.645,-30.762,-0.488,37.109,0
1492686011.876,-19.043,-55.176,-7.812,2.441,55.176,0
1492686011.880,-19.531,-72.754,-22.949,-20.020,71.289,0
1492686011.883,-13.184,-71.777,-113.281,-34.180,82.031,0
1492686011.887,-43.945,-80.078,-94.727,-61.523,74.707,0
1492686011.891,-42.480,-83.984,-32.715,-45.410,65.918,0
1492686011.895,-54.688,-96.680,-66.406,-41.992,55.664,0
1492686011.899,-36.621,-80.078,-30.273,-41.992,46.387,0
1492686011.903,-21.484,-59.082,24.414,-25.879,12.207,0
1492686011.907,-26.855,-74.219,-2.930,-45.898,40.527,0
1492686011.911,-11.719,-72.266,-28.809,-19.531,76.172,0
1492686011.915,-10.254,-69.336,-37.598,-20.996,46.387,0
1492686011.919,12.207,-63.965,-23.438,-32.715,39.551,0
1492686011.923,12.695,-52.246,19.043,3.906,43.945,0
1492686011.926,-44.922,-70.312,-3.418,-33.691,65.430,0
1492686011.930,-49.316,-87.891,-99.609,-63.965,83.008,0
1492686011.934,-24.902,-73.730,-86.914,-33.203,67.871,0
1492686011.938,-20.996,-50.293,-25.879,-5.371,84.473,0
1492686011.942,-10.742,-46.387,-14.160,-11.230,78.613,0
1492686011.946,-13.672,-65.918,-15.625,-35.645,13.184,0
1492686011.950,11.719,-60.059,-16.113,4.883,4.883,0
1492686011.954,45.410,-44.922,-30.762,22.461,66.895,0
1492686011.958,15.625,-41.504,-53.711,-18.066,102.051,0
1492686011.962,0.000,-39.062,7.324,-22.461,99.121,0
1492686011.965,26.855,-33.691,56.641,-9.277,67.383,0
1492686011.969,72.266,-34.180,53.711,-29.785,64.453,0
1492686011.973,63.477,-47.363,21.484,-45.410,68.359,0
1492686011.977,12.207,-46.875,-31.738,-22.949,79.590,0
1492686011.981,46.387,-39.062,-8.301,3.906,88.379,0
1492686011.985,81.055,-39.062,-12.207,2.930,80.566,0
1492686011.989,77.148,-48.340,-93.750,-6.836,67.871,0
1492686011.993,104.492,-30.273,-69.824,11.230,33.203,0
1492686011.997,79.102,-30.273,1.953,11.719,43.945,0
1492686012.001,30.762,-36.133,31.738,3.906,64.453,0
1492686012.005,65.430,2.441,57.617,30.273,45.410,0
1492686012.008,41.504,-18.555,37.598,-1.953,50.293,0
1492686012.012,19.043,-32.715,14.648,-4.883,68.359,0
1492686012.016,57.129,-14.160,-29.297,22.949,40.039,0
1492686012.020,28.809,-19.043,-67.383,0.977,26.855,0
1492686012.024,10.742,-16.602,-41.504,22.949,41.504,0
1492686012.028,12.207,-8.789,-11.230,41.504,39.551,0
1492686012.032,6.348,1.465,57.617,31.250,14.160,0
1492686012.036,30.273,4.395,92.285,5.859,16.602,0
1492686012.040,27.832,-8.789,50.293,4.395,34.668,0
1492686012.044,10.742,-22.461,32.227,6.836,17.578,0
1492686012.048,3.418,-20.020,22.949,-11.719,24.414,0
1492686012.051,-41.504,-18.066,21.973,-19.043,-0.977,0
1492686012.055,-43.945,-3.418,39.551,-11.719,-2.930,0
1492686012.059,6.348,10.742,7.812,-11.719,51.270,0
1492686012.063,54.688,24.414,-62.500,33.203,46.387,0
1492686012.067,52.246,27.832,-87.891,57.617,25.879,0
1492686012.071,34.668,21.484,-16.113,22.949,27.832,0
1492686012.075,52.734,19.043,0.000,26.367,53.711,0
1492686012.079,54.199,12.207,-31.250,19.043,41.992,0
1492686012.083,28.320,-1.953,-4.883,-6.836,19.531,0
1492686012.087,-27.344,-7.324,30.762,-21.484,29.785,0
1492686012.090,-29.785,0.488,55.176,-11.230,28.809,0
1492686012.094,1.465,4.883,43.457,13.184,14.648,0
1492686012.098,3.418,3.906,42.969,0.000,6.836,0
1492686012.102,25.879,-11.719,43.945,-21.973,12.207,0
1492686012.106,47.852,3.418,6.348,6.836,44.922,0
1492686012.110,-3.906,6.836,-20.020,22.949,43.457,0
1492686012.114,-15.625,-6.348,-65.918,14.160,16.602,0
1492686012.118,35.645,4.395,-57.129,12.695,35.645,0
1492686012.122,25.879,-4.395,-8.789,3.418,47.852,0
1492686012.126,-6.348,-18.555,6.348,5.859,46.875,0
1492686012.130,32.227,-6.348,44.922,11.230,36.133,0
1492686012.133,30.273,-3.418,76.172,9.766,39.062,0
1492686012.137,0.977,9.766,70.801,29.785,35.156,0
1492686012.141,17.578,4.395,29.297,-0.488,6.836,0
1492686012.145,36.133,-25.879,-16.602,-13.184,-13.672,0
1492686012.149,42.969,-14.160,-28.320,26.367,9.277,0
1492686012.153,23.926,9.277,-44.922,41.504,20.508,0
1492686012.157,-2.441,5.371,-24.902,42.969,17.578,0
1492686012.161,9.277,-6.836,51.270,21.484,33.691,0
1492686012.165,31.738,-19.043,56.641,-10.254,37.598,0
1492686012.169,32.715,0.000,57.617,18.066,22.949,0
1492686012.173,51.758,20.508,70.801,47.363,25.879,0
1492686012.176,65.918,32.227,87.891,70.312,40.527,0
1492686012.180,44.434,21.973,73.242,46.875,56.641,0
1492686012.184,24.902,-0.977,3.418,-6.348,38.574,0
1492686012.188,17.578,-24.414,-37.598,-38.574,3.418,0
1492686012.192,21.484,-20.020,-27.832,-23.926,20.996,0
1492686012.196,56.152,30.273,-2.930,48.828,42.480,0
1492686012.200,56.641,37.109,15.137,56.641,9.277,0
1492686012.204,38.086,10.254,-20.996,41.016,-8.789,0
1492686012.208,70.801,18.555,-54.199,24.414,34.180,0
1492686012.212,25.879,18.555,32.227,14.160,44.434,0
1492686012.215,20.996,5.859,60.547,12.207,32.227,0
1492686012.219,57.129,11.230,34.668,2.441,3.906,0
1492686012.223,25.391,13.184,25.879,2.930,-23.926,0
1492686012.227,31.738,6.836,5.859,14.648,1.465,0
1492686012.231,57.129,10.742,4.883,14.160,7.812,0
1492686012.235,75.684,30.762,-34.180,37.598,-2.441,0
1492686012.239,90.820,44.922,-21.484,60.059,3.418,0
1492686012.243,52.734,42.480,35.156,56.152,28.809,0
1492686012.247,55.176,29.785,23.926,39.062,39.551,0
1492686012.251,58.594,18.555,19.043,50.293,23.926,0
1492686012.255,-5.859,-2.930,42.969,14.160,12.695,0
1492686012.258,-26.855,-15.625,54.688,-36.133,-3.418,0
1492686012.262,26.855,-2.441,5.859,0.977,12.207,0
1492686012.266,68.359,26.367,-4.395,40.039,37.109,2
1492686012.270,49.316,19.043,20.996,36.133,31.250,0
1492686012.274,42.480,19.531,12.207,51.270,15.625,0
1492686012.278,50.781,21.973,-23.438,56.641,-15.137,0
1492686012.282,53.711,22.461,-14.648,41.992,29.297,0
1492686012.286,73.242,20.996,41.992,18.555,45.410,0
1492686012.290,81.543,-4.395,55.176,14.648,14.160,0
1492686012.294,57.617,-12.207,56.152,6.348,-7.812,0
1492686012.298,-7.324,0.000,38.086,9.766,13.672,0
1492686012.301,-8.301,20.508,35.156,60.059,38.574,0
1492686012.305,25.879,21.484,63.965,35.645,16.113,0
1492686012.309,55.176,21.484,9.277,25.879,-6.836,0
1492686012.313,71.777,37.598,-45.410,47.852,0.000,0
1492686012.317,45.410,32.715,-11.230,57.617,-5.859,0
1492686012.321,39.062,21.484,0.488,41.504,-26.855,0
1492686012.325,45.410,25.879,23.438,37.109,-8.301,0
1492686012.329,39.062,14.648,31.250,20.020,3.418,0
1492686012.333,37.598,1.465,4.883,17.090,-6.836,0
1492686012.337,40.039,13.184,44.434,45.898,-8.301,0
1492686012.340,48.340,27.344,66.406,41.016,-0.488,0
1492686012.344,83.008,26.855,40.039,40.039,20.508,0
1492686012.348,96.191,17.578,68.359,55.176,15.137,0
1492686012.352,52.246,-8.789,50.293,14.160,-27.344,0
1492686012.356,3.418,-9.277,-20.996,-14.648,-6.836,0
1492686012.360,35.156,26.855,0.488,26.367,11.230,0
1492686012.364,44.922,31.250,37.109,40.527,-5.859,0
1492686012.368,30.273,31.738,39.551,27.344,-27.832,0
1492686012.372,78.613,55.176,29.785,25.879,-17.090,0
1492686012.376,87.891,80.566,3.418,56.152,-8.789,0
1492686012.380,73.730,59.570,-58.105,56.641,-10.254,0
1492686012.383,59.570,37.598,-111.328,68.359,-0.488,0
1492686012.387,62.500,44.922,-73.730,67.871,10.254,0
1492686012.391,63.477,30.762,53.711,41.992,34.180,0
1492686012.395,26.367,19.043,104.492,18.066,13.184,0
1492686012.399,28.809,15.137,98.633,8.301,31.250,0
1492686012.403,41.992,2.930,70.801,11.719,38.086,0
1492686012.407,37.109,13.184,-14.648,27.344,10.254,0
1492686012.411,69.824,56.152,-2.930,74.707,-4.395,0
1492686012.415,86.426,53.711,52.734,71.777,1.953,0
1492686012.419,59.082,14.160,6.836,33.203,40.527,0
1492686012.423,39.062,20.508,-6.348,33.691,41.504,0
1492686012.426,36.621,29.785,-9.766,52.246,9.766,0
1492686012.430,56.641,21.484,-36.133,57.129,20.508,0
1492686012.434,67.871,17.090,-15.137,37.598,42.969,0
1492686012.438,21.973,18.066,39.062,42.480,17.090,0
1492686012.442,15.625,50.781,83.496,89.844,-2.930,0
1492686012.446,43.457,59.570,64.453,57.129,5.859,0
1492686012.450,37.109,24.414,23.438,15.137,17.090,0
1492686012.454,34.668,20.996,-12.207,29.297,4.395,0
1492686012.458,42.480,13.672,1.465,15.137,-10.254,0
1492686012.462,60.547,20.508,49.316,22.949,-15.137,0
1492686012.465,63.965,51.758,51.758,53.711,2.930,0
1492686012.469,42.480,43.457,44.434,69.824,5.859,0
1492686012.473,37.598,39.551,-4.883,73.242,-5.859,0
1492686012.477,37.109,35.156,-62.500,28.320,20.020,0
1492686012.481,34.180,33.691,-41.016,7.812,23.926,0
1492686012.485,22.461,43.945,23.438,47.363,1.465,0
1492686012.489,29.297,41.504,46.875,48.340,8.789,0
1492686012.493,49.316,22.461,18.066,-9.277,31.738,0
1492686012.497,41.016,14.160,41.504,-24.414,22.461,0
1492686012.501,18.555,16.113,73.242,18.066,24.414,0
1492686012.505,11.719,9.277,79.590,34.180,28.809,0
1492686012.508,20.508,2.930,74.707,12.207,23.438,0
1492686012.512,57.129,35.156,47.852,34.668,24.414,0
1492686012.516,78.125,66.895,13.184,65.430,9.277,0
1492686012.520,69.336,75.195,-34.180,60.059,-9.766,0
1492686012.524,-3.418,38.086,-55.664,14.648,27.832,0
1492686012.528,1.465,27.344,-41.016,-11.230,36.133,0
1492686012.532,59.570,48.828,-4.395,23.926,24.902,0
1492686012.536,35.156,20.508,58.594,21.484,32.227,0
1492686012.540,4.883,3.906,91.797,-17.090,46.387,0
1492686012.544,20.508,19.043,79.590,12.207,42.969,0
1492686012.548,18.555,12.207,62.988,39.062,38.086,0
1492686012.551,17.578,24.414,66.406,60.059,34.668,0
1492686012.555,42.480,21.484,21.484,43.945,41.992,0
1492686012.559,42.480,-1.953,-34.668,1.465,24.902,0
1492686012.563,39.551,7.812,4.395,37.109,1.953,0
1492686012.567,50.293,11.230,61.523,55.664,16.113,0
1492686012.571,29.297,-2.930,52.734,34.668,44.922,0
1492686012.575,4.395,-7.324,32.227,27.832,14.648,0
1492686012.579,62.500,33.691,10.254,65.430,24.414,0
1492686012.583,80.078,48.828,-19.043,62.500,65.430,0
1492686012.587,53.711,7.812,-17.090,43.457,21.484,0
1492686012.590,45.898,7.812,40.039,47.852,-1.465,0
1492686012.594,50.293,34.668,77.148,32.715,1.953,0
1492686012.598,37.109,20.508,51.270,21.484,16.113,0
1492686012.602,5.859,3.906,17.578,31.738,36.621,0
1492686012.606,20.996,15.625,28.320,25.879,6.348,0
1492686012.610,72.754,37.598,62.988,31.250,4.395,0
1492686012.614,90.332,51.758,79.102,59.570,32.227,0
1492686012.618,54.199,38.086,80.078,38.574,17.578,0
1492686012.622,40.527,24.414,71.289,26.855,31.738,0
1492686012.626,67.871,47.852,104.492,68.848,67.383,0
1492686012.630,77.637,53.223,46.387,70.801,71.777,0
1492686012.633,40.039,15.625,-59.082,24.414,45.410,0
1492686012.637,18.555,16.113,-38.086,17.090,22.949,0
1492686012.641,50.781,36.621,-15.137,36.133,20.996,0
1492686012.645,55.664,41.992,-12.695,67.871,36.133,0
1492686012.649,53.223,45.898,23.438,75.684,15.625,0
1492686012.653,83.496,36.133,38.086,48.828,2.441,0
1492686012.657,65.430,17.578,67.871,41.504,29.297,0
1492686012.661,35.156,20.996,77.148,29.785,53.711,0
1492686012.665,49.316,32.715,53.711,13.184,33.691,0
1492686012.669,75.684,49.805,31.250,36.621,24.414,0
1492686012.673,60.059,45.410,26.855,52.734,53.711,0
1492686012.676,56.641,34.180,39.062,33.691,26.367,0
1492686012.680,71.289,30.273,9.766,37.598,31.250,0
1492686012.684,80.078,41.504,34.668,56.641,77.148,0
1492686012.688,77.148,49.316,30.762,58.105,42.480,0
1492686012.692,25.391,19.531,-1.953,31.250,11.719,0
1492686012.696,14.160,24.902,44.434,49.316,18.555,0
1492686012.700,86.426,49.805,83.496,69.824,37.109,0
1492686012.704,67.383,35.645,24.902,39.551,39.062,0
1492686012.708,3.906,27.344,-15.137,37.109,33.203,0
1492686012.712,32.227,23.926,37.109,35.156,29.785,0
1492686012.715,40.039,20.020,46.875,25.879,25.879,0
1492686012.719,49.805,32.227,67.871,49.805,52.734,0
1492686012.723,49.805,19.531,14.648,51.758,46.387,0
1492686012.727,56.152,35.645,-5.371,62.012,15.625,0
1492686012.731,80.078,60.547,81.055,63.965,27.832,0
1492686012.735,46.875,36.133,59.082,28.809,17.090,0
1492686012.739,20.020,24.414,-9.277,34.668,-7.324,0
1492686012.743,12.207,30.273,-11.719,41.504,15.137,0
1492686012.747,41.992,26.367,34.180,11.719,54.688,0
1492686012.751,39.551,26.367,56.641,29.785,26.855,0
1492686012.755,20.508,22.949,53.223,39.062,-15.625,0
1492686012.758,52.734,34.668,61.035,36.133,-16.113,0
1492686012.762,86.426,69.824,66.406,88.867,5.371,0
1492686012.766,78.125,65.430,16.113,96.191,29.785,3
1492686012.770,87.402,47.852,-15.625,49.805,37.109,0
1492686012.774,56.641,24.414,2.930,0.000,23.926,0
1492686012.778,-25.879,-4.395,-22.949,-4.395,16.602,0
1492686012.782,-10.254,1.465,-29.297,11.719,15.625,0
1492686012.786,10.254,11.230,50.781,6.348,30.273,0
1492686012.790,16.602,6.348,64.941,2.930,30.273,0
1492686012.794,55.664,9.766,44.922,12.207,48.340,0
1492686012.798,55.664,40.039,98.145,24.902,43.457,0
1492686012.801,26.855,37.598,81.543,21.973,-4.395,0
1492686012.805,41.504,24.902,58.105,27.832,13.184,0
1492686012.809,30.762,36.133,36.621,53.711,16.602,0
1492686012.813,24.902,41.504,-33.203,58.594,9.766,0
1492686012.817,78.613,51.758,-45.410,34.668,4.395,0
1492686012.821,49.316,36.133,-16.602,9.277,10.254,0
1492686012.825,-12.207,8.301,37.109,10.254,3.906,0
1492686012.829,19.043,16.602,38.574,20.020,-22.949,0
1492686012.833,77.148,59.082,24.414,54.199,-4.395,0
1492686012.837,55.176,43.945,59.082,50.293,1.953,0
1492686012.840,13.672,11.230,67.383,20.020,-2.441,0
1492686012.844,2.441,13.184,62.988,24.902,-7.324,0
1492686012.848,5.371,20.996,66.406,39.551,-12.207,0
1492686012.852,32.227,17.090,39.551,32.227,-23.926,0
1492686012.856,50.293,1.465,7.324,16.602,-31.250,0
1492686012.860,69.824,16.113,31.738,8.301,-31.738,0
1492686012.864,53.223,47.852,47.852,36.621,6.348,0
1492686012.868,52.246,54.688,41.504,45.410,43.457,0
1492686012.872,37.598,28.320,54.199,30.762,12.207,0
1492686012.876,13.672,12.207,54.199,27.344,-16.113,0
1492686012.880,52.734,31.738,5.371,20.020,-16.113,0
1492686012.883,26.367,38.574,-9.277,19.531,-7.324,0
1492686012.887,31.250,38.574,58.594,19.043,-4.395,0
1492686012.891,88.867,54.199,59.570,31.250,-21.973,0
1492686012.895,72.266,62.012,21.973,45.410,-24.414,0
1492686012.899,66.895,62.988,25.391,46.387,28.320,0
1492686012.903,63.965,37.598,51.270,28.809,33.691,0
1492686012.907,23.438,5.371,79.590,3.418,11.719,0
1492686012.911,-1.465,-13.184,76.660,11.230,6.348,0
1492686012.915,2.930,1.465,51.758,38.574,30.273,0
1492686012.919,28.809,29.785,38.574,35.156,41.992,0
1492686012.923,53.711,48.828,57.129,59.082,34.668,0
1492686012.926,52.246,50.781,53.223,60.059,34.668,0
1492686012.930,46.875,50.293,7.812,49.805,9.766,0
1492686012.934,26.367,35.156,20.020,16.602,14.160,0
1492686012.938,48.340,8.301,-10.742,14.160,-11.230,0
1492686012.942,46.387,15.137,-57.617,25.879,-1.953,0
1492686012.946,41.016,35.645,43.457,14.648,46.875,0
1492686012.950,63.965,31.738,98.633,36.621,27.832,0
1492686012.954,35.645,22.949,72.266,33.203,-3.418,0
1492686012.958,-9.766,24.902,69.336,35.645,3.418,0
1492686012.962,34.180,44.922,55.176,67.871,5.371,0
1492686012.965,106.934,68.848,72.754,88.867,11.230,0
1492686012.969,90.332,59.082,37.109,41.992,11.719,0
1492686012.973,55.176,54.688,-12.207,43.457,10.742,0
1492686012.977,31.250,33.691,39.551,42.480,30.273,0
1492686012.981,39.062,26.367,76.172,23.926,30.762,0
1492686012.985,26.855,42.480,66.406,38.086,19.043,0
1492686012.989,19.043,25.391,46.875,39.062,30.762,0
1492686012.993,19.043,17.090,36.133,36.133,23.438,0
1492686012.997,28.809,23.926,46.875,20.508,32.227,0
1492686013.001,41.992,32.227,76.172,5.371,32.715,0
1492686013.005,57.129,51.758,121.582,23.926,41.992,0
1492686013.008,29.297,53.711,106.445,31.250,74.219,0
1492686013.012,-7.812,36.133,46.875,31.738,34.668,0
1492686013.016,25.879,33.691,-3.906,52.246,12.695,0
1492686013.020,45.898,30.762,-17.090,35.156,61.035,0
1492686013.024,55.664,27.832,40.039,37.598,43.945,0
1492686013.028,105.957,73.242,72.266,94.238,2.441,0
1492686013.032,108.398,84.473,32.715,110.840,33.691,0
1492686013.036,51.270,29.785,57.617,45.898,55.664,0
1492686013.040,29.785,8.301,88.379,25.879,40.527,0
1492686013.044,53.223,24.414,81.055,45.898,45.898,0
1492686013.048,60.059,43.945,95.215,50.781,76.172,0
1492686013.051,65.430,58.594,87.891,65.918,68.359,0
1492686013.055,95.215,77.148,46.387,94.727,30.762,0
1492686013.059,107.910,83.008,20.508,88.867,34.668,0
1492686013.063,84.473,62.500,20.020,82.031,53.711,0
1492686013.067,81.543,43.457,52.734,91.309,56.641,0
1492686013.071,62.500,33.691,96.680,68.848,31.250,0
1492686013.075,40.527,28.320,67.383,63.965,5.371,0
1492686013.079,72.266,52.246,29.785,107.910,39.551,0
1492686013.083,82.520,73.242,65.918,85.938,59.082,0
1492686013.087,60.059,56.152,77.637,24.902,34.668,0
1492686013.090,38.574,28.320,44.434,19.531,33.203,0
1492686013.094,44.922,25.391,15.137,62.012,55.176,0
1492686013.098,76.172,29.297,-20.508,95.703,37.598,0
1492686013.102,53.223,8.301,10.742,46.387,47.852,0
1492686013.106,3.906,-5.859,82.520,2.930,57.129,0
1492686013.110,20.996,1.953,73.730,20.020,45.410,0
1492686013.114,40.527,5.859,0.488,20.508,36.133,0
1492686013.118,-13.184,-3.418,-19.531,-7.324,10.742,0
1492686013.122,-22.461,0.488,31.250,4.883,9.277,0
1492686013.126,25.391,8.789,52.734,1.953,34.668,0
1492686013.130,-2.441,14.160,78.613,-35.645,34.668,0
1492686013.133,-7.812,9.277,96.191,-16.602,-0.977,0
1492686013.137,9.277,12.207,81.055,-6.348,21.484,0
1492686013.141,-2.930,23.438,19.531,-12.207,30.762,0
1492686013.145,-43.457,4.883,-59.082,-20.020,-15.137,0
1492686013.149,-107.422,-31.738,-22.461,-73.242,7.324,0
1492686013.153,-81.543,-37.598,43.457,-98.145,41.992,0
1492686013.157,-56.641,-19.531,67.383,-77.148,29.297,0
1492686013.161,-60.547,-9.277,104.492,-72.754,22.949,0
1492686013.165,-61.035,-18.066,46.387,-76.172,8.789,0
1492686013.169,-58.105,-17.090,-37.109,-64.941,-6.348,0
1492686013.173,-18.066,11.230,-20.996,-36.621,14.648,0
1492686013.176,-28.320,16.113,29.297,-42.480,6.348,0
1492686013.180,-74.219,-1.953,68.848,-65.430,0.977,0
1492686013.184,-60.547,8.789,66.406,-53.223,41.504,0
1492686013.188,-43.457,0.488,64.941,-55.176,22.461,0
1492686013.192,-32.715,2.930,43.945,-67.383,19.043,0
1492686013.196,-36.621,16.113,-22.949,-57.617,38.574,0
1492686013.200,-62.500,-0.488,-6.348,-67.383,37.109,0
1492686013.204,-57.129,-10.742,43.457,-55.664,35.156,0
1492686013.208,-97.656,-30.762,63.965,-54.688,13.672,0
1492686013.212,-106.445,-23.438,69.824,-93.262,-1.953,0
1492686013.215,-39.551,16.602,40.527,-22.949,17.090,0
1492686013.219,-47.363,26.367,52.734,-19.531,12.207,0
1492686013.223,-56.152,24.902,85.938,-68.359,-10.254,0
1492686013.227,0.977,35.156,43.457,-23.926,4.395,0
1492686013.231,26.367,48.340,46.875,23.926,29.297,0
1492686013.235,33.691,45.410,95.215,44.434,0.977,0
1492686013.239,32.227,18.066,62.988,8.789,-12.207,0
1492686013.243,29.785,26.367,20.996,15.137,13.672,0
1492686013.247,63.477,80.078,104.492,80.078,33.203,0
1492686013.251,162.109,139.648,178.711,143.066,41.504,0
1492686013.255,197.266,182.129,202.637,156.250,17.090,0
1492686013.258,174.316,207.031,219.238,152.832,0.977,0
1492686013.262,180.176,203.613,192.871,175.293,19.531,0
1492686013.266,184.082,192.871,188.477,175.781,-8.789,4
1492686013.270,189.941,202.148,206.543,177.246,-21.484,0
1492686013.274,187.012,197.266,191.406,174.316,34.180,0
1492686013.278,181.641,171.875,137.695,164.062,55.664,0
1492686013.282,162.598,132.812,72.266,152.344,43.945,0
1492686013.286,133.789,98.633,66.406,137.207,31.738,0
1492686013.290,143.555,121.094,130.859,172.852,62.012,0
1492686013.294,181.152,147.949,186.523,175.781,40.527,0
1492686013.298,203.125,130.859,187.988,165.039,23.438,0
1492686013.301,153.809,101.074,167.480,139.648,59.082,0
1492686013.305,128.418,90.332,147.949,133.789,71.777,0
1492686013.309,175.293,107.910,135.742,176.270,62.988,0
1492686013.313,161.621,108.398,123.047,159.668,42.969,0
1492686013.317,136.719,89.355,126.465,128.418,55.176,0
1492686013.321,137.207,97.168,99.609,141.113,56.641,0
1492686013.325,143.555,126.465,59.570,170.410,62.988,0
1492686013.329,204.590,130.859,106.934,169.434,46.875,0
1492686013.333,218.750,103.516,134.766,145.020,30.273,0
1492686013.337,150.879,91.309,97.656,139.160,58.594,0
1492686013.340,166.504,106.445,127.930,166.016,56.152,0
1492686013.344,229.492,127.441,144.531,187.988,40.527,0
1492686013.348,202.148,118.164,95.703,181.641,31.250,0
1492686013.352,172.363,119.629,121.582,180.664,28.809,0
1492686013.356,177.734,144.043,170.898,209.473,23.926,0
1492686013.360,194.336,149.414,202.148,226.562,18.066,0
1492686013.364,183.594,128.906,182.129,198.730,51.270,0
1492686013.368,180.664,95.703,145.508,157.715,65.430,0
1492686013.372,213.867,104.492,147.949,151.855,56.152,0
1492686013.376,226.562,116.699,150.879,158.691,62.012,0
1492686013.380,202.637,104.980,141.602,174.316,83.496,0
1492686013.383,180.664,87.402,97.168,172.852,79.102,0
1492686013.387,182.129,84.961,64.941,174.316,56.152,0
1492686013.391,184.570,85.938,83.496,170.898,80.078,0
1492686013.395,188.965,83.008,104.492,171.387,86.914,0
1492686013.399,208.496,81.543,60.547,177.246,77.637,0
1492686013.403,164.551,70.312,60.547,145.508,43.457,0
1492686013.407,155.762,71.777,78.613,141.602,71.289,0
1492686013.411,146.973,58.105,78.613,131.348,110.352,0
1492686013.415,92.285,33.203,100.098,97.168,87.402,0
1492686013.419,86.426,24.414,85.449,98.145,62.988,0
1492686013.423,113.281,27.832,70.801,93.750,71.777,0
1492686013.426,115.234,34.668,57.617,85.938,88.379,0
1492686013.430,94.727,52.246,81.055,127.930,87.402,0
1492686013.434,110.352,75.195,147.949,132.812,98.633,0
1492686013.438,96.680,72.266,124.512,118.164,88.867,0
1492686013.442,108.398,84.961,19.531,146.484,73.730,0
1492686013.446,169.434,114.746,30.273,166.016,46.387,0
1492686013.450,133.301,87.402,27.832,138.672,13.672,0
1492686013.454,66.406,52.246,22.949,107.422,44.434,0
1492686013.458,86.914,43.457,51.270,111.328,72.266,0
1492686013.462,118.164,60.059,84.961,114.746,62.988,0
1492686013.465,112.793,52.734,125.000,83.496,90.332,0
1492686013.469,87.402,29.297,86.426,75.195,99.609,0
1492686013.473,105.957,61.523,123.047,109.375,50.293,0
1492686013.477,123.047,65.918,143.066,114.746,35.645,0
1492686013.481,37.109,22.949,59.570,74.707,43.945,0
1492686013.485,-27.344,-0.488,15.137,49.316,39.062,0
1492686013.489,9.277,-4.883,0.488,33.691,15.137,0
1492686013.493,37.109,9.766,0.000,23.438,-2.930,0
1492686013.497,16.602,8.301,-27.832,16.113,44.434,0
1492686013.501,25.879,12.207,-46.387,36.133,71.777,0
1492686013.505,58.594,36.133,9.277,82.031,43.945,0
1492686013.508,63.477,26.855,50.781,56.152,51.270,0
1492686013.512,30.273,-2.930,8.789,-4.883,58.594,0
1492686013.516,19.531,-6.348,-2.930,23.926,63.477,0
1492686013.520,26.855,4.883,30.273,42.480,77.148,0
1492686013.524,17.090,8.301,62.012,13.672,58.105,0
1492686013.528,41.504,10.742,81.055,14.160,49.805,0
1492686013.532,55.176,17.090,86.426,59.082,57.129,0
1492686013.536,35.156,15.137,59.082,57.617,53.223,0
1492686013.540,62.988,22.949,30.273,40.527,33.691,0
1492686013.544,80.566,41.504,44.434,52.734,57.617,0
1492686013.548,80.078,56.641,22.461,43.457,53.223,0
1492686013.551,91.309,69.824,5.371,44.922,-18.555,0
1492686013.555,74.219,67.871,-17.090,47.852,-1.465,0
1492686013.559,54.688,58.594,-18.555,46.387,36.133,0
1492686013.563,61.035,48.828,60.547,30.762,13.672,0
1492686013.567,55.664,64.453,114.258,43.945,0.000,0
1492686013.571,30.273,70.801,125.488,82.031,9.277,0
1492686013.575,35.156,53.711,118.164,84.473,4.395,0
1492686013.579,17.090,33.203,80.078,62.988,-3.418,0
1492686013.583,65.430,34.668,-4.395,71.777,23.926,0
1492686013.587,129.883,77.148,-79.102,94.238,40.527,0
1492686013.590,115.723,68.359,-15.625,57.617,23.438,0
1492686013.594,61.523,19.043,86.426,19.531,20.508,0
1492686013.598,23.926,14.160,124.023,28.320,-1.465,0
1492686013.602,-0.488,12.695,125.000,49.316,-10.742,0
1492686013.606,23.438,20.996,47.363,63.477,43.457,0
1492686013.610,70.801,31.250,-45.898,48.340,40.527,0
1492686013.614,90.332,56.152,48.828,62.988,24.414,0
1492686013.618,110.840,92.285,188.477,91.797,50.293,0
1492686013.622,154.785,121.094,160.645,122.070,16.113,0
1492686013.626,173.340,153.320,142.090,177.246,15.137,0
1492686013.630,129.883,110.352,203.125,130.371,35.156,0
1492686013.633,113.281,60.059,178.223,55.664,32.227,0
1492686013.637,103.516,74.219,110.352,90.820,28.320,0
1492686013.641,59.570,80.566,59.082,118.652,-9.277,0
1492686013.645,70.312,55.664,65.430,107.910,-14.648,0
1492686013.649,110.840,69.336,116.699,108.398,18.066,0
1492686013.653,94.238,88.867,92.285,112.793,24.414,0
1492686013.657,82.031,78.613,52.734,84.961,6.836,0
1492686013.661,119.629,84.473,81.543,102.051,28.809,0
1492686013.665,151.855,83.984,119.629,119.629,55.176,0
1492686013.669,137.207,83.984,151.367,93.262,5.859,0
1492686013.673,127.441,78.125,130.371,79.102,0.488,0
1492686013.676,131.836,70.312,120.117,78.613,13.672,0
1492686013.680,66.406,74.707,83.984,72.754,3.906,0
1492686013.684,35.156,78.613,62.988,47.363,33.203,0
1492686013.688,76.660,88.867,71.289,77.637,2.441,0
1492686013.692,84.961,83.984,45.898,105.957,22.461,0
1492686013.696,82.031,66.406,40.039,100.586,53.711,0
1492686013.700,118.652,61.523,85.938,110.352,16.602,0
1492686013.704,156.738,75.195,127.441,87.891,37.109,0
1492686013.708,112.793,55.176,87.891,40.527,43.457,0
1492686013.712,96.680,56.641,82.031,45.898,56.641,0
1492686013.715,90.332,66.406,83.008,86.426,36.133,0
1492686013.719,67.383,47.363,36.621,70.801,12.695,0
1492686013.723,103.516,92.773,87.891,100.098,28.809,0
1492686013.727,144.531,133.301,143.555,192.383,66.895,0
1492686013.731,122.070,92.773,81.055,122.070,61.035,0
1492686013.735,66.406,42.969,58.594,14.648,32.227,0
1492686013.739,76.172,37.109,106.445,36.133,64.941,0
1492686013.743,111.816,55.176,107.910,66.406,84.961,0
1492686013.747,98.145,62.500,106.445,49.805,79.102,0
1492686013.751,73.242,52.734,111.816,53.711,76.660,0
1492686013.755,44.434,36.133,67.871,31.738,77.637,0
1492686013.758,38.574,53.711,-2.441,27.832,50.781,0
1492686013.762,79.590,77.637,23.926,63.965,13.184,0
1492686013.766,58.594,51.270,69.824,38.574,39.551,5
1492686013.770,48.340,32.227,39.062,18.066,31.738,0
1492686013.774,93.750,51.758,12.695,50.781,-1.953,0
1492686013.778,71.777,53.223,26.367,45.410,-8.301,0
1492686013.782,45.410,45.410,49.805,48.828,5.371,0
1492686013.786,76.660,47.363,92.773,52.246,46.387,0
1492686013.790,81.543,44.922,72.754,33.691,52.246,0
1492686013.794,52.734,32.227,32.227,35.156,47.852,0
1492686013.798,47.363,29.785,54.688,41.016,48.828,0
1492686013.801,48.828,46.387,103.027,73.242,39.062,0
1492686013.805,93.750,62.988,88.379,76.172,40.527,0
1492686013.809,110.352,57.129,36.621,33.691,55.664,0
1492686013.813,39.062,23.438,17.090,24.902,50.781,0
1492686013.817,59.570,58.594,45.410,72.266,46.387,0
1492686013.821,106.934,88.867,64.941,87.891,22.949,0
1492686013.825,53.711,44.922,55.664,29.785,-0.488,0
1492686013.829,30.762,14.160,76.660,1.953,40.527,0
1492686013.833,32.227,13.184,100.586,3.906,75.684,0
1492686013.837,62.988,30.273,77.148,20.020,54.199,0
1492686013.840,82.520,44.434,66.895,25.391,34.668,0
1492686013.844,61.523,63.477,53.223,43.945,88.379,0
1492686013.848,72.754,83.008,79.590,86.914,59.082,0
1492686013.852,61.035,64.453,104.980,54.199,10.742,0
1492686013.856,53.711,27.832,49.805,6.836,31.250,0
1492686013.860,77.148,40.039,4.395,24.414,27.832,0
1492686013.864,54.688,42.480,16.602,31.738,16.113,0
1492686013.868,10.742,19.531,69.336,9.766,-10.742,0
1492686013.872,37.109,38.574,96.680,27.344,0.000,0
1492686013.876,78.613,58.594,72.754,24.902,35.156,0
1492686013.880,67.871,63.965,22.461,13.184,31.738,0
1492686013.883,57.617,60.059,-22.461,34.180,22.461,0
1492686013.887,100.098,78.613,-40.527,62.500,24.414,0
1492686013.891,80.566,65.430,24.902,50.781,42.969,0
1492686013.895,6.836,7.324,36.621,-18.066,40.039,0
1492686013.899,1.465,20.996,18.066,-1.465,34.180,0
1492686013.903,53.223,67.871,78.125,51.270,57.617,0
1492686013.907,52.246,81.543,117.188,41.504,57.129,0
1492686013.911,7.324,63.965,127.441,8.301,20.996,0
1492686013.915,21.973,59.082,83.008,3.906,15.625,0
1492686013.919,56.152,59.570,39.551,27.832,54.199,0
1492686013.923,84.473,64.453,2.930,29.297,69.336,0
1492686013.926,45.898,52.246,-14.648,52.246,25.879,0
1492686013.930,-15.625,23.438,51.758,34.180,41.016,0
1492686013.934,18.066,42.480,80.078,17.090,75.684,0
1492686013.938,68.848,69.336,81.055,49.805,35.645,0
1492686013.942,44.922,62.012,66.895,46.387,15.137,0
1492686013.946,28.809,74.219,24.414,72.266,56.152,0
1492686013.950,67.383,83.008,41.016,57.617,62.012,0
1492686013.954,60.059,50.293,82.520,12.207,59.570,0
1492686013.958,39.062,29.785,83.496,-14.648,46.875,0
1492686013.962,26.855,31.738,37.109,5.371,49.805,0
1492686013.965,32.227,37.109,2.930,39.062,53.223,0
1492686013.969,62.500,47.363,45.898,19.531,36.621,0
1492686013.973,68.848,55.176,37.598,17.578,31.738,0
1492686013.977,82.031,66.895,46.387,51.270,23.438,0
1492686013.981,90.332,67.383,84.961,62.012,45.410,0
1492686013.985,52.734,35.156,65.430,43.945,38.086,0
1492686013.989,51.758,25.391,40.039,56.152,48.828,0
1492686013.993,76.172,33.691,49.805,67.871,48.828,0
1492686013.997,87.891,29.297,78.125,38.086,38.086,0
1492686014.001,51.758,12.695,80.566,14.648,43.457,0
1492686014.005,28.809,22.461,32.227,66.895,27.832,0
1492686014.008,61.523,41.016,23.926,118.164,30.273,0
1492686014.012,91.797,45.898,56.641,88.867,21.973,0
1492686014.016,65.918,35.645,91.797,52.246,-4.395,0
1492686014.020,17.578,17.090,115.723,25.879,-16.113,0
1492686014.024,29.297,28.809,51.270,35.156,21.973,0
1492686014.028,72.754,36.621,22.461,52.246,54.199,0
1492686014.032,83.008,36.133,72.266,39.062,34.180,0
1492686014.036,113.281,55.176,71.777,39.062,13.672,0
1492686014.040,146.973,55.176,66.895,50.781,20.508,0
1492686014.044,119.629,42.480,61.035,82.520,11.719,0
1492686014.048,126.953,45.898,56.641,62.500,32.227,0
1492686014.051,100.586,26.855,31.250,18.066,44.922,0
1492686014.055,63.965,13.184,-8.789,22.461,45.410,0
1492686014.059,61.523,17.090,12.207,15.137,30.762,0
1492686014.063,79.102,27.832,55.176,21.973,-10.742,0
1492686014.067,97.656,49.316,94.238,66.406,1.465,0
1492686014.071,42.480,46.387,101.562,52.246,57.129,0
1492686014.075,-2.441,22.949,83.008,54.688,31.250,0
1492686014.079,43.457,26.367,77.148,67.871,26.367,0
1492686014.083,68.848,35.156,69.336,47.852,71.777,0
1492686014.087,42.969,10.742,20.508,38.086,55.176,0
1492686014.090,52.734,15.137,16.113,21.484,24.414,0
1492686014.094,77.148,42.480,60.059,26.367,14.648,0
1492686014.098,68.359,40.527,41.504,66.406,42.480,0
1492686014.102,41.016,31.738,5.859,49.805,41.016,0
1492686014.106,48.828,47.852,41.016,45.410,-2.441,0
1492686014.110,57.129,58.105,108.398,39.551,-8.789,0
1492686014.114,48.828,45.410,102.539,20.996,18.555,0
1492686014.118,18.555,31.738,46.875,35.645,18.555,0
1492686014.122,0.977,25.879,9.277,19.531,-20.020,0
1492686014.126,9.277,41.992,32.227,17.578,16.113,0
1492686014.130,38.574,53.711,71.777,25.879,51.270,0
1492686014.133,76.172,41.992,35.156,17.090,0.977,0
1492686014.137,14.160,40.527,-16.113,54.199,2.930,0
1492686014.141,-17.090,54.688,21.484,75.684,58.594,0
1492686014.145,63.965,78.613,44.922,70.801,61.035,0
1492686014.149,95.215,78.613,9.766,47.852,23.926,0
1492686014.153,37.598,46.387,50.781,-12.695,15.625,0
1492686014.157,-0.488,39.062,96.191,4.883,27.832,0
1492686014.161,9.277,53.711,92.773,35.156,39.062,0
1492686014.165,28.320,50.293,75.195,36.133,33.203,0
1492686014.169,22.949,23.926,77.148,38.086,6.836,0
1492686014.173,32.227,12.695,84.961,10.742,19.531,0
1492686014.176,58.594,31.738,35.645,10.254,41.504,0
1492686014.180,49.805,46.387,2.441,42.969,14.648,0
1492686014.184,31.738,45.898,31.250,36.621,-12.695,0
1492686014.188,59.082,60.547,65.918,46.875,22.461,0
1492686014.192,54.199,55.664,28.320,50.781,17.090,0
1492686014.196,41.016,41.992,2.930,22.461,-14.648,0
1492686014.200,26.367,27.832,61.523,48.340,-8.301,0
1492686014.204,-5.371,12.207,81.543,50.293,29.785,0
1492686014.208,32.227,28.320,70.312,27.832,30.762,0
1492686014.212,36.621,20.020,56.152,11.230,10.742,0
1492686014.215,35.156,17.578,74.219,10.742,25.879,0
1492686014.219,46.875,35.645,110.352,25.391,42.480,0
1492686014.223,23.926,38.086,81.543,44.434,26.855,0
1492686014.227,17.090,33.691,23.438,53.223,24.902,0
1492686014.231,52.734,29.297,49.805,35.645,20.996,0
1492686014.235,66.895,26.855,63.965,22.949,19.531,0
1492686014.239,26.367,18.555,46.387,31.738,7.324,0
1492686014.243,-7.324,10.254,71.777,22.949,-35.156,0
1492686014.247,5.371,18.066,82.031,21.484,-8.789,0
1492686014.251,18.555,29.785,33.203,16.113,5.859,0
1492686014.255,52.734,52.734,31.738,19.043,12.207,0
1492686014.258,97.168,63.965,81.055,40.039,18.555,0
1492686014.262,58.105,46.875,51.270,26.855,51.758,0
1492686014.266,-8.301,22.461,25.391,-21.973,52.734,0
1492686014.270,18.555,41.016,73.242,-20.508,5.371,0
1492686014.274,41.504,72.266,83.496,-15.137,-1.953,0
1492686014.278,-3.418,49.805,32.715,-28.809,21.484,0
1492686014.282,-6.836,30.762,29.785,-22.949,30.273,0
1492686014.286,8.301,42.480,47.852,-13.184,37.109,0
1492686014.290,61.523,69.824,67.383,-19.043,30.762,0
1492686014.294,61.035,68.359,67.871,-32.715,8.301,0
1492686014.298,-18.066,59.082,61.523,-34.668,51.270,0
1492686014.301,-33.203,53.711,77.148,-28.809,32.715,0
1492686014.305,-22.461,41.016,73.730,-26.367,3.418,0
1492686014.309,14.160,53.223,69.336,-45.898,37.109,0
1492686014.313,-25.391,39.551,84.961,-64.941,24.414,0
1492686014.317,-84.473,19.043,104.004,-71.289,8.301,0
1492686014.321,-53.711,29.297,95.703,-65.430,15.625,0
1492686014.325,-25.391,51.270,58.105,-37.598,30.762,0
1492686014.329,-3.418,65.918,55.176,12.207,32.715,0
1492686014.333,12.695,60.059,68.359,9.766,20.020,0
1492686014.337,-10.254,37.109,38.574,-33.203,-0.488,0
1492686014.340,-32.715,37.598,54.688,-34.180,-5.371,0
1492686014.344,-17.578,48.340,95.703,-25.391,-8.301,0
1492686014.348,-29.297,37.598,107.422,-21.973,-3.418,0
1492686014.352,-64.453,20.508,72.754,-29.297,17.578,0
1492686014.356,-40.039,40.039,55.176,-36.621,31.250,0
1492686014.360,-4.395,65.430,79.590,-31.250,12.695,0
1492686014.364,9.766,59.570,59.570,-1.953,0.488,0
1492686014.368,10.254,61.523,38.086,7.324,13.184,0
1492686014.372,-21.484,46.875,42.969,-17.578,11.719,0
1492686014.376,-14.648,22.461,67.383,-51.758,10.254,0
1492686014.380,12.207,41.504,66.895,-2.930,-6.836,0
1492686014.383,-17.090,30.273,61.035,-5.859,-2.930,0
1492686014.387,-35.645,10.742,54.199,-43.457,15.625,0
1492686014.391,32.715,41.504,53.223,12.695,-3.418,0
1492686014.395,47.363,55.664,56.152,64.453,-35.645,0
1492686014.399,-4.883,37.109,48.340,11.230,6.348,0
1492686014.403,8.301,37.598,76.172,-28.809,18.555,0
1492686014.407,42.969,48.340,98.145,4.883,9.277,0
1492686014.411,56.641,47.363,79.102,25.879,33.203,0
1492686014.415,0.488,38.086,77.637,20.508,34.668,0
1492686014.419,-37.598,37.598,67.383,2.930,18.066,0
1492686014.423,-2.930,29.297,71.289,0.488,7.812,0
1492686014.426,39.551,43.457,83.008,2.930,10.742,0
1492686014.430,16.113,51.270,61.035,-17.578,13.184,0
1492686014.434,0.977,36.621,56.641,-9.766,-15.137,0
1492686014.438,56.152,42.969,81.543,32.227,-35.645,0
1492686014.442,27.832,46.387,95.703,41.504,31.250,0
1492686014.446,-1.953,33.203,53.223,26.855,65.430,0
1492686014.450,49.805,42.480,6.836,45.410,28.809,0
1492686014.454,58.594,52.734,0.000,51.758,7.812,0
1492686014.458,-8.301,32.715,35.645,46.875,16.113,0
1492686014.462,-43.457,18.555,74.219,38.574,48.828,0
1492686014.465,-21.973,20.508,71.777,16.113,45.410,0
1492686014.469,-16.602,8.301,49.805,-10.254,19.043,0
1492686014.473,7.324,37.598,97.656,13.672,-3.906,0
1492686014.477,78.125,89.844,96.191,72.754,39.551,0
1492686014.481,78.613,80.078,38.574,76.172,47.852,0
1492686014.485,27.344,49.316,68.848,55.176,-9.277,0
1492686014.489,8.301,21.973,79.102,8.301,21.973,0
1492686014.493,-3.906,14.648,55.176,-11.719,47.363,0
1492686014.497,15.625,31.250,66.895,40.527,38.086,0
1492686014.501,40.527,36.133,0.488,41.992,44.922,0
1492686014.505,53.711,27.344,0.977,2.441,46.387,0
1492686014.508,110.840,49.805,74.707,37.598,38.086,0
1492686014.512,45.410,47.363,88.379,52.734,44.434,0
1492686014.516,-23.926,31.250,96.191,84.961,58.594,0
1492686014.520,22.461,47.363,64.453,70.312,25.879,0
1492686014.524,20.508,38.086,7.812,-20.508,13.672,0
1492686014.528,16.113,27.832,28.809,-33.203,-11.719,0
1492686014.532,28.320,27.344,64.453,-10.742,-11.230,0
1492686014.536,30.273,41.016,85.449,29.297,19.043,0
1492686014.540,35.645,71.289,121.094,54.199,-14.160,0
1492686014.544,69.824,69.336,84.473,39.062,0.977,0
1492686014.548,58.105,42.969,-27.344,14.160,49.316,0
1492686014.551,9.766,29.297,-39.062,-19.531,45.410,0
1492686014.555,56.641,48.828,61.035,37.598,47.363,0
1492686014.559,95.215,65.918,133.301,64.941,31.250,0
1492686014.563,25.391,33.203,101.562,-13.184,23.926,0
1492686014.567,-4.395,41.992,65.430,-2.441,32.715,0
1492686014.571,42.480,67.871,62.500,17.090,33.203,0
1492686014.575,43.457,55.176,38.574,-14.648,48.828,0
1492686014.579,11.719,44.434,56.641,-1.953,47.852,0
1492686014.583,-23.438,15.625,45.410,11.230,34.180,0
1492686014.587,20.508,4.883,4.883,-7.324,40.527,0
1492686014.590,49.316,25.391,-0.488,-1.953,50.781,0
1492686014.594,22.949,36.621,13.672,22.949,42.969,0
1492686014.598,24.902,33.203,38.574,22.949,33.203,0
1492686014.602,39.551,31.250,62.012,7.324,21.484,0
1492686014.606,25.391,15.137,108.398,2.441,22.949,0
1492686014.610,34.668,15.137,103.516,44.434,66.895,0
1492686014.614,72.266,59.570,84.961,78.613,62.500,0
1492686014.618,31.250,47.852,110.352,62.988,7.324,0
1492686014.622,21.484,17.578,62.988,41.504,2.441,0
1492686014.626,40.527,28.809,-2.441,23.926,46.387,0
1492686014.630,20.508,20.996,58.594,9.277,38.574,0
1492686014.633,25.391,14.160,98.633,25.879,17.090,0
1492686014.637,37.598,32.227,66.895,20.996,56.152,0
1492686014.641,48.340,59.082,36.621,29.297,60.059,0
1492686014.645,82.520,75.195,55.176,60.059,14.160,0
1492686014.649,67.871,49.805,62.500,65.430,13.672,0
1492686014.653,18.555,16.113,-1.953,29.297,57.129,0
1492686014.657,35.645,32.715,6.836,26.855,62.012,0
1492686014.661,83.984,47.363,105.957,55.176,35.156,0
1492686014.665,83.984,25.391,146.484,33.691,30.273,0
1492686014.669,66.895,17.578,86.426,11.230,30.762,0
1492686014.673,63.477,20.508,75.684,13.184,42.480,0
1492686014.676,58.105,19.043,97.656,37.598,12.695,0
1492686014.680,31.250,18.066,87.402,43.457,-14.160,0
1492686014.684,43.457,31.250,90.820,66.895,11.719,0
1492686014.688,14.648,19.043,52.246,42.480,25.391,0
1492686014.692,9.766,-10.742,-18.555,-4.883,24.902,0
1492686014.696,40.527,-1.465,13.184,16.113,26.855,0
1492686014.700,75.684,41.992,82.520,79.102,37.598,0
1492686014.704,96.680,62.500,18.066,88.867,19.043,0
1492686014.708,24.902,24.414,-41.992,8.301,-33.203,0
1492686014.712,14.160,20.996,33.203,-6.348,-8.789,0
1492686014.715,67.871,35.645,115.234,27.832,23.438,0
1492686014.719,87.402,47.852,135.254,45.410,3.418,0
1492686014.723,82.520,56.641,103.516,69.824,-10.254,0
1492686014.727,70.801,38.574,68.359,57.617,-13.184,0
1492686014.731,84.473,46.387,80.078,43.457,3.418,0
1492686014.735,82.520,42.480,113.770,35.645,6.836,0
1492686014.739,61.523,36.621,62.988,38.574,8.301,0
1492686014.743,46.387,60.547,53.711,64.941,10.254,0
1492686014.747,55.176,57.129,108.887,65.430,-3.418,0
1492686014.751,102.051,52.246,64.941,50.781,-14.160,0
1492686014.755,102.539,62.500,9.766,66.895,6.836,0
1492686014.758,32.715,26.367,28.320,69.336,24.902,0
1492686014.762,34.180,23.438,66.895,52.246,19.043,0
1492686014.766,83.008,36.621,89.844,71.289,-2.441,0
1492686014.770,50.293,14.648,117.188,66.406,-16.602,0
1492686014.774,53.711,21.484,104.004,39.551,43.945,0
1492686014.778,79.590,33.203,74.707,27.832,53.711,0
1492686014.782,70.801,35.156,51.270,27.832,25.879,0
1492686014.786,46.387,51.270,52.246,61.523,43.945,0
1492686014.790,62.988,45.410,45.410,63.965,40.039,0
1492686014.794,108.887,46.875,58.594,46.387,30.762,0
1492686014.798,87.891,83.984,104.004,81.055,13.672,0
1492686014.801,71.289,64.941,68.848,84.961,-0.977,0
1492686014.805,81.543,47.363,74.219,61.523,8.301,0
1492686014.809,41.992,54.199,92.285,70.312,14.160,0
1492686014.813,52.734,48.828,53.223,83.984,14.648,0
1492686014.817,74.707,43.945,46.387,48.340,14.648,0
1492686014.821,88.379,63.477,42.969,45.410,17.090,0
1492686014.825,91.797,71.289,5.371,71.777,5.859,0
1492686014.829,80.078,62.500,34.668,74.219,32.715,0
1492686014.833,84.473,60.547,71.289,48.828,33.203,0
1492686014.837,83.496,51.270,49.316,61.035,18.555,0
1492686014.840,95.215,55.664,83.984,85.449,33.691,0
1492686014.844,77.637,67.383,96.680,61.035,15.137,0
1492686014.848,55.664,56.152,73.242,49.805,15.625,0
1492686014.852,77.148,35.156,100.586,41.504,22.461,0
1492686014.856,79.102,41.992,128.418,46.875,20.020,0
1492686014.860,68.359,52.734,95.215,40.527,-0.977,0
1492686014.864,37.109,39.062,52.734,39.551,34.668,0
1492686014.868,48.340,46.875,54.199,79.590,67.871,0
1492686014.872,117.188,59.082,67.871,85.938,1.953,0
1492686014.876,101.074,50.293,54.199,63.965,-8.301,0
1492686014.880,25.879,34.668,25.879,37.598,42.969,0
1492686014.883,20.020,26.367,12.695,22.461,35.645,0
1492686014.887,77.148,62.012,62.500,75.195,32.715,0
1492686014.891,117.188,92.285,120.605,109.375,34.668,0
1492686014.895,85.938,56.641,84.961,58.594,28.320,0
1492686014.899,21.484,22.461,29.785,21.484,45.410,0
1492686014.903,-4.883,8.789,0.488,6.348,2.930,0
1492686014.907,38.086,30.273,35.156,30.762,-7.812,0
1492686014.911,65.918,59.570,122.559,53.223,25.391,0
1492686014.915,98.145,78.613,127.441,57.617,11.719,0
1492686014.919,122.070,91.797,55.176,96.191,-7.324,0
1492686014.923,61.035,64.941,20.020,85.938,-29.297,0
1492686014.926,24.902,31.250,48.828,34.668,1.465,0
1492686014.930,37.598,27.832,82.031,23.438,26.855,0
1492686014.934,68.848,60.547,83.984,63.477,18.555,0
1492686014.938,68.359,70.801,36.621,70.801,14.160,0
1492686014.942,62.988,54.199,36.133,52.734,-7.812,0
1492686014.946,70.801,52.246,86.426,76.172,-5.371,0
1492686014.950,77.148,43.457,103.516,71.289,7.324,0
1492686014.954,83.496,42.480,99.609,43.457,25.879,0
1492686014.958,69.336,37.598,68.359,50.293,44.434,0
1492686014.962,69.824,28.320,26.367,35.645,46.875,0
1492686014.965,57.129,36.133,16.113,40.527,20.996,0
1492686014.969,46.875,46.875,28.809,71.289,1.953,0
1492686014.973,43.945,39.062,66.895,52.734,-6.348,0
1492686014.977,82.520,60.059,114.746,76.660,12.207,0
1492686014.981,105.469,76.172,78.613,90.820,40.527,0
1492686014.985,52.734,45.410,7.324,54.688,19.531,0
1492686014.989,23.926,25.391,35.156,38.086,2.441,0
1492686014.993,57.129,38.574,84.961,27.344,0.977,0
1492686014.997,84.961,29.785,93.262,3.418,9.277,0
1492686015.001,66.895,34.180,76.172,19.531,16.602,0
1492686015.005,56.641,52.734,48.828,48.828,9.766,0
1492686015.008,93.262,86.426,105.469,70.801,14.648,0
1492686015.012,87.402,97.656,120.605,76.172,46.387,0
1492686015.016,91.309,75.684,23.926,56.641,61.523,0
1492686015.020,104.004,90.820,-3.906,76.660,42.969,0
1492686015.024,62.012,74.219,57.617,52.246,18.555,0
1492686015.028,23.438,38.086,56.152,24.414,23.438,0
1492686015.032,28.809,33.691,16.602,28.320,22.949,0
1492686015.036,37.598,41.016,40.527,22.461,-14.160,0
1492686015.040,41.992,30.762,83.496,25.879,-11.230,0
1492686015.044,89.355,52.734,79.590,30.273,25.879,0
1492686015.048,110.840,73.242,33.691,61.523,27.832,0
1492686015.051,96.680,72.754,64.941,95.703,27.832,0
1492686015.055,69.824,74.219,83.984,103.516,23.926,0
1492686015.059,41.992,47.852,59.570,73.242,9.766,0
1492686015.063,60.547,23.438,72.754,30.762,33.203,0
1492686015.067,65.430,31.250,109.863,35.645,22.461,0
1492686015.071,46.875,46.875,89.355,41.016,19.531,0
1492686015.075,79.590,74.707,79.102,50.293,36.621,0
1492686015.079,74.219,85.938,74.219,80.078,13.184,0
1492686015.083,71.777,78.125,12.207,110.352,4.883,0
1492686015.087,79.102,86.914,27.344,106.934,7.324,0
1492686015.090,55.664,82.031,82.520,60.547,27.344,0
1492686015.094,90.820,87.402,107.422,69.336,34.180,0
1492686015.098,66.406,73.730,90.332,68.848,-16.113,0
1492686015.102,31.250,36.621,94.238,12.207,-3.906,0
1492686015.106,50.781,56.152,129.395,14.160,28.320,0
1492686015.110,94.238,100.098,119.141,66.406,40.039,0
1492686015.114,76.660,81.543,64.941,72.754,63.477,0
1492686015.118,58.594,63.965,3.418,49.316,58.594,0
1492686015.122,110.840,63.477,6.836,59.570,60.059,0
1492686015.126,70.801,52.734,43.457,58.105,57.617,0
1492686015.130,12.695,45.410,74.707,55.176,30.273,0
1492686015.133,25.391,40.039,85.938,57.129,34.180,0
1492686015.137,79.590,57.617,113.281,62.500,64.453,0
1492686015.141,69.824,58.594,130.859,51.270,38.086,0
1492686015.145,18.555,35.156,124.512,54.199,12.695,0
1492686015.149,38.086,37.109,68.848,54.688,42.969,0
1492686015.153,117.676,83.984,-18.555,63.477,64.453,0
1492686015.157,125.000,95.703,29.785,87.402,43.945,0
1492686015.161,64.941,59.082,112.793,46.387,33.691,0
1492686015.165,68.359,50.781,121.094,24.414,32.227,0
1492686015.169,106.934,72.266,115.234,75.195,24.902,0
1492686015.173,103.027,66.895,80.078,73.242,37.109,0
1492686015.176,35.156,46.875,39.551,43.457,40.527,0
1492686015.180,58.594,70.801,43.457,92.285,44.922,0
1492686015.184,96.191,79.102,76.172,103.027,27.344,0
1492686015.188,74.219,81.543,63.477,76.660,5.859,0
1492686015.192,82.520,89.844,83.496,74.707,48.340,0
1492686015.196,104.980,97.168,127.441,91.797,61.523,0
1492686015.200,112.793,104.492,130.371,122.070,41.504,0
1492686015.204,77.637,86.426,100.586,102.539,41.992,0
1492686015.208,40.039,58.594,63.477,41.016,66.895,0
1492686015.212,63.477,58.594,56.641,49.316,66.406,0
1492686015.215,93.750,71.289,41.992,72.754,49.316,0
1492686015.219,71.777,60.547,42.969,51.270,53.711,0
1492686015.223,78.125,69.824,22.949,78.125,46.387,0
1492686015.227,94.727,92.773,21.484,87.402,35.645,0
1492686015.231,123.535,111.816,109.863,94.238,38.086,0
1492686015.235,111.328,103.516,146.973,85.449,18.066,0
1492686015.239,80.078,73.730,119.629,51.270,39.551,0
1492686015.243,87.891,69.336,60.059,72.266,46.387,0
1492686015.247,85.938,73.730,21.973,75.195,23.926,0
1492686015.251,69.824,68.848,55.664,56.641,46.875,0
1492686015.255,42.480,61.523,76.172,46.875,54.688,0
1492686015.258,49.805,66.406,60.547,33.691,38.086,0
1492686015.262,103.027,101.074,99.121,85.938,60.547,0
1492686015.266,121.094,118.652,69.824,110.840,51.758,0
1492686015.270,41.504,80.078,20.020,56.152,36.133,0
1492686015.274,36.621,68.848,46.387,67.383,30.273,0
1492686015.278,91.309,81.543,88.867,83.984,-14.160,0
1492686015.282,71.777,67.383,96.191,73.242,0.488,0
1492686015.286,29.785,42.480,76.172,41.504,40.527,0
1492686015.290,37.109,42.480,72.266,33.203,36.133,0
1492686015.294,85.938,70.312,47.852,72.266,39.062,0
1492686015.298,121.094,95.215,42.969,93.750,63.477,0
1492686015.301,69.336,81.543,86.914,82.031,66.895,0
1492686015.305,2.441,42.969,100.586,46.875,28.320,0
1492686015.309,32.227,38.086,98.145,66.895,6.836,0
1492686015.313,111.328,86.914,57.129,114.746,37.109,0
1492686015.317,77.148,83.008,15.625,65.918,78.125,0
1492686015.321,19.043,56.152,30.762,3.418,54.688,0
1492686015.325,54.688,90.332,76.660,38.086,20.020,0
1492686015.329,82.520,95.215,131.836,46.387,45.898,0
1492686015.333,77.637,88.867,135.742,50.781,61.523,0
1492686015.337,54.688,96.191,140.137,73.730,25.391,0
1492686015.340,52.246,78.613,85.449,47.363,35.156,0
1492686015.344,20.996,69.824,42.480,40.527,64.941,0
1492686015.348,18.066,76.172,47.363,50.293,37.109,0
1492686015.352,74.707,89.844,45.898,88.379,36.133,0
1492686015.356,58.105,85.938,15.137,77.148,44.922,0
1492686015.360,59.082,86.426,-5.859,73.730,41.016,0
1492686015.364,104.492,98.145,52.246,83.496,61.035,0
1492686015.368,67.871,78.613,98.633,48.340,66.895,0
1492686015.372,56.641,60.547,111.816,38.574,56.641,0
1492686015.376,58.105,64.941,121.582,64.453,46.875,0
1492686015.380,52.246,71.777,124.512,60.547,52.734,0
1492686015.383,70.312,72.266,72.266,40.527,66.406,0
1492686015.387,45.898,64.941,13.672,69.336,76.660,0
1492686015.391,67.383,90.820,-30.762,124.023,80.566,0
1492686015.395,89.844,116.211,12.207,113.281,64.941,0
1492686015.399,48.828,76.172,104.492,46.387,61.523,0
1492686015.403,51.270,66.406,144.043,56.641,89.355,0
1492686015.407,62.012,76.172,127.441,54.688,96.680,0
1492686015.411,49.316,70.312,78.613,41.016,64.453,0
1492686015.415,79.590,87.402,82.520,67.383,55.176,0
1492686015.419,90.820,91.797,106.934,79.590,82.520,0
1492686015.423,82.031,73.242,50.781,61.523,93.750,0
1492686015.426,98.633,103.516,55.176,95.215,68.848,0
1492686015.430,109.863,133.301,65.430,120.605,55.664,0
1492686015.434,89.844,98.633,55.176,96.680,77.148,0
1492686015.438,106.934,96.191,108.887,108.887,58.105,0
1492686015.442,103.027,101.562,96.680,108.398,62.012,0
1492686015.446,62.500,70.801,92.285,78.125,88.867,0
1492686015.450,56.152,76.172,93.262,90.332,94.727,0
1492686015.454,96.680,102.539,49.316,102.051,76.660,0
1492686015.458,97.168,102.539,26.855,95.703,44.922,0
1492686015.462,47.852,90.820,49.805,91.309,43.457,0
1492686015.465,77.637,95.703,83.496,109.863,65.430,0
1492686015.469,98.633,95.215,119.629,108.887,55.176,0
1492686015.473,103.516,97.168,97.656,94.727,25.879,0
1492686015.477,98.633,90.820,75.195,77.148,36.133,0
1492686015.481,75.684,87.891,56.641,62.012,57.129,0
1492686015.485,56.152,91.309,35.645,66.406,47.852,0
1492686015.489,23.926,71.289,59.082,61.035,47.852,0
1492686015.493,47.363,59.570,32.227,41.504,56.641,0
1492686015.497,73.730,69.336,27.832,55.664,63.965,0
1492686015.501,92.773,96.191,70.801,74.219,58.105,0
1492686015.505,96.191,103.027,103.027,93.262,64.453,0
1492686015.508,106.934,96.191,121.094,88.867,67.383,0
1492686015.512,108.887,96.680,123.047,68.848,74.219,0
1492686015.516,71.289,87.402,72.266,82.031,75.684,0
1492686015.520,51.270,75.195,-13.672,73.730,36.133,0
1492686015.524,28.320,86.426,-13.184,55.664,62.988,0
1492686015.528,53.711,85.938,68.848,49.316,66.406,0
1492686015.532,69.824,60.547,24.902,38.086,54.199,0
1492686015.536,57.617,66.406,-41.016,62.012,54.688,0
1492686015.540,63.477,85.449,-6.348,73.242,62.988,0
1492686015.544,83.984,95.215,108.398,92.773,72.266,0
1492686015.548,121.582,89.844,160.156,85.449,61.035,0
1492686015.551,140.625,90.332,79.102,83.008,45.410,0
1492686015.555,88.379,86.426,64.941,77.637,20.996,0
1492686015.559,49.316,63.477,93.750,34.180,33.691,0
1492686015.563,66.406,62.988,57.617,62.500,62.012,0
1492686015.567,53.223,45.410,20.508,58.105,88.379,0
1492686015.571,54.199,31.250,-7.812,46.875,94.238,0
1492686015.575,82.031,55.664,-40.039,78.125,91.797,0
1492686015.579,71.289,55.664,4.883,34.668,93.262,0
1492686015.583,92.285,84.473,83.008,49.805,106.445,0
1492686015.587,105.957,107.910,104.980,94.238,127.930,0
1492686015.590,64.941,99.121,74.219,78.613,104.004,0
1492686015.594,83.008,115.723,39.551,90.820,71.777,0
1492686015.598,99.121,104.980,18.066,104.004,72.754,0
1492686015.602,76.660,66.895,45.410,62.012,85.449,0
1492686015.606,69.336,39.062,80.078,47.363,65.918,0
1492686015.610,57.617,36.621,30.762,38.574,29.785,0
1492686015.614,85.938,80.566,41.016,54.199,57.129,0
1492686015.618,72.266,87.891,74.219,75.195,90.332,0
1492686015.622,62.500,72.266,-48.340,55.664,68.359,0
1492686015.626,99.609,105.469,-41.992,69.824,56.152,0
1492686015.630,82.031,118.164,105.957,77.148,71.289,0
1492686015.633,67.871,102.051,134.277,71.289,57.617,0
1492686015.637,77.637,104.492,114.258,73.730,61.035,0
1492686015.641,69.336,107.422,134.277,65.430,80.078,0
1492686015.645,33.203,87.891,96.191,59.082,63.965,0
1492686015.649,34.180,78.125,-5.859,26.855,43.945,0
1492686015.653,63.477,74.707,11.719,20.996,-8.789,0
1492686015.657,66.406,68.848,-23.926,64.941,36.621,0
1492686015.661,83.008,88.379,-18.066,62.988,83.008,0
1492686015.665,108.398,107.910,93.262,66.406,27.832,0
