timestamps,TP9,AF7,AF8,TP10,Right AUX,Marker0
1492775888.870,44.922,28.809,-15.625,41.016,24.902,0
1492775888.874,42.480,26.855,18.066,31.250,94.727,0
1492775888.878,37.598,23.438,59.082,39.551,67.871,0
1492775888.882,43.945,20.508,43.457,44.922,20.020,0
1492775888.886,62.988,37.598,45.410,47.852,52.734,0
1492775888.889,57.617,27.344,47.852,46.875,54.199,0
1492775888.893,55.176,21.973,64.941,59.570,10.742,0
1492775888.897,37.109,16.113,78.613,43.457,-23.438,0
1492775888.901,20.996,13.184,77.637,17.578,-0.977,0
1492775888.905,62.988,51.270,84.473,52.734,62.500,0
1492775888.909,83.984,66.406,51.270,85.938,45.410,0
1492775888.913,41.016,35.645,5.371,50.781,16.602,0
1492775888.917,23.438,2.441,21.484,30.273,15.625,0
1492775888.921,36.133,7.812,48.340,52.246,37.109,0
1492775888.925,43.457,36.621,64.941,53.711,41.016,0
1492775888.928,58.594,47.852,72.266,62.988,27.344,0
1492775888.932,56.152,41.504,26.855,61.035,65.430,0
1492775888.936,42.969,32.715,3.906,50.781,91.309,0
1492775888.940,45.410,35.645,45.410,42.480,51.758,0
1492775888.944,48.828,41.016,88.867,31.738,-18.066,0
1492775888.948,56.641,31.738,80.078,40.039,11.719,0
1492775888.952,60.059,22.461,22.461,48.828,77.148,0
1492775888.956,53.223,26.367,24.414,47.852,46.875,0
1492775888.960,53.711,38.574,26.855,50.293,8.789,0
1492775888.964,30.273,28.320,-3.906,24.414,16.113,0
1492775888.968,5.371,0.488,-12.695,-11.719,35.156,0
1492775888.971,16.113,9.277,-17.578,3.906,70.801,0
1492775888.975,31.738,31.250,11.719,9.766,62.012,0
1492775888.979,28.809,21.484,35.645,-0.488,7.812,0
1492775888.983,46.875,23.926,49.805,19.531,-5.371,0
1492775888.987,62.012,30.762,21.484,40.527,-12.207,0
1492775888.991,64.941,27.344,-0.488,52.246,1.465,0
1492775888.995,71.289,36.621,20.508,57.129,31.250,0
1492775888.999,59.082,35.156,37.109,41.504,31.250,0
1492775889.003,60.059,38.086,41.992,41.992,43.945,0
1492775889.007,83.496,52.734,23.926,58.594,42.969,0
1492775889.011,84.961,59.570,22.949,72.266,12.207,0
1492775889.014,66.406,47.852,28.809,62.988,2.930,0
1492775889.018,40.527,26.855,46.387,31.738,36.621,0
1492775889.022,39.551,35.645,85.938,42.480,37.598,0
1492775889.026,45.410,49.316,66.895,61.523,27.832,0
1492775889.030,45.410,52.246,62.012,62.988,3.418,0
1492775889.034,48.340,53.711,66.895,46.387,5.371,0
1492775889.038,57.617,57.129,23.926,36.133,50.293,0
1492775889.042,66.406,49.316,18.066,49.805,47.363,0
1492775889.046,54.199,42.480,44.922,49.805,6.348,0
1492775889.050,53.711,46.875,62.012,47.363,18.066,0
1492775889.053,79.590,52.734,72.266,49.805,46.875,0
1492775889.057,78.125,69.824,52.734,67.871,51.270,0
1492775889.061,46.387,40.039,17.578,60.547,51.758,0
1492775889.065,46.387,16.113,33.691,37.109,31.250,0
1492775889.069,61.523,42.969,47.852,54.199,39.062,0
1492775889.073,70.801,42.969,34.180,50.781,38.086,0
1492775889.077,78.613,33.691,38.086,44.922,1.465,0
1492775889.081,73.730,47.852,83.008,56.641,-22.461,0
1492775889.085,74.707,55.664,107.422,54.688,6.348,0
1492775889.089,92.773,64.941,75.195,68.359,59.082,0
1492775889.093,92.773,71.777,35.156,73.242,15.625,0
1492775889.096,89.355,71.289,29.297,59.570,-23.438,0
1492775889.100,82.031,57.129,62.988,44.434,25.391,0
1492775889.104,52.734,27.832,70.801,13.184,55.176,0
1492775889.108,51.270,15.137,53.711,-5.859,45.898,0
1492775889.112,63.965,24.414,30.273,4.883,4.395,0
1492775889.116,55.176,20.508,3.418,1.465,24.902,0
1492775889.120,58.594,21.973,27.832,6.836,54.199,0
1492775889.124,67.383,39.062,0.977,24.414,41.992,0
1492775889.128,52.246,39.551,-25.879,14.648,16.602,0
1492775889.132,61.035,56.152,29.297,18.066,1.465,0
1492775889.136,83.008,77.148,72.266,29.785,25.391,0
1492775889.139,66.895,60.547,63.965,29.785,22.461,0
1492775889.143,48.828,26.855,46.875,15.137,-3.418,0
1492775889.147,21.484,2.930,40.527,-21.973,2.441,0
1492775889.151,-4.883,-4.883,-7.812,-36.133,11.719,0
1492775889.155,13.672,18.066,-51.270,-3.906,23.438,0
1492775889.159,38.574,44.922,-1.465,28.320,25.391,0
1492775889.163,42.480,37.109,53.711,30.762,11.230,0
1492775889.167,41.992,41.992,57.617,33.203,60.547,0
1492775889.171,59.082,73.242,68.359,54.688,62.012,0
1492775889.175,46.387,57.617,46.387,43.945,57.129,0
1492775889.178,29.297,41.016,-1.465,22.949,39.062,0
1492775889.182,34.668,45.410,-16.113,37.598,-32.715,0
1492775889.186,33.203,29.785,4.395,35.156,-11.230,0
1492775889.190,37.109,17.578,65.918,20.996,50.781,0
1492775889.194,21.973,12.695,83.496,27.344,33.203,0
1492775889.198,26.367,19.043,58.105,28.809,-2.930,0
1492775889.202,38.574,8.789,42.480,20.508,37.598,0
1492775889.206,40.527,0.488,20.508,14.160,74.707,0
1492775889.210,33.203,9.766,19.531,21.484,2.441,0
1492775889.214,27.832,4.883,-3.418,25.879,8.789,0
1492775889.218,45.898,18.555,6.836,30.762,50.781,0
1492775889.221,49.805,36.621,17.578,41.504,38.574,0
1492775889.225,40.039,29.297,-10.254,30.762,18.066,0
1492775889.229,37.109,33.691,30.762,27.344,-21.484,0
1492775889.233,51.758,38.574,63.477,41.016,33.203,0
1492775889.237,52.246,34.180,56.152,35.156,68.848,0
1492775889.241,59.570,44.434,87.402,50.293,36.621,0
1492775889.245,62.012,42.969,83.496,56.152,-13.184,0
1492775889.249,40.527,18.555,16.113,25.879,21.973,0
1492775889.253,43.457,12.207,0.488,29.785,75.195,0
1492775889.257,39.062,16.113,41.992,33.691,57.129,0
1492775889.261,21.973,4.395,28.320,9.277,12.695,0
1492775889.264,51.270,22.949,-2.930,25.391,-1.953,0
1492775889.268,72.266,38.574,44.434,28.809,23.438,0
1492775889.272,54.199,30.762,84.961,20.508,24.414,0
1492775889.276,41.504,34.180,46.387,25.879,5.371,0
1492775889.280,47.363,47.363,-5.371,17.578,24.414,0
1492775889.284,61.035,49.316,15.625,21.973,62.012,0
1492775889.288,44.434,40.527,44.922,33.691,50.781,0
1492775889.292,34.668,24.414,51.758,24.414,7.324,0
1492775889.296,56.641,26.367,77.148,29.297,19.531,0
1492775889.300,58.105,39.062,61.523,41.504,24.902,0
1492775889.303,56.152,39.062,38.086,44.434,21.484,0
1492775889.307,52.246,41.504,58.594,38.086,50.781,0
1492775889.311,25.391,16.113,62.500,9.277,21.484,0
1492775889.315,31.250,8.789,-2.441,11.719,0.488,0
1492775889.319,41.504,23.926,-19.531,18.066,2.441,0
1492775889.323,44.434,37.109,29.785,19.531,9.766,0
1492775889.327,65.430,60.059,50.293,54.688,12.207,0
1492775889.331,67.383,69.824,72.754,60.059,29.785,0
1492775889.335,59.570,58.105,80.078,37.598,49.805,0
1492775889.339,79.102,63.965,74.219,66.895,38.086,0
1492775889.343,74.707,69.336,55.664,75.195,25.391,0
1492775889.346,62.012,39.062,6.348,32.715,13.672,0
1492775889.350,75.195,28.320,31.250,26.367,24.414,0
1492775889.354,65.430,39.551,76.660,31.250,50.293,0
1492775889.358,69.336,63.965,77.148,59.082,32.715,0
1492775889.362,85.449,78.613,53.223,70.312,-32.715,0
1492775889.366,75.684,61.523,34.668,47.852,-36.621,0
1492775889.370,83.008,63.477,32.715,57.129,40.527,0
1492775889.374,92.773,61.523,52.246,41.992,70.801,0
1492775889.378,104.492,60.059,87.402,40.527,25.391,0
1492775889.382,112.793,73.730,97.168,72.754,4.883,0
1492775889.386,70.801,51.758,84.961,59.082,40.527,0
1492775889.389,44.434,35.156,73.242,39.551,41.992,0
1492775889.393,68.359,24.902,63.477,44.922,46.875,0
1492775889.397,60.059,25.879,29.297,50.293,56.641,0
1492775889.401,19.043,17.090,9.277,31.738,48.828,0
1492775889.405,-2.930,-2.930,0.488,16.113,24.414,0
1492775889.409,-3.418,4.395,-19.043,5.859,20.996,0
1492775889.413,-7.324,6.348,6.836,-5.859,31.738,0
1492775889.417,-3.906,9.766,12.695,3.906,24.414,0
1492775889.421,13.184,16.602,7.812,13.184,-7.812,0
1492775889.425,25.879,23.438,51.758,12.695,-14.160,0
1492775889.428,43.457,33.691,66.406,33.691,4.395,0
1492775889.432,31.250,29.297,19.043,42.969,12.695,0
1492775889.436,22.949,17.090,-13.184,18.555,24.414,0
1492775889.440,20.020,-9.277,19.531,2.930,56.641,0
1492775889.444,-2.930,-27.832,16.113,-5.371,38.086,0
1492775889.448,-7.324,-19.043,-0.977,-10.254,0.977,0
1492775889.452,-5.371,-14.160,8.789,-19.531,8.301,0
1492775889.456,5.859,-8.789,-36.621,-6.836,36.133,0
1492775889.460,-2.441,-24.902,-95.703,1.465,43.945,0
1492775889.464,-9.277,-34.180,-43.457,-13.672,18.066,0
1492775889.468,4.883,-10.254,0.977,-19.531,24.414,0
1492775889.471,0.488,-5.371,3.906,-15.625,62.988,0
1492775889.475,1.465,-12.207,10.742,-13.184,45.410,0
1492775889.479,-13.184,-38.574,-34.180,-39.551,0.000,1
1492775889.483,-26.367,-57.617,-72.754,-54.688,16.113,0
1492775889.487,-33.691,-61.035,-54.688,-48.340,29.297,0
1492775889.491,-36.133,-59.570,-20.020,-44.434,45.410,0
1492775889.495,-20.508,-56.152,-63.477,-32.227,33.203,0
1492775889.499,-6.836,-35.156,-78.613,-16.602,6.836,0
1492775889.503,-14.648,-18.066,-15.137,-14.648,15.625,0
1492775889.507,-36.621,-30.762,4.395,-32.227,44.922,0
1492775889.511,-34.180,-33.203,-58.105,-30.762,16.602,0
1492775889.514,-30.762,-34.668,-64.453,-28.320,-14.648,0
1492775889.518,-19.531,-34.668,-4.395,-32.227,29.297,0
1492775889.522,-5.371,-42.969,-35.645,-28.809,73.730,0
1492775889.526,-9.766,-52.246,-63.477,-23.926,43.457,0
1492775889.530,-28.809,-54.688,-68.359,-16.602,1.953,0
1492775889.534,-35.645,-58.105,-25.391,-22.461,46.387,0
1492775889.538,-18.066,-25.879,18.555,-7.812,81.055,0
1492775889.542,0.488,-5.371,18.555,15.625,44.434,0
1492775889.546,0.488,-18.555,11.230,3.418,20.020,0
1492775889.550,2.930,-14.160,-0.488,-0.488,16.602,0
1492775889.553,9.277,-7.812,-7.812,17.090,43.457,0
1492775889.557,11.230,-10.742,-22.949,24.414,21.484,0
1492775889.561,15.625,-13.184,-5.371,24.414,-5.859,0
1492775889.565,27.832,-10.254,4.883,27.344,48.340,0
1492775889.569,28.320,-19.531,29.785,26.367,52.734,0
1492775889.573,19.531,-24.414,8.789,23.438,33.691,0
1492775889.577,-0.977,-22.461,-18.066,23.926,26.855,0
1492775889.581,-4.883,-31.250,16.602,23.926,37.598,0
1492775889.585,9.277,-21.973,2.441,32.715,57.129,0
1492775889.589,7.812,-24.414,-4.395,20.996,66.895,0
1492775889.593,9.766,-25.391,3.418,-1.953,32.715,0
1492775889.596,14.648,-24.902,-19.043,5.371,-22.461,0
1492775889.600,7.812,-48.340,-39.551,5.859,-15.137,0
1492775889.604,-0.488,-56.641,-8.301,0.488,-2.441,0
1492775889.608,-15.137,-56.152,17.090,-6.348,31.250,0
1492775889.612,-12.695,-54.199,-0.977,-1.465,16.602,0
1492775889.616,4.395,-40.039,0.000,5.859,11.230,0
1492775889.620,8.301,-25.879,13.184,12.695,39.062,0
1492775889.624,16.602,3.906,21.973,25.391,39.062,0
1492775889.628,50.781,41.504,57.129,46.875,41.992,0
1492775889.632,50.293,27.344,52.734,47.852,12.207,0
1492775889.636,30.762,10.254,22.949,20.020,18.555,0
1492775889.639,47.363,20.996,6.348,21.973,37.109,0
1492775889.643,55.664,20.020,20.996,36.133,3.906,0
1492775889.647,53.223,20.020,21.484,41.504,5.859,0
1492775889.651,53.711,19.043,1.465,39.551,20.020,0
1492775889.655,45.898,18.066,16.602,39.551,13.184,0
1492775889.659,41.992,20.020,19.531,37.598,22.949,0
1492775889.663,49.805,5.859,25.391,30.762,11.719,0
1492775889.667,54.688,-4.883,31.738,20.996,21.484,0
1492775889.671,41.504,9.277,43.945,15.137,42.969,0
1492775889.675,33.203,23.926,55.176,29.297,30.762,0
1492775889.678,35.156,15.137,36.133,23.926,15.625,0
1492775889.682,34.180,28.809,2.930,25.879,9.277,0
1492775889.686,14.160,13.184,-13.184,23.926,61.035,0
1492775889.690,17.090,-0.488,-42.969,16.113,51.758,0
1492775889.694,38.574,26.367,0.977,27.344,-31.738,0
1492775889.698,32.227,22.461,62.012,16.113,12.207,0
1492775889.702,31.250,11.719,13.672,28.809,62.012,0
1492775889.706,31.250,5.859,16.602,39.551,49.805,0
1492775889.710,38.086,15.625,80.078,42.969,55.176,0
1492775889.714,52.734,33.203,97.656,62.500,33.691,0
1492775889.718,36.621,30.762,76.660,45.410,38.086,0
1492775889.721,52.734,43.457,44.434,46.875,52.734,0
1492775889.725,75.684,57.129,11.719,59.570,38.574,0
1492775889.729,62.012,41.504,56.152,53.711,41.016,0
1492775889.733,70.312,37.109,109.863,61.523,63.477,0
1492775889.737,70.801,47.363,128.418,69.824,63.477,0
1492775889.741,64.941,50.293,77.148,66.895,32.715,0
1492775889.745,73.242,44.922,-0.488,51.758,21.484,0
1492775889.749,61.523,28.320,29.297,38.574,61.523,0
1492775889.753,45.898,6.348,61.035,32.715,61.523,0
1492775889.757,40.527,20.020,62.988,33.203,35.645,0
1492775889.761,36.133,36.621,54.199,35.645,46.387,0
1492775889.764,41.504,37.598,54.688,35.156,14.648,0
1492775889.768,49.316,41.992,83.008,48.340,34.180,0
1492775889.772,42.480,29.785,82.031,39.062,54.199,0
1492775889.776,20.996,9.766,41.504,1.465,23.926,0
1492775889.780,1.953,-4.395,8.301,-15.137,7.324,0
1492775889.784,3.906,-8.789,3.418,-4.395,29.297,0
1492775889.788,25.879,-6.348,-1.953,9.766,53.223,0
1492775889.792,37.598,8.789,10.254,20.020,45.410,0
1492775889.796,45.410,16.602,24.414,27.832,0.000,0
1492775889.800,58.594,16.113,26.855,45.410,0.488,0
1492775889.803,57.129,23.926,44.434,36.133,59.082,0
1492775889.807,68.848,47.852,33.691,33.203,39.062,0
1492775889.811,75.684,67.383,65.918,45.410,21.973,0
1492775889.815,71.777,71.289,129.883,53.223,37.598,0
1492775889.819,72.266,56.641,105.957,52.246,42.969,0
1492775889.823,44.922,29.297,100.098,39.551,39.551,0
1492775889.827,48.340,41.504,106.445,48.340,1.465,0
1492775889.831,91.309,68.848,64.941,73.242,-4.395,0
1492775889.835,93.262,65.430,32.715,66.406,40.527,0
1492775889.839,99.609,70.312,69.336,60.547,72.266,0
1492775889.843,96.191,56.641,84.473,56.152,7.324,0
1492775889.846,73.242,21.484,63.477,44.922,-28.320,0
1492775889.850,70.312,24.902,53.223,41.016,36.621,0
1492775889.854,72.754,35.645,77.148,54.199,48.340,0
1492775889.858,74.707,45.410,109.863,55.664,5.859,0
1492775889.862,78.613,60.059,60.059,55.176,-9.277,0
1492775889.866,87.402,57.129,20.996,69.336,35.156,0
1492775889.870,98.145,54.688,64.453,74.707,71.289,0
1492775889.874,90.332,61.523,86.426,65.918,37.598,0
1492775889.878,78.125,49.316,52.734,49.805,13.672,0
1492775889.882,72.754,36.133,52.734,40.527,44.434,0
1492775889.886,52.246,12.207,75.684,30.762,39.551,0
1492775889.889,33.691,2.930,69.824,29.297,13.672,0
1492775889.893,33.203,13.672,-1.465,32.227,20.996,0
1492775889.897,35.645,14.648,-39.062,28.809,34.180,0
1492775889.901,39.551,16.602,28.320,40.527,37.598,0
1492775889.905,36.133,12.207,92.285,33.691,38.086,0
1492775889.909,21.973,3.906,72.266,10.742,37.598,0
1492775889.913,50.293,32.715,35.156,41.016,22.461,0
1492775889.917,63.965,48.340,60.059,62.012,42.480,0
1492775889.921,61.523,32.227,83.984,46.387,68.848,0
1492775889.925,49.805,23.926,38.574,31.738,54.688,0
1492775889.928,-1.953,-0.488,-14.648,3.418,56.641,0
1492775889.932,-25.391,-36.133,-17.578,-13.184,28.320,0
1492775889.936,-20.508,-59.082,-12.695,-24.902,20.020,0
1492775889.940,-22.461,-45.410,-15.625,-34.668,52.246,0
1492775889.944,-32.715,-41.504,-7.812,-45.410,25.879,0
1492775889.948,-40.039,-67.871,-27.832,-69.824,5.859,0
1492775889.952,-39.551,-56.152,-70.801,-58.105,51.270,0
1492775889.956,-26.855,-38.086,-34.668,-52.734,62.012,0
1492775889.960,-9.766,-35.645,-4.395,-57.129,30.762,0
1492775889.964,-20.508,-41.992,-56.152,-64.941,10.742,0
1492775889.968,-32.227,-53.711,-65.918,-85.449,48.828,0
1492775889.971,-53.223,-74.707,-74.219,-102.051,73.242,0
1492775889.975,-62.988,-72.754,-98.633,-100.586,24.902,0
1492775889.979,-41.992,-72.266,-62.012,-93.750,-21.973,0
1492775889.983,-45.898,-83.984,-72.266,-132.812,18.555,0
1492775889.987,-41.992,-67.383,-72.754,-137.207,66.406,0
1492775889.991,-28.809,-59.570,-38.086,-112.793,36.621,0
1492775889.995,-10.742,-47.363,-38.086,-101.074,17.090,0
1492775889.999,12.695,-17.578,-32.715,-72.754,44.434,0
1492775890.003,0.488,-11.230,-29.785,-59.082,83.984,0
1492775890.007,-21.973,-17.578,-14.648,-61.523,72.266,0
1492775890.011,-6.836,-12.207,-53.711,-42.480,16.602,0
1492775890.014,12.695,-7.324,-62.988,-37.109,20.996,0
1492775890.018,13.672,-15.625,-7.812,-45.410,46.875,0
1492775890.022,11.230,-26.855,32.227,-29.785,38.086,0
1492775890.026,23.926,-7.812,51.758,1.953,4.395,0
1492775890.030,23.438,20.020,30.762,17.090,16.113,0
1492775890.034,6.836,18.066,4.395,6.348,62.500,0
1492775890.038,2.441,16.113,23.438,1.465,65.430,0
1492775890.042,6.836,7.812,35.156,6.836,38.086,0
1492775890.046,16.113,10.254,8.301,20.996,21.973,0
1492775890.050,7.324,10.742,12.207,18.066,22.949,0
1492775890.053,-36.133,-28.320,8.301,-20.996,43.945,0
1492775890.057,-56.641,-50.781,-0.977,-44.922,46.875,0
1492775890.061,-22.949,-30.273,31.738,-32.715,28.809,0
1492775890.065,14.648,-2.441,39.551,0.000,27.832,0
1492775890.069,20.020,-6.348,-7.324,19.043,33.691,0
1492775890.073,-6.348,-25.391,-8.301,-1.465,38.574,0
1492775890.077,-5.371,-2.441,26.855,18.066,41.016,0
1492775890.081,9.766,14.160,49.316,41.504,33.203,0
1492775890.085,11.230,4.395,17.090,12.695,19.043,0
1492775890.089,20.508,5.371,-39.062,9.766,51.270,0
1492775890.093,28.320,9.766,-13.184,25.391,51.758,0
1492775890.096,39.551,16.113,49.805,35.645,19.043,0
1492775890.100,48.828,19.043,66.406,23.926,42.969,0
1492775890.104,61.035,28.320,22.461,28.809,83.008,0
1492775890.108,58.105,22.949,0.488,37.109,63.477,0
1492775890.112,56.641,7.812,62.012,20.508,4.883,0
1492775890.116,57.129,-0.977,49.316,8.789,6.836,0
1492775890.120,54.199,3.906,9.277,10.254,49.805,0
1492775890.124,74.219,30.762,4.883,37.109,83.496,0
1492775890.128,72.754,40.039,8.789,30.762,110.352,0
1492775890.132,70.312,45.898,26.367,31.250,121.094,0
1492775890.136,77.637,56.152,35.156,52.734,140.137,0
1492775890.139,67.383,48.340,26.855,50.781,117.188,0
1492775890.143,75.195,60.059,35.156,57.617,89.355,0
1492775890.147,69.824,78.613,49.316,61.523,93.262,0
1492775890.151,57.129,63.965,61.035,60.059,95.703,0
1492775890.155,48.828,41.504,84.473,41.992,75.684,0
1492775890.159,41.992,38.086,63.477,40.039,42.480,0
1492775890.163,67.383,39.551,41.992,50.781,45.410,0
1492775890.167,67.383,43.457,68.359,43.457,48.340,0
1492775890.171,58.594,41.016,61.523,53.223,56.152,0
1492775890.175,62.500,40.039,36.133,57.617,51.270,0
1492775890.178,74.219,51.758,8.301,71.777,6.348,0
1492775890.182,82.520,65.918,24.414,71.777,18.066,0
1492775890.186,59.570,51.270,5.859,31.738,20.020,0
1492775890.190,5.371,-2.930,-8.789,-19.043,2.441,0
1492775890.194,-6.836,-9.277,24.902,-29.785,8.789,0
1492775890.198,35.156,25.879,13.672,16.113,17.090,0
1492775890.202,55.664,29.297,34.180,33.691,25.879,0
1492775890.206,47.363,14.160,46.387,11.719,19.531,0
1492775890.210,46.387,16.602,4.395,20.020,11.230,0
1492775890.214,40.039,15.625,21.973,19.043,-0.977,0
1492775890.218,61.523,25.879,23.438,19.531,-23.926,0
1492775890.221,103.027,47.363,-6.836,43.945,-17.090,0
1492775890.225,88.379,37.598,17.090,47.852,37.109,0
1492775890.229,81.055,41.016,-0.977,44.922,17.090,0
1492775890.233,74.219,43.457,21.973,43.457,-8.789,0
1492775890.237,61.523,36.621,76.172,44.434,8.789,0
1492775890.241,84.473,57.617,80.078,54.199,34.668,0
1492775890.245,102.051,61.035,90.332,58.105,12.695,0
1492775890.249,90.820,49.316,78.613,63.965,-16.602,0
1492775890.253,80.566,40.527,57.617,50.293,2.930,0
1492775890.257,70.801,20.020,14.160,27.344,28.320,0
1492775890.261,44.922,0.488,-5.371,21.484,2.930,0
1492775890.264,37.598,-1.465,1.465,23.438,-42.969,0
1492775890.268,54.199,3.906,20.020,28.809,6.836,0
1492775890.272,44.922,8.789,38.574,29.297,47.363,0
1492775890.276,41.504,26.855,23.926,32.715,36.133,0
1492775890.280,55.176,34.668,20.020,31.250,-9.277,0
1492775890.284,47.852,21.484,22.949,18.066,-11.719,0
1492775890.288,37.598,16.602,27.344,12.207,29.297,0
1492775890.292,60.547,41.016,66.895,43.457,7.324,0
1492775890.296,76.172,51.758,102.051,61.035,-19.531,0
1492775890.300,50.293,33.203,62.988,37.598,12.695,0
1492775890.303,34.180,18.555,45.898,34.180,4.395,0
1492775890.307,41.504,14.160,41.992,35.156,-42.480,0
1492775890.311,37.598,10.742,38.574,29.297,-38.086,0
1492775890.315,45.410,14.160,75.195,21.973,2.441,0
1492775890.319,74.219,35.645,68.359,40.039,32.715,0
1492775890.323,81.055,60.547,28.809,71.289,16.602,0
1492775890.327,59.570,62.500,12.695,67.871,13.184,0
1492775890.331,61.523,62.500,35.156,50.781,15.625,0
1492775890.335,80.566,65.918,51.270,44.922,13.184,0
1492775890.339,78.125,57.129,85.449,38.086,19.043,0
1492775890.343,59.570,40.039,100.098,26.367,-5.371,0
1492775890.346,54.199,37.109,77.637,35.156,-4.883,0
1492775890.350,58.594,46.387,76.660,44.922,12.695,0
1492775890.354,63.477,66.895,65.430,61.523,30.273,0
1492775890.358,68.359,57.129,65.430,72.266,33.691,0
1492775890.362,66.895,31.250,76.172,63.477,-0.977,0
1492775890.366,70.312,38.574,70.801,64.941,-6.836,0
1492775890.370,59.082,39.551,57.617,41.504,-5.371,0
1492775890.374,54.688,39.551,45.898,36.621,6.348,0
1492775890.378,76.660,51.270,40.527,51.758,16.602,0
1492775890.382,77.148,46.875,51.270,53.223,4.395,0
1492775890.386,74.707,44.434,41.016,76.172,14.648,0
1492775890.389,69.824,43.945,51.270,77.148,56.152,0
1492775890.393,69.824,41.016,110.352,60.547,29.785,0
1492775890.397,78.125,42.480,84.473,60.059,-8.301,0
1492775890.401,85.938,58.594,25.879,76.172,7.324,0
1492775890.405,93.750,62.988,58.105,85.449,52.734,0
1492775890.409,85.938,40.039,102.051,76.172,53.711,0
1492775890.413,77.148,31.250,86.426,64.453,31.738,0
1492775890.417,69.824,40.039,45.410,55.664,35.156,0
1492775890.421,43.945,26.855,21.484,41.992,35.645,0
1492775890.425,48.340,25.391,25.391,38.086,35.645,0
1492775890.428,59.082,29.785,52.734,49.316,10.742,0
1492775890.432,38.574,18.066,50.293,38.086,23.926,0
1492775890.436,41.504,19.043,15.625,36.133,54.199,0
1492775890.440,55.176,24.414,45.410,50.781,35.156,0
1492775890.444,76.172,32.227,78.613,63.477,-22.461,0
1492775890.448,85.449,33.691,84.473,81.055,-3.906,0
1492775890.452,68.848,45.898,95.703,96.680,43.945,0
1492775890.456,58.105,55.664,100.586,77.637,30.762,0
1492775890.460,52.734,46.387,86.426,48.340,9.277,0
1492775890.464,58.105,50.781,52.246,48.828,3.906,0
1492775890.468,60.059,60.547,63.965,59.570,41.016,0
1492775890.471,60.547,60.059,97.168,60.059,43.457,0
1492775890.475,52.246,41.992,60.059,47.852,18.066,0
1492775890.479,6.836,-4.395,8.789,4.395,17.578,0
1492775890.483,-5.859,-15.625,-35.645,-16.602,21.484,0
1492775890.487,8.789,5.859,-25.879,-2.930,-6.348,0
1492775890.491,7.812,7.324,13.672,8.301,-14.160,0
1492775890.495,9.766,-6.836,48.828,14.648,-1.953,0
1492775890.499,23.438,-7.812,44.434,20.508,17.578,0
1492775890.503,39.062,-2.930,21.484,27.832,19.043,0
1492775890.507,36.621,-4.395,18.066,23.926,28.320,0
1492775890.511,38.086,19.043,11.719,29.297,39.062,0
1492775890.514,45.898,46.387,42.480,37.109,31.250,0
1492775890.518,35.645,37.109,36.133,27.832,38.086,0
1492775890.522,19.531,20.020,14.160,21.973,38.086,0
1492775890.526,26.367,20.996,31.250,22.461,13.184,0
1492775890.530,39.551,17.090,48.340,29.297,-27.344,0
1492775890.534,41.992,20.020,-27.344,19.043,-2.441,0
1492775890.538,17.090,5.371,-76.660,10.254,26.367,0
1492775890.542,23.438,-0.488,10.742,18.555,32.227,0
1492775890.546,27.832,12.695,63.477,19.043,13.184,0
1492775890.550,-17.578,-23.438,3.418,-22.949,-3.906,0
1492775890.553,-33.691,-48.340,-21.484,-46.387,56.641,0
1492775890.557,-24.414,-33.203,3.906,-36.133,55.664,0
1492775890.561,-2.930,0.000,10.254,-8.789,-18.066,0
1492775890.565,-1.465,4.395,25.391,1.465,1.953,0
1492775890.569,-6.836,0.000,16.113,-14.648,45.898,0
1492775890.573,-5.371,7.812,0.977,-23.926,36.621,0
1492775890.577,24.414,23.926,-16.113,6.348,44.434,0
1492775890.581,52.246,31.250,-58.105,31.738,44.434,0
1492775890.585,54.688,29.785,-36.133,27.344,41.504,0
1492775890.589,42.480,16.113,30.273,26.367,39.551,0
1492775890.593,17.578,-13.672,76.172,7.324,7.812,0
1492775890.596,1.465,-17.090,58.105,-3.418,-26.855,0
1492775890.600,7.812,-3.418,31.738,-0.977,-7.324,0
1492775890.604,41.992,35.645,43.945,41.016,15.137,0
1492775890.608,58.105,46.387,38.086,51.270,-7.324,0
1492775890.612,32.715,1.465,18.555,8.301,-25.391,0
1492775890.616,21.973,-4.883,-8.301,14.648,29.297,0
1492775890.620,44.434,27.832,-19.531,49.316,56.152,0
1492775890.624,63.477,41.992,1.953,64.453,54.688,0
1492775890.628,95.703,74.219,77.148,92.773,26.855,0
1492775890.632,102.539,95.215,103.027,114.258,11.230,0
1492775890.636,98.633,89.355,104.004,104.492,47.363,0
1492775890.639,83.984,67.383,126.953,83.496,37.109,0
1492775890.643,47.363,26.855,93.750,46.875,26.855,0
1492775890.647,51.758,30.273,103.516,49.805,26.367,0
1492775890.651,77.148,68.359,82.520,83.496,30.762,0
1492775890.655,84.961,83.984,40.527,93.750,44.434,0
1492775890.659,81.543,71.777,46.875,81.543,15.625,0
1492775890.663,94.238,75.195,69.824,83.984,-9.766,0
1492775890.667,114.746,87.891,61.523,104.980,4.395,0
1492775890.671,96.191,73.242,24.902,85.449,29.297,0
1492775890.675,67.871,57.617,89.355,61.523,23.438,0
1492775890.678,79.590,66.895,142.090,65.430,-0.977,0
1492775890.682,100.098,82.520,120.117,77.148,-3.906,0
1492775890.686,93.750,68.848,79.102,68.359,30.762,0
1492775890.690,71.289,53.711,70.801,52.734,70.801,0
1492775890.694,64.453,44.922,51.270,50.781,41.992,0
1492775890.698,46.875,25.391,13.184,41.016,2.441,0
1492775890.702,41.992,26.855,8.301,33.203,21.484,0
1492775890.706,38.086,22.949,22.949,27.832,39.062,0
1492775890.710,21.973,-8.301,22.949,13.672,1.465,0
1492775890.714,36.133,8.789,5.859,30.273,-8.301,0
1492775890.718,55.176,30.273,35.156,47.363,34.668,0
1492775890.721,62.500,15.625,89.844,58.105,58.594,0
1492775890.725,38.574,10.254,96.191,46.387,12.695,0
1492775890.729,14.160,10.254,38.574,13.672,-16.113,0
1492775890.733,20.996,-2.930,-21.484,13.672,16.602,0
1492775890.737,33.691,-2.441,1.953,26.855,54.688,0
1492775890.741,40.039,22.949,50.781,38.574,29.297,2
1492775890.745,29.297,10.254,48.340,26.855,-26.855,0
1492775890.749,40.039,1.953,15.625,24.902,-14.160,0
1492775890.753,51.270,20.508,1.465,40.039,49.316,0
1492775890.757,47.852,24.902,28.809,25.879,73.730,0
1492775890.761,28.320,5.859,56.641,22.949,12.207,0
1492775890.764,16.602,-7.324,29.297,26.367,2.930,0
1492775890.768,20.996,-10.254,7.812,23.926,57.617,0
1492775890.772,26.367,-4.395,36.133,34.180,44.434,0
1492775890.776,20.020,-8.301,30.762,33.203,-8.789,0
1492775890.780,15.137,-16.113,20.508,22.461,4.395,0
1492775890.784,25.391,-8.301,9.277,18.555,20.508,0
1492775890.788,34.668,12.695,-52.246,36.621,28.320,0
1492775890.792,34.668,20.508,-45.898,39.551,25.391,0
1492775890.796,5.859,-4.395,20.508,13.672,-12.695,0
1492775890.800,10.254,-8.789,58.105,9.277,9.277,0
1492775890.803,36.621,-1.465,56.152,25.391,43.945,0
1492775890.807,27.344,-9.277,33.203,34.668,10.742,0
1492775890.811,20.020,-4.883,46.875,29.785,-17.090,0
1492775890.815,35.645,20.508,43.945,40.039,-16.602,0
1492775890.819,58.105,41.992,34.668,47.852,11.230,0
1492775890.823,25.879,20.996,48.828,20.508,42.480,0
1492775890.827,18.555,-4.395,11.230,7.324,20.996,0
1492775890.831,49.805,5.859,-15.625,12.695,1.465,0
1492775890.835,48.828,34.668,46.387,23.926,26.367,0
1492775890.839,47.363,27.832,65.918,22.461,41.016,0
1492775890.843,60.059,21.484,60.547,16.602,49.805,0
1492775890.846,91.797,62.988,64.453,50.293,4.883,0
1492775890.850,95.215,67.383,33.203,63.477,-13.184,0
1492775890.854,68.848,35.156,73.242,32.715,57.129,0
1492775890.858,71.777,47.852,96.191,41.504,36.133,0
1492775890.862,83.984,70.801,75.195,64.453,-38.574,0
1492775890.866,84.473,66.895,81.055,57.617,-49.316,0
1492775890.870,73.730,49.805,55.176,43.945,19.043,0
1492775890.874,63.965,51.270,42.969,54.199,48.828,0
1492775890.878,72.266,52.246,44.922,68.848,16.113,0
1492775890.882,80.566,36.133,62.988,50.293,23.926,0
1492775890.886,65.918,46.387,68.359,43.457,61.035,0
1492775890.889,60.059,63.477,45.898,52.246,58.594,0
1492775890.893,76.660,70.801,65.430,62.012,13.184,0
1492775890.897,85.938,68.359,35.156,68.359,-6.836,0
1492775890.901,89.355,56.641,-2.441,45.410,31.738,0
1492775890.905,90.820,61.523,83.008,52.246,63.477,0
1492775890.909,74.707,55.176,113.770,59.082,24.902,0
1492775890.913,29.297,17.090,54.688,14.648,0.488,0
1492775890.917,20.996,10.254,33.203,5.859,26.855,0
1492775890.921,65.430,48.340,26.367,41.016,10.254,0
1492775890.925,62.012,41.016,26.855,42.480,-44.434,0
1492775890.928,50.293,12.695,53.223,23.438,-24.902,0
1492775890.932,52.246,21.484,36.133,28.320,59.570,0
1492775890.936,36.621,21.973,22.949,26.855,82.520,0
1492775890.940,33.203,5.371,33.203,9.277,70.801,0
1492775890.944,38.086,6.348,33.691,12.695,55.176,0
1492775890.948,48.340,20.020,26.367,24.414,34.668,0
1492775890.952,32.227,27.832,17.578,14.648,36.133,0
1492775890.956,22.461,36.133,9.277,23.438,45.898,0
1492775890.960,42.480,41.992,37.598,48.340,40.039,0
1492775890.964,39.062,22.949,23.438,34.180,26.367,0
1492775890.968,30.762,3.906,-9.277,9.277,19.531,0
1492775890.971,42.480,2.930,21.973,15.625,0.000,0
1492775890.975,26.855,-2.441,30.762,12.207,2.441,0
1492775890.979,2.930,-18.555,12.207,-3.906,-8.301,0
1492775890.983,19.043,-18.555,5.371,-3.418,-1.953,0
1492775890.987,14.648,-23.438,-2.441,-14.648,44.922,0
1492775890.991,1.465,-20.508,14.160,3.906,37.598,0
1492775890.995,15.625,-10.254,-9.277,30.762,-3.418,0
1492775890.999,28.320,-10.742,-59.082,19.531,-20.508,0
1492775891.003,19.043,-7.324,-14.160,18.066,10.254,0
1492775891.007,28.809,7.812,11.719,27.344,53.711,0
1492775891.011,33.691,11.230,-18.066,20.996,3.418,0
1492775891.014,-2.930,-30.762,-17.090,-3.906,-40.039,0
1492775891.018,-32.227,-57.129,-7.324,-39.062,6.836,0
1492775891.022,-28.320,-46.387,-11.230,-40.039,47.363,0
1492775891.026,-26.855,-40.039,-46.875,-28.320,14.160,0
1492775891.030,-11.230,-31.250,-20.996,-29.785,-7.812,0
1492775891.034,6.348,-16.602,13.184,-17.090,27.344,0
1492775891.038,-12.695,-16.602,-13.672,-31.738,49.316,0
1492775891.042,-8.301,-21.973,-14.160,-30.273,27.344,0
1492775891.046,14.648,-8.789,2.930,2.930,10.254,0
1492775891.050,25.391,-2.441,3.418,9.277,45.410,0
1492775891.053,37.109,19.043,-18.555,13.184,47.363,0
1492775891.057,36.133,34.668,-25.391,13.672,1.953,0
1492775891.061,1.465,-1.465,17.090,-0.488,-5.859,0
1492775891.065,-11.230,-10.742,43.945,-6.348,18.066,0
1492775891.069,23.926,17.578,56.641,18.555,24.902,0
1492775891.073,41.504,11.719,36.133,31.738,40.527,0
1492775891.077,32.227,11.719,24.414,16.113,45.898,0
1492775891.081,33.203,25.879,26.367,14.648,41.992,0
1492775891.085,53.711,37.598,19.043,24.902,36.621,0
1492775891.089,52.246,26.855,40.039,25.391,36.133,0
1492775891.093,46.387,18.555,56.641,24.414,24.902,0
1492775891.096,61.523,37.598,49.805,38.086,20.508,0
1492775891.100,72.754,36.133,15.137,58.105,28.809,0
1492775891.104,75.195,18.066,-5.371,58.105,34.180,0
1492775891.108,51.270,1.953,12.695,21.484,32.227,0
1492775891.112,40.527,-5.371,28.320,0.488,41.504,0
1492775891.116,50.781,-4.395,23.438,17.578,45.410,0
1492775891.120,61.035,13.184,41.992,37.598,65.430,0
1492775891.124,58.594,31.250,75.195,35.645,57.617,0
1492775891.128,47.363,48.340,40.527,34.668,12.207,0
1492775891.132,62.988,60.547,20.996,50.293,21.973,0
1492775891.136,80.566,58.105,40.039,49.805,62.012,0
1492775891.139,55.664,44.434,23.438,44.922,60.547,0
1492775891.143,38.086,35.645,0.000,37.109,29.785,0
1492775891.147,45.898,33.691,6.348,35.645,6.348,0
1492775891.151,32.227,20.996,-13.184,33.691,5.859,0
1492775891.155,18.066,6.348,-21.484,14.648,50.293,0
1492775891.159,33.203,16.602,13.184,21.973,27.344,0
1492775891.163,25.879,8.789,20.996,18.066,5.859,0
1492775891.167,30.273,1.465,41.016,12.207,50.293,0
1492775891.171,38.574,14.648,60.059,26.367,82.520,0
1492775891.175,14.160,20.508,56.152,29.297,60.547,0
1492775891.178,8.301,17.090,31.250,31.250,26.367,0
1492775891.182,21.484,27.344,-14.648,38.086,33.203,0
1492775891.186,22.461,27.344,-26.367,39.551,41.016,0
1492775891.190,23.438,21.973,7.324,38.574,55.664,0
1492775891.194,25.391,17.578,50.781,37.109,24.902,0
1492775891.198,30.273,8.301,56.152,33.203,9.277,0
1492775891.202,39.062,23.926,29.785,40.039,51.758,0
1492775891.206,54.688,34.180,21.973,55.664,11.230,0
1492775891.210,70.801,42.480,45.898,74.219,-36.133,0
1492775891.214,66.406,51.270,75.684,67.383,-3.906,0
1492775891.218,76.660,66.406,90.820,68.359,35.645,0
1492775891.221,83.496,76.660,102.539,79.102,39.551,0
1492775891.225,72.754,76.172,87.402,86.426,11.719,0
1492775891.229,76.660,76.172,69.824,77.637,5.371,0
1492775891.233,71.289,58.105,44.434,57.129,18.555,0
1492775891.237,75.684,42.969,0.977,49.316,20.020,0
1492775891.241,69.336,32.715,27.344,54.199,-14.648,3
1492775891.245,45.410,19.043,77.637,49.316,12.207,0
1492775891.249,51.758,13.184,88.379,37.598,29.785,0
1492775891.253,65.918,25.879,99.121,40.039,30.762,0
1492775891.257,80.566,40.527,70.312,59.082,25.879,0
1492775891.261,94.238,61.035,51.270,79.590,-4.883,0
1492775891.264,91.309,71.777,65.918,77.148,-25.879,0
1492775891.268,84.473,60.059,73.242,59.570,-12.695,0
1492775891.272,88.379,42.969,80.566,56.152,48.828,0
1492775891.276,81.055,22.461,49.316,56.152,59.570,0
1492775891.280,94.238,41.992,38.574,82.031,-4.883,0
1492775891.284,93.750,43.457,27.832,80.566,-4.883,0
1492775891.288,79.590,27.344,40.527,56.152,41.992,0
1492775891.292,93.750,51.270,93.262,70.801,35.156,0
1492775891.296,87.402,49.316,98.145,66.895,12.207,0
1492775891.300,79.590,39.551,77.148,65.918,13.672,0
1492775891.303,76.660,51.270,35.156,74.707,47.363,0
1492775891.307,93.750,58.594,35.645,83.008,36.133,0
1492775891.311,102.539,56.641,30.762,73.730,20.508,0
1492775891.315,43.457,3.906,-18.555,16.602,26.367,0
1492775891.319,8.789,-10.254,-6.836,11.719,63.477,0
1492775891.323,42.480,19.043,38.086,44.434,93.262,0
1492775891.327,50.293,16.113,39.062,37.598,59.082,0
1492775891.331,17.090,-7.812,12.207,14.648,28.320,0
1492775891.335,22.949,-18.066,20.996,22.461,33.203,0
1492775891.339,22.949,-26.855,20.020,13.184,47.363,0
1492775891.343,13.184,-16.113,3.906,5.859,-9.277,0
1492775891.346,37.109,15.625,20.508,32.715,-22.949,0
1492775891.350,46.387,29.785,32.227,40.527,29.785,0
1492775891.354,48.340,39.062,27.344,38.574,31.250,0
1492775891.358,37.109,31.738,22.461,24.414,15.137,0
1492775891.362,30.273,26.855,-14.160,7.324,21.484,0
1492775891.366,39.551,29.785,5.371,10.254,40.039,0
1492775891.370,37.109,12.695,64.941,24.414,31.250,0
1492775891.374,36.621,1.953,43.945,32.715,14.160,0
1492775891.378,30.762,8.301,27.832,22.949,10.254,0
1492775891.382,35.156,16.113,38.086,9.766,22.949,0
1492775891.386,37.109,17.578,26.367,-4.883,28.320,0
1492775891.389,34.668,26.855,6.836,-11.719,37.598,0
1492775891.393,43.457,31.738,25.391,-1.953,40.527,0
1492775891.397,47.852,21.484,32.715,-3.906,6.836,0
1492775891.401,44.434,18.066,28.320,-11.230,20.508,0
1492775891.405,48.828,32.227,56.641,6.836,46.387,0
1492775891.409,71.289,50.781,69.336,33.691,29.297,0
1492775891.413,58.105,35.645,47.852,23.438,10.742,0
1492775891.417,31.738,9.277,24.902,11.719,28.320,0
1492775891.421,24.414,-2.930,48.828,6.348,46.387,0
1492775891.425,41.016,7.812,59.570,7.324,53.711,0
1492775891.428,39.062,12.207,41.992,17.578,31.738,0
1492775891.432,12.207,2.930,24.902,6.836,-9.766,0
1492775891.436,29.785,15.625,36.133,17.578,21.973,0
1492775891.440,38.574,23.926,26.367,13.672,71.289,0
1492775891.444,35.156,31.250,5.371,7.812,36.133,0
1492775891.448,45.898,32.715,-14.160,25.391,-9.766,0
1492775891.452,53.223,22.949,-5.859,17.090,39.062,0
1492775891.456,45.410,24.414,46.387,5.371,78.613,0
1492775891.460,35.156,23.438,72.754,0.000,29.785,0
1492775891.464,38.086,20.996,56.152,14.648,13.184,0
1492775891.468,40.039,21.484,12.695,20.996,30.273,0
1492775891.471,29.297,29.297,6.836,11.719,36.621,0
1492775891.475,23.438,19.043,18.066,-1.465,5.371,0
1492775891.479,27.344,10.254,28.809,0.977,-50.781,0
1492775891.483,13.184,9.277,26.367,5.371,-3.906,0
1492775891.487,16.602,21.973,-1.465,7.812,72.754,0
1492775891.491,18.555,19.531,-21.973,12.207,38.086,0
1492775891.495,18.555,1.953,-11.230,16.113,-1.465,0
1492775891.499,26.367,9.277,21.484,13.672,23.438,0
1492775891.503,20.996,-11.230,23.926,6.836,46.387,0
1492775891.507,13.184,-26.367,34.668,15.625,65.430,0
1492775891.511,23.926,4.883,63.965,32.227,53.223,0
1492775891.514,21.484,13.672,31.738,21.484,30.273,0
1492775891.518,7.324,-2.930,-3.418,6.348,26.367,0
1492775891.522,23.926,8.789,23.438,20.020,19.531,0
1492775891.526,21.484,-1.953,-28.320,6.836,13.672,0
1492775891.530,-1.465,-32.227,-107.422,-21.973,15.137,0
1492775891.534,-14.160,-32.715,-58.594,-22.949,51.270,0
1492775891.538,-47.852,-57.129,-23.438,-45.898,56.152,0
1492775891.542,-53.711,-67.383,-18.555,-70.801,43.457,0
1492775891.546,-33.691,-48.828,-26.367,-55.176,22.949,0
1492775891.550,-30.762,-41.016,-76.172,-37.598,6.348,0
1492775891.553,-34.668,-44.922,-85.938,-66.895,34.668,0
1492775891.557,-25.879,-40.039,-34.180,-64.453,82.520,0
1492775891.561,12.207,-3.418,3.906,-18.066,54.199,0
1492775891.565,41.504,2.441,-26.367,-8.301,-8.789,0
1492775891.569,44.434,-8.789,-28.320,-9.766,31.738,0
1492775891.573,61.035,4.395,-46.387,-7.812,77.148,0
1492775891.577,60.059,18.066,5.371,0.488,38.086,0
1492775891.581,36.621,18.555,83.008,-0.488,20.020,0
1492775891.585,46.387,31.250,47.363,11.230,58.594,0
1492775891.589,60.547,39.062,27.832,37.109,73.242,0
1492775891.593,42.969,36.621,59.570,41.992,25.879,0
1492775891.596,30.273,43.457,50.293,37.109,24.414,0
1492775891.600,45.898,42.480,43.945,38.086,46.387,0
1492775891.604,69.336,46.387,42.969,52.734,44.434,0
1492775891.608,52.246,50.293,34.180,44.922,39.062,0
1492775891.612,28.809,43.457,2.930,36.621,-11.719,0
1492775891.616,32.715,38.086,-39.551,48.828,-30.273,0
1492775891.620,40.527,29.785,20.508,53.223,59.082,0
1492775891.624,40.527,21.973,74.707,43.945,60.059,0
1492775891.628,30.273,23.926,60.059,29.297,-0.977,0
1492775891.632,31.738,16.113,53.223,28.320,28.809,0
1492775891.636,46.387,20.996,48.828,37.109,59.570,0
1492775891.639,54.688,29.785,15.625,34.668,49.316,0
1492775891.643,43.457,22.461,-3.906,26.367,25.879,0
1492775891.647,28.809,15.625,11.719,24.902,-3.906,0
1492775891.651,37.598,7.324,19.043,43.457,38.574,0
1492775891.655,48.828,13.672,-13.672,57.129,39.062,0
1492775891.659,32.227,27.832,-24.414,50.293,-17.578,0
1492775891.663,17.578,15.137,16.602,19.531,-0.488,0
1492775891.667,29.297,16.602,34.180,20.508,32.227,0
1492775891.671,41.992,25.879,55.176,35.156,39.062,0
1492775891.675,21.973,14.648,67.871,20.508,18.066,0
1492775891.678,25.879,20.508,60.059,20.508,19.531,0
1492775891.682,31.250,17.090,46.875,10.742,34.180,0
1492775891.686,25.391,21.973,4.395,24.414,37.598,0
1492775891.690,31.738,32.715,-25.879,42.480,48.340,0
1492775891.694,32.715,20.020,-0.488,18.555,46.387,0
1492775891.698,52.734,31.250,33.203,37.598,20.996,0
1492775891.702,62.988,41.504,34.180,65.918,35.156,0
1492775891.706,41.504,28.809,10.742,55.176,45.898,0
1492775891.710,21.973,22.949,29.785,37.109,17.578,0
1492775891.714,29.785,13.184,53.223,29.297,0.000,0
1492775891.718,40.527,8.301,27.832,37.598,12.207,0
1492775891.721,40.039,22.949,15.625,39.062,2.930,0
1492775891.725,33.691,28.809,28.320,30.762,-20.508,0
1492775891.729,35.156,35.156,50.781,29.785,29.785,0
1492775891.733,42.969,36.133,64.453,22.461,35.156,0
1492775891.737,51.270,28.809,-14.648,22.461,44.922,0
1492775891.741,70.312,52.734,-62.500,54.688,52.734,0
1492775891.745,72.266,58.594,12.695,67.871,18.066,4
1492775891.749,40.527,21.973,18.555,47.363,6.348,0
1492775891.753,38.574,13.184,11.230,32.715,1.953,0
1492775891.757,27.344,5.371,41.992,13.672,7.324,0
1492775891.761,26.855,11.719,57.129,4.883,-2.441,0
1492775891.764,53.711,32.715,44.922,20.996,-30.273,0
1492775891.768,58.594,40.527,24.902,38.086,21.973,0
1492775891.772,66.406,48.340,30.273,44.922,69.336,0
1492775891.776,60.059,61.035,36.133,30.762,54.199,0
1492775891.780,62.012,69.824,59.570,33.691,22.461,0
1492775891.784,71.777,68.359,42.480,48.828,15.625,0
1492775891.788,65.430,74.219,3.418,43.457,52.734,0
1492775891.792,71.777,74.219,58.594,44.922,26.367,0
1492775891.796,77.637,62.012,102.539,52.734,-15.625,0
1492775891.800,47.363,38.574,42.480,30.762,18.555,0
1492775891.803,52.734,36.133,9.277,23.926,38.086,0
1492775891.807,51.758,36.621,41.992,30.273,11.230,0
1492775891.811,37.109,34.180,62.012,25.391,-3.418,0
1492775891.815,49.805,28.320,49.805,19.043,40.039,0
1492775891.819,45.410,24.902,38.086,19.531,80.566,0
1492775891.823,45.898,37.598,35.156,32.227,56.152,0
1492775891.827,39.062,40.039,27.344,35.645,24.414,0
1492775891.831,36.621,31.738,39.551,37.598,28.809,0
1492775891.835,56.152,32.227,14.160,36.133,40.527,0
1492775891.839,55.176,33.691,13.184,40.527,20.508,0
1492775891.843,63.965,40.039,39.062,54.688,6.836,0
1492775891.846,76.172,44.434,56.641,51.758,15.625,0
1492775891.850,57.617,40.039,73.242,24.414,18.066,0
1492775891.854,35.645,17.578,52.734,17.578,18.066,0
1492775891.858,25.391,0.977,33.203,20.020,-0.977,0
1492775891.862,32.715,21.484,2.930,25.391,-16.602,0
1492775891.866,30.273,25.879,-27.344,32.227,-5.371,0
1492775891.870,12.695,10.742,8.301,18.066,32.715,0
1492775891.874,13.184,4.395,20.020,1.953,55.176,0
1492775891.878,20.996,1.465,-8.789,-8.789,31.250,0
1492775891.882,25.391,0.977,-37.598,-8.301,34.668,0
1492775891.886,29.785,10.742,-4.395,1.953,56.641,0
1492775891.889,27.832,4.883,41.992,9.766,61.523,0
1492775891.893,28.320,-3.418,55.176,12.695,85.449,0
1492775891.897,43.945,10.742,20.996,18.555,44.922,0
1492775891.901,53.223,27.832,19.043,41.992,-7.324,0
1492775891.905,28.809,10.254,21.973,22.461,45.898,0
1492775891.909,15.137,-8.789,4.883,-1.465,41.992,0
1492775891.913,20.996,-1.953,7.324,3.906,13.184,0
1492775891.917,29.297,13.672,6.348,12.695,33.691,0
1492775891.921,44.434,32.227,11.230,30.273,66.406,0
1492775891.925,37.109,17.578,-33.691,23.438,44.922,0
1492775891.928,12.695,-6.348,-85.938,0.488,9.277,0
1492775891.932,-0.977,-13.184,-8.789,-10.254,26.367,0
1492775891.936,8.789,-9.766,25.391,-3.906,40.527,0
1492775891.940,16.113,5.859,-38.574,2.441,10.742,0
1492775891.944,22.461,22.949,-25.391,2.441,-28.809,0
1492775891.948,29.785,26.367,17.578,2.930,-2.930,0
1492775891.952,42.969,29.785,44.434,1.953,34.180,0
1492775891.956,47.363,37.598,42.480,8.789,45.898,0
1492775891.960,32.227,28.320,11.230,13.184,17.090,0
1492775891.964,35.645,21.484,25.879,12.207,28.320,0
1492775891.968,52.246,33.691,36.621,13.672,58.594,0
1492775891.971,53.711,41.504,35.645,8.301,68.359,0
1492775891.975,31.250,39.551,41.016,7.812,65.430,0
1492775891.979,19.043,39.551,27.344,11.719,37.598,0
1492775891.983,37.598,43.945,0.488,8.789,31.250,0
1492775891.987,32.227,20.996,-31.250,-1.953,18.555,0
1492775891.991,35.645,12.695,-15.625,6.836,-6.348,0
1492775891.995,52.246,39.062,28.320,32.227,-7.812,0
1492775891.999,46.387,47.852,11.230,45.410,10.742,0
1492775892.003,35.156,38.086,-29.785,32.227,50.293,0
1492775892.007,33.203,33.691,-24.902,20.508,53.223,0
1492775892.011,39.062,33.203,24.902,16.113,53.223,0
1492775892.014,55.664,48.340,46.875,29.785,50.293,0
1492775892.018,71.289,62.988,67.871,46.875,60.547,0
1492775892.022,60.547,48.340,83.496,45.898,83.008,0
1492775892.026,49.805,46.875,41.016,54.688,61.035,0
1492775892.030,64.941,53.223,31.738,57.129,28.320,0
1492775892.034,66.406,56.152,44.434,47.852,21.973,0
1492775892.038,58.594,70.801,47.852,56.152,22.461,0
1492775892.042,71.289,81.543,80.078,69.336,36.133,0
1492775892.046,66.406,53.711,57.129,49.316,3.418,0
1492775892.050,45.898,38.086,41.016,37.109,-2.441,0
1492775892.053,51.758,53.711,40.527,44.922,61.035,0
1492775892.057,68.848,68.359,6.348,46.875,67.383,0
1492775892.061,75.684,64.941,14.648,46.875,28.320,0
1492775892.065,54.688,49.316,55.664,40.039,14.160,0
1492775892.069,39.062,45.898,26.855,37.598,20.020,0
1492775892.073,38.574,40.039,11.719,32.715,21.484,0
1492775892.077,41.504,45.898,40.039,45.898,16.113,0
1492775892.081,50.293,51.758,53.223,56.152,0.488,0
1492775892.085,48.828,33.691,26.855,36.133,31.250,0
1492775892.089,45.410,18.066,-7.812,23.438,66.895,0
1492775892.093,45.898,20.996,19.043,17.578,17.578,0
1492775892.096,50.781,30.762,23.926,22.461,-1.465,0
1492775892.100,41.992,22.461,6.348,29.785,50.781,0
1492775892.104,37.109,26.367,44.922,25.391,51.270,0
1492775892.108,36.621,41.504,39.551,32.227,17.090,0
1492775892.112,38.086,40.039,7.812,32.715,-5.859,0
1492775892.116,40.527,32.715,40.527,22.461,27.832,0
1492775892.120,50.781,38.086,37.598,27.344,51.270,0
1492775892.124,61.035,47.852,22.949,34.180,37.109,0
1492775892.128,69.336,63.965,23.438,38.574,28.809,0
1492775892.132,79.102,68.359,23.438,43.945,23.438,0
1492775892.136,44.434,22.461,43.457,41.504,26.367,0
1492775892.139,31.250,21.484,39.062,40.039,5.371,0
1492775892.143,45.410,31.250,56.152,35.156,9.277,0
1492775892.147,49.316,24.414,53.711,25.391,14.648,0
1492775892.151,72.754,54.688,-6.348,31.738,38.574,0
1492775892.155,65.430,58.105,25.879,31.250,15.625,0
1492775892.159,50.781,41.016,38.574,25.879,8.301,0
1492775892.163,53.711,44.434,2.441,23.926,31.738,0
1492775892.167,35.645,36.621,35.156,14.160,36.133,0
1492775892.171,33.203,32.715,56.641,11.719,38.574,0
1492775892.175,36.621,25.391,0.488,15.625,10.742,0
1492775892.178,25.879,10.254,-40.039,6.348,-6.348,0
1492775892.182,19.531,5.859,14.160,-6.348,2.441,0
1492775892.186,24.414,8.789,-28.809,19.043,17.578,0
1492775892.190,38.086,13.672,-42.969,37.598,51.758,0
1492775892.194,41.016,8.301,78.613,27.832,18.066,0
1492775892.198,22.461,-6.836,76.660,18.555,20.996,0
1492775892.202,34.668,21.484,31.738,30.273,56.641,0
1492775892.206,69.824,55.664,0.488,45.410,42.480,0
1492775892.210,69.336,48.828,9.277,51.270,9.277,0
1492775892.214,62.500,39.062,89.844,66.895,-1.465,0
1492775892.218,71.777,41.504,109.863,80.566,15.625,0
1492775892.221,96.680,57.617,46.387,89.355,20.508,0
1492775892.225,105.469,60.059,57.129,93.750,-5.371,0
1492775892.229,80.078,51.270,70.312,81.055,-15.137,0
1492775892.233,85.449,55.176,26.855,91.797,32.715,0
1492775892.237,99.121,44.922,-17.090,97.656,73.242,0
1492775892.241,86.426,32.715,24.902,79.102,60.059,0
1492775892.245,87.891,45.410,121.582,84.961,28.320,5
1492775892.249,95.215,51.758,118.652,87.402,43.457,0
1492775892.253,93.262,41.992,74.707,83.496,58.105,0
1492775892.257,90.820,36.621,28.320,75.684,31.738,0
1492775892.261,78.125,30.273,26.855,70.801,23.926,0
1492775892.264,69.824,33.203,18.066,75.195,24.902,0
1492775892.268,71.777,33.691,40.527,70.312,49.316,0
1492775892.272,65.918,23.926,66.406,65.430,17.090,0
1492775892.276,70.801,29.297,62.012,69.336,-41.504,0
1492775892.280,81.543,50.293,105.469,87.891,17.090,0
1492775892.284,80.078,49.805,106.445,80.566,47.852,0
1492775892.288,48.340,25.391,49.316,54.199,44.922,0
1492775892.292,39.551,33.691,-4.395,43.945,23.926,0
1492775892.296,81.543,58.594,25.879,65.918,8.789,0
1492775892.300,100.098,51.758,41.504,86.914,34.180,0
1492775892.303,97.168,47.852,-15.137,90.332,46.875,0
1492775892.307,118.652,59.082,46.387,99.121,41.016,0
1492775892.311,127.441,50.781,137.695,97.168,3.418,0
1492775892.315,113.770,34.180,129.395,88.867,-4.883,0
1492775892.319,91.797,32.227,64.941,74.219,7.324,0
1492775892.323,77.148,22.461,31.738,66.895,32.715,0
1492775892.327,96.680,27.832,40.527,85.449,29.785,0
1492775892.331,98.633,46.875,-5.859,101.562,21.484,0
1492775892.335,94.727,54.688,43.457,101.562,39.062,0
1492775892.339,98.145,53.711,140.625,96.191,45.898,0
1492775892.343,80.078,41.016,157.715,100.098,32.715,0
1492775892.346,87.402,41.992,61.035,106.445,24.414,0
1492775892.350,95.215,54.199,55.176,86.914,50.781,0
1492775892.354,104.980,55.176,26.367,101.074,71.289,0
1492775892.358,122.070,58.105,4.395,145.020,38.086,0
1492775892.362,78.125,39.551,83.008,105.957,-10.254,0
1492775892.366,22.949,9.277,95.703,47.852,-19.531,0
1492775892.370,13.184,-0.977,106.934,38.086,37.598,0
1492775892.374,27.832,5.371,50.293,31.250,44.922,0
1492775892.378,38.574,13.184,3.418,35.645,15.625,0
1492775892.382,25.391,-1.465,42.480,41.504,45.898,0
1492775892.386,44.922,2.930,33.203,62.012,77.148,0
1492775892.389,85.938,23.926,11.719,87.402,62.012,0
1492775892.393,69.336,12.207,-11.719,61.035,1.953,0
1492775892.397,53.711,9.277,16.113,57.617,-0.977,0
1492775892.401,73.242,33.203,10.254,86.914,60.547,0
1492775892.405,74.219,41.016,15.625,80.078,61.035,0
1492775892.409,52.246,23.438,97.168,53.711,14.160,0
1492775892.413,55.176,27.832,116.211,60.059,7.324,0
1492775892.417,61.035,20.020,91.309,66.406,25.879,0
1492775892.421,61.035,2.930,58.594,69.824,49.805,0
1492775892.425,72.754,20.020,49.316,91.797,26.855,0
1492775892.428,86.426,42.480,0.488,101.074,-1.953,0
1492775892.432,84.473,45.898,-27.832,104.492,0.488,0
1492775892.436,73.730,20.508,42.480,94.238,46.387,0
1492775892.440,67.871,0.488,83.984,68.848,43.945,0
1492775892.444,58.594,17.578,28.320,62.012,3.418,0
1492775892.448,52.246,20.508,14.648,68.848,11.719,0
1492775892.452,46.875,12.207,48.828,64.941,23.926,0
1492775892.456,65.918,27.832,62.012,72.266,22.461,0
1492775892.460,98.633,54.199,6.348,101.074,15.137,0
1492775892.464,84.961,54.199,-4.395,106.445,24.414,0
1492775892.468,47.852,29.785,8.789,83.984,-7.812,0
1492775892.471,44.434,18.066,19.043,62.500,-7.812,0
1492775892.475,63.477,15.137,89.355,55.176,29.297,0
1492775892.479,69.336,24.414,106.934,66.406,6.348,0
1492775892.483,78.613,42.969,68.848,81.543,-7.812,0
1492775892.487,83.496,45.410,20.508,77.637,21.973,0
1492775892.491,82.520,55.664,10.254,90.332,29.785,0
1492775892.495,83.984,55.664,62.988,88.379,7.812,0
1492775892.499,84.473,51.270,27.832,74.219,-7.324,0
1492775892.503,79.102,41.992,16.602,66.895,-1.953,0
1492775892.507,70.312,35.645,106.934,59.570,19.043,0
1492775892.511,74.219,40.039,84.473,67.871,0.488,0
1492775892.514,82.520,47.363,47.852,82.520,-5.859,0
1492775892.518,68.359,44.922,41.504,57.129,39.062,0
1492775892.522,85.938,52.734,47.852,50.293,45.410,0
1492775892.526,100.586,71.777,61.035,74.219,9.277,0
1492775892.530,99.121,69.336,18.555,88.867,2.441,0
1492775892.534,78.613,44.434,38.574,73.730,32.227,0
1492775892.538,46.387,9.766,75.684,31.250,35.645,0
1492775892.542,50.781,18.066,34.668,30.273,25.391,0
1492775892.546,55.664,27.832,-0.488,44.434,7.812,0
1492775892.550,43.457,9.766,12.695,40.527,20.020,0
1492775892.553,55.176,13.672,27.344,46.875,62.012,0
1492775892.557,68.848,37.598,36.621,52.734,20.508,0
1492775892.561,56.152,47.363,60.547,41.992,-11.719,0
1492775892.565,66.895,47.852,10.254,57.617,26.367,0
1492775892.569,68.359,42.969,-17.090,60.059,60.547,0
1492775892.573,46.875,38.574,-18.555,23.926,4.883,0
1492775892.577,44.434,36.133,3.906,16.602,-42.480,0
1492775892.581,50.781,29.785,77.637,23.926,3.418,0
1492775892.585,54.199,19.043,89.844,32.227,48.828,0
1492775892.589,51.270,17.578,59.570,42.969,47.852,0
1492775892.593,44.922,24.414,40.527,51.270,18.066,0
1492775892.596,47.852,20.020,65.918,57.617,0.488,0
1492775892.600,78.613,29.297,82.031,65.918,15.137,0
1492775892.604,87.402,40.527,29.785,80.566,19.531,0
1492775892.608,48.340,14.160,-11.230,46.387,7.324,0
1492775892.612,39.551,13.672,20.020,19.043,14.160,0
1492775892.616,41.992,27.344,2.930,30.762,36.133,0
1492775892.620,48.828,36.621,2.930,51.270,32.227,0
1492775892.624,63.477,47.363,79.102,56.641,54.199,0
1492775892.628,55.664,42.969,96.680,34.668,53.223,0
1492775892.632,54.199,40.527,64.941,33.203,34.668,0
1492775892.636,74.219,54.199,83.984,58.105,53.223,0
1492775892.639,69.824,60.059,95.215,57.617,48.340,0
1492775892.643,67.383,61.035,74.707,53.223,27.344,0
1492775892.647,68.848,58.594,62.012,49.316,-28.320,0
1492775892.651,67.871,62.500,30.762,50.293,-10.742,0
1492775892.655,63.477,53.711,0.977,50.293,42.969,0
1492775892.659,37.598,29.785,12.207,28.320,27.832,0
1492775892.663,33.691,38.574,43.457,25.391,-5.859,0
1492775892.667,42.969,55.176,59.082,32.227,-13.184,0
1492775892.671,54.199,63.477,57.129,34.668,29.297,0
1492775892.675,66.406,70.801,65.430,50.781,46.387,0
1492775892.678,65.430,72.754,71.777,58.594,0.977,0
1492775892.682,72.754,67.871,56.641,48.828,-5.371,0
1492775892.686,85.938,87.891,71.289,66.406,32.715,0
1492775892.690,49.316,63.965,74.707,48.828,39.062,0
1492775892.694,4.883,17.090,41.504,4.395,-12.695,0
1492775892.698,15.137,16.113,-3.418,3.418,-13.672,0
1492775892.702,20.996,13.672,20.020,6.836,52.246,0
1492775892.706,22.949,17.578,56.152,22.949,75.684,0
1492775892.710,23.438,15.625,54.688,16.113,44.922,0
1492775892.714,1.953,1.953,9.766,-8.301,35.645,0
1492775892.718,-3.418,11.230,7.324,-12.207,51.758,0
1492775892.721,2.441,15.625,44.434,-23.438,51.270,0
1492775892.725,-4.883,9.766,43.457,-20.508,38.086,0
1492775892.729,5.371,23.926,19.531,-5.371,14.160,0
1492775892.733,21.973,33.203,-1.465,7.324,12.207,0
1492775892.737,26.367,33.203,44.922,5.371,23.926,0
1492775892.741,20.996,31.250,31.738,4.883,20.508,0
1492775892.745,-3.906,14.160,3.906,-5.371,6.836,0
1492775892.749,-14.648,7.812,51.758,-32.715,25.391,0
1492775892.753,-15.625,4.883,47.363,-38.086,54.199,0
1492775892.757,-28.320,-17.090,23.438,-37.598,50.781,0
1492775892.761,-11.719,-18.066,-4.883,-41.504,36.133,0
1492775892.764,3.906,0.000,-55.664,-33.691,32.715,0
1492775892.768,-1.953,2.930,-69.336,-24.414,26.367,0
1492775892.772,-1.953,1.465,6.836,-28.809,22.949,0
1492775892.776,-1.465,6.348,78.613,-31.738,32.715,0
1492775892.780,18.555,31.250,51.758,-19.531,-5.859,0
1492775892.784,21.973,38.086,45.410,-8.789,-16.113,0
1492775892.788,22.461,29.785,60.547,-14.648,15.625,0
1492775892.792,16.602,15.625,54.688,-37.598,19.531,0
1492775892.796,2.441,3.906,41.504,-43.457,1.953,0
1492775892.800,7.324,11.230,19.043,-31.738,18.066,0
1492775892.803,0.488,23.926,9.277,-23.926,70.312,0
1492775892.807,1.953,30.273,12.695,-9.766,70.312,0
1492775892.811,13.184,24.414,21.484,-4.883,17.090,0
1492775892.815,1.465,19.531,-30.762,-12.695,-2.930,0
1492775892.819,-3.418,27.832,-23.438,-13.672,45.410,0
1492775892.823,4.883,24.414,68.359,-8.301,58.105,0
1492775892.827,-6.836,9.766,88.867,-13.184,15.137,0
1492775892.831,5.371,13.184,69.824,-15.625,0.977,0
1492775892.835,28.809,19.531,62.012,4.883,38.574,0
1492775892.839,13.184,12.207,65.918,18.066,81.543,0
1492775892.843,13.184,11.230,44.434,7.324,45.410,0
1492775892.846,31.738,8.789,35.645,11.230,0.000,0
1492775892.850,23.438,12.207,53.711,25.879,26.367,0
1492775892.854,18.555,34.668,36.133,37.109,39.551,0
1492775892.858,14.648,28.320,26.855,26.367,-1.465,0
1492775892.862,25.391,34.180,3.906,36.133,16.113,0
1492775892.866,47.852,60.547,8.789,52.734,43.457,0
1492775892.870,29.785,37.109,86.914,14.648,50.293,0
1492775892.874,20.020,18.066,104.004,0.488,41.992,0
1492775892.878,31.250,23.926,73.242,16.602,-19.043,0
1492775892.882,36.133,28.320,42.969,12.207,-3.906,0
1492775892.886,31.250,20.020,31.250,6.836,27.344,0
1492775892.889,28.320,16.602,42.969,9.277,11.719,0
1492775892.893,30.273,21.973,23.926,11.230,-4.395,0
1492775892.897,49.805,18.555,11.719,4.395,-12.207,0
1492775892.901,55.176,19.043,38.574,5.859,42.480,0
1492775892.905,40.039,32.715,-10.742,10.742,76.660,0
1492775892.909,24.902,32.227,-44.434,6.836,39.551,0
1492775892.913,8.789,17.090,3.906,-2.930,22.461,0
1492775892.917,6.836,19.531,49.805,-11.719,33.203,0
1492775892.921,11.719,28.320,74.707,7.812,45.410,0
1492775892.925,20.996,32.715,75.684,15.137,10.254,0
1492775892.928,18.555,31.250,53.711,1.465,11.230,0
1492775892.932,16.113,26.367,56.152,-13.184,-0.488,0
1492775892.936,22.461,35.156,48.828,-13.184,-11.230,0
1492775892.940,27.344,45.898,-1.953,-14.160,54.688,0
1492775892.944,25.879,40.527,-2.930,-22.461,16.602,0
1492775892.948,29.297,31.738,-19.043,-12.207,-19.043,0
1492775892.952,37.598,22.949,-23.926,-16.113,61.523,0
1492775892.956,31.250,17.090,15.137,-18.555,69.824,0
1492775892.960,27.344,18.555,32.227,-6.348,11.719,0
1492775892.964,27.344,20.508,50.781,-6.836,11.719,0
1492775892.968,40.039,33.691,58.105,-1.465,34.180,0
1492775892.971,24.902,37.109,39.062,-3.906,76.172,0
1492775892.975,11.719,33.203,21.973,-18.555,44.922,0
1492775892.979,30.762,40.527,41.504,-6.836,-30.273,0
1492775892.983,38.086,45.898,60.059,12.207,5.859,0
1492775892.987,29.297,41.504,61.035,5.371,49.805,0
1492775892.991,24.414,40.039,16.602,7.324,27.832,0
1492775892.995,33.691,41.016,-15.137,4.883,-1.953,0
1492775892.999,17.578,31.250,5.859,-19.043,46.387,0
1492775893.003,5.859,22.949,42.480,-20.020,99.609,0
1492775893.007,20.508,29.297,-10.742,-4.395,71.777,0
1492775893.011,33.691,36.621,-25.391,13.672,34.668,0
1492775893.014,31.250,19.043,32.227,9.766,23.438,0
1492775893.018,20.996,14.160,33.203,0.977,21.484,0
1492775893.022,27.344,38.574,55.664,0.488,4.395,0
1492775893.026,26.367,37.598,61.035,-3.418,-6.836,0
1492775893.030,28.809,22.949,42.480,2.930,30.273,0
1492775893.034,45.898,33.203,62.988,16.113,46.875,0
1492775893.038,44.434,36.621,51.758,15.137,41.016,0
1492775893.042,33.203,27.832,21.973,14.160,35.156,0
1492775893.046,42.969,20.508,12.695,15.625,20.996,0
1492775893.050,52.734,25.879,-24.414,14.160,39.062,0
1492775893.053,42.969,29.785,2.930,4.395,64.453,0
1492775893.057,46.387,21.973,55.664,-11.719,46.875,0
1492775893.061,50.781,27.344,30.273,-14.160,21.973,0
1492775893.065,62.500,30.273,19.043,-11.719,3.418,0
1492775893.069,80.566,31.250,16.113,-3.418,10.254,0
1492775893.073,73.242,52.734,9.766,12.695,30.273,0
1492775893.077,63.965,69.336,25.879,23.926,40.039,0
1492775893.081,54.688,61.035,36.621,20.020,19.043,0
1492775893.085,62.988,54.199,35.156,11.230,22.949,0
1492775893.089,47.852,41.016,45.898,3.418,69.336,0
1492775893.093,14.160,25.391,37.598,-15.625,69.336,0
1492775893.096,16.602,14.648,-14.648,-18.555,11.719,0
1492775893.100,29.297,20.020,8.789,3.418,13.672,0
1492775893.104,26.855,29.297,0.977,11.230,53.711,0
1492775893.108,19.531,30.273,-31.738,7.812,43.457,0
1492775893.112,17.578,10.254,-12.695,-1.953,-1.465,0
1492775893.116,-2.441,-24.902,-14.648,-24.414,22.949,0
1492775893.120,-20.020,-37.598,-21.484,-44.434,63.965,0
1492775893.124,-18.555,-27.344,-19.531,-48.828,41.992,0
1492775893.128,-5.859,-8.789,6.348,-18.555,4.395,0
1492775893.132,-6.348,-3.906,27.832,-10.254,12.695,0
1492775893.136,-13.672,-17.090,-25.391,-52.246,71.289,0
1492775893.139,-11.719,-19.531,-70.801,-48.828,74.219,0
1492775893.143,-20.996,-23.438,-43.457,-39.062,22.461,0
1492775893.147,-32.227,-25.879,-70.801,-48.340,23.438,0
1492775893.151,-31.738,-30.762,-80.078,-52.246,39.551,0
1492775893.155,-20.996,-37.109,-17.578,-57.617,25.879,0
1492775893.159,-12.207,-30.762,-4.395,-46.875,-7.324,0
1492775893.163,13.672,-17.090,3.418,-27.344,11.719,0
1492775893.167,11.719,-13.672,-2.441,-25.879,52.246,0
1492775893.171,5.371,-5.859,-37.598,-29.785,41.504,0
1492775893.175,14.648,7.324,-10.254,-30.273,30.273,0
1492775893.178,32.227,29.785,4.883,-6.836,62.012,0
1492775893.182,47.363,41.992,-38.086,20.508,69.824,0
1492775893.186,52.246,31.738,-5.859,28.320,66.895,0
1492775893.190,71.777,35.645,51.758,43.945,57.617,0
1492775893.194,66.895,39.551,65.918,34.180,35.156,0
1492775893.198,57.129,45.410,73.242,25.879,23.926,0
1492775893.202,54.688,49.805,74.707,36.621,41.992,0
1492775893.206,65.430,62.988,37.598,50.781,60.547,0
1492775893.210,80.078,72.754,48.828,69.824,20.508,0
1492775893.214,69.336,61.523,89.844,70.312,13.672,0
1492775893.218,52.246,43.945,57.617,61.035,11.230,0
1492775893.221,66.406,66.406,16.113,57.617,7.812,0
1492775893.225,90.332,88.867,27.832,63.477,27.344,0
1492775893.229,87.402,72.754,65.918,75.195,15.625,0
1492775893.233,72.754,59.082,68.359,61.035,16.113,0
1492775893.237,85.938,58.105,80.078,61.035,43.945,0
1492775893.241,79.102,43.457,72.266,48.828,38.086,0
1492775893.245,61.523,36.621,51.758,33.203,16.113,0
1492775893.249,76.660,41.992,38.086,57.617,34.180,0
1492775893.253,90.820,57.129,-11.230,76.172,46.387,0
1492775893.257,83.984,66.895,11.230,74.219,75.684,0
1492775893.261,64.941,57.617,57.129,54.199,47.852,0
1492775893.264,71.777,62.012,89.355,60.059,-8.789,0
1492775893.268,76.660,60.059,99.121,66.895,22.949,0
1492775893.272,60.059,50.293,50.293,48.828,70.801,0
1492775893.276,74.707,63.965,42.480,64.453,21.484,0
1492775893.280,80.566,60.547,57.129,52.734,-30.273,0
1492775893.284,53.711,38.574,47.852,31.250,27.344,0
1492775893.288,63.965,29.785,46.387,55.664,64.941,0
1492775893.292,79.590,34.668,23.926,65.918,46.875,0
1492775893.296,84.473,49.805,-1.465,71.777,11.230,0
1492775893.300,61.035,44.434,23.926,43.945,42.480,0
1492775893.303,25.879,37.109,51.758,21.973,79.590,0
1492775893.307,42.969,27.832,47.363,34.180,8.301,0
1492775893.311,55.176,7.324,24.414,27.344,-33.691,0
1492775893.315,62.012,31.250,72.266,44.922,21.973,0
1492775893.319,88.867,77.637,112.793,67.871,43.945,0
1492775893.323,80.566,70.312,78.613,44.922,17.578,0
1492775893.327,74.707,41.016,65.430,43.945,23.438,0
1492775893.331,80.566,35.156,63.965,62.988,38.086,0
1492775893.335,80.078,50.293,55.176,65.430,47.852,0
1492775893.339,75.684,56.152,58.105,52.734,24.414,0
1492775893.343,69.824,52.246,51.270,43.457,20.508,0
1492775893.346,64.941,50.781,55.176,43.457,36.133,0
1492775893.350,58.594,46.875,69.336,47.363,19.043,0
1492775893.354,66.406,37.598,68.359,51.270,29.297,0
1492775893.358,56.152,39.062,62.988,40.039,46.875,0
1492775893.362,48.828,46.387,84.961,22.949,43.457,0
1492775893.366,46.875,35.156,74.219,20.508,47.363,0
1492775893.370,41.992,30.762,56.641,30.762,62.012,0
1492775893.374,43.457,44.922,24.414,44.434,55.664,0
1492775893.378,48.828,39.062,-26.367,44.434,23.926,0
1492775893.382,39.551,21.973,0.977,11.719,-26.855,0
1492775893.386,27.344,28.809,74.219,11.230,-12.207,0
1492775893.389,30.762,39.551,113.281,30.762,43.945,0
1492775893.393,39.062,36.133,62.988,33.691,35.645,0
1492775893.397,42.480,24.414,16.602,26.855,-1.953,0
1492775893.401,42.969,24.414,40.039,13.184,20.508,0
1492775893.405,44.922,34.668,51.270,7.324,69.824,0
1492775893.409,37.109,32.227,34.180,18.555,63.965,0
1492775893.413,56.641,59.570,16.113,53.223,16.602,0
1492775893.417,71.289,71.777,26.855,60.059,44.922,0
1492775893.421,33.691,33.691,44.922,24.414,105.469,0
1492775893.425,31.738,41.992,42.969,17.090,45.898,0
1492775893.428,48.340,54.199,12.695,19.043,-17.578,0
1492775893.432,40.527,46.387,58.105,9.277,17.090,0
1492775893.436,42.480,50.293,72.266,20.020,42.480,0
1492775893.440,54.688,43.457,29.785,29.785,26.855,0
1492775893.444,54.199,40.039,18.555,23.438,-33.691,0
1492775893.448,49.805,38.086,1.953,20.020,-16.602,0
1492775893.452,57.129,33.691,23.438,24.902,50.781,0
1492775893.456,49.805,41.504,39.551,35.645,26.367,0
1492775893.460,62.012,62.988,61.035,56.152,6.836,0
1492775893.464,71.777,55.664,56.152,59.082,64.453,0
1492775893.468,51.758,30.762,26.855,39.062,67.383,0
1492775893.471,49.316,33.691,62.012,39.062,59.570,0
1492775893.475,55.176,32.715,103.027,50.781,55.664,0
1492775893.479,62.500,31.738,8.301,53.223,21.973,0
1492775893.483,71.289,46.387,3.906,60.547,48.828,0
1492775893.487,63.965,39.551,115.723,70.801,45.410,0
1492775893.491,58.594,37.598,98.633,71.289,24.902,0
1492775893.495,62.988,41.504,62.012,62.500,6.348,0
1492775893.499,69.336,42.480,57.129,57.617,-16.113,0
1492775893.503,78.613,66.895,91.797,78.613,7.324,0
1492775893.507,69.336,66.406,116.211,82.031,28.320,0
1492775893.511,66.406,62.500,90.332,72.754,23.438,0
1492775893.514,76.172,58.594,36.621,75.684,43.945,0
1492775893.518,52.734,35.645,15.625,60.059,47.363,0
1492775893.522,41.504,26.855,66.406,40.039,76.660,0
1492775893.526,49.316,24.902,48.828,36.133,76.172,0
1492775893.530,52.246,21.973,22.949,42.969,20.020,0
1492775893.534,57.617,27.344,50.781,48.340,37.109,0
1492775893.538,41.992,23.438,49.805,41.504,65.430,0
1492775893.542,34.180,18.066,63.965,36.621,50.781,0
1492775893.546,57.617,41.992,79.590,58.105,52.246,0
1492775893.550,67.383,50.781,33.691,64.453,66.406,0
1492775893.553,60.547,42.969,21.484,61.035,58.594,0
1492775893.557,59.570,41.504,74.707,67.871,36.133,0
1492775893.561,55.176,26.855,33.203,53.711,-4.883,0
1492775893.565,46.875,16.113,-2.930,26.367,-5.371,0
1492775893.569,39.062,30.762,11.719,25.391,61.523,0
1492775893.573,39.551,31.250,40.527,39.062,45.898,0
1492775893.577,46.387,14.160,91.309,37.109,4.395,0
1492775893.581,42.969,14.648,42.480,23.438,22.949,0
1492775893.585,39.551,33.203,-26.367,31.250,45.898,0
1492775893.589,42.969,29.785,23.438,30.762,46.387,0
1492775893.593,35.645,16.113,52.246,18.555,14.648,0
1492775893.596,31.738,14.648,8.789,8.789,-21.484,0
1492775893.600,41.016,25.879,-28.320,12.207,41.504,0
1492775893.604,43.945,35.156,-10.254,33.691,64.453,0
1492775893.608,33.203,17.578,-2.930,27.344,37.109,0
1492775893.612,16.602,1.465,1.465,9.277,43.457,0
1492775893.616,14.160,-7.324,59.570,12.695,50.293,0
1492775893.620,36.621,7.324,42.969,16.113,45.898,0
1492775893.624,39.551,34.180,-17.090,10.742,11.230,0
1492775893.628,2.930,5.371,-0.977,-12.207,1.953,0
1492775893.632,0.000,-12.695,34.180,-10.254,21.484,0
1492775893.636,2.930,1.953,9.277,-2.441,33.691,0
1492775893.639,18.555,9.277,-47.363,0.000,0.000,0
1492775893.643,25.879,19.531,-19.043,12.695,-1.953,0
1492775893.647,24.414,28.320,9.277,9.766,3.418,0
1492775893.651,32.715,22.949,-32.227,2.441,35.156,0
1492775893.655,39.551,20.508,8.789,22.461,68.359,0
1492775893.659,39.551,11.230,48.828,22.949,42.480,0
1492775893.663,45.410,8.789,64.941,12.695,29.297,0
1492775893.667,57.617,27.832,73.730,20.020,33.691,0
1492775893.671,48.340,37.109,21.973,24.414,39.551,0
1492775893.675,34.668,28.320,-27.832,18.066,29.785,0
1492775893.678,30.273,32.715,-12.207,18.066,-4.395,0
1492775893.682,10.742,27.344,0.488,2.441,-34.180,0
1492775893.686,16.113,19.531,8.789,5.859,-25.391,0
1492775893.690,29.297,39.062,37.109,20.020,32.715,0
1492775893.694,28.809,44.434,51.270,21.973,15.137,0
1492775893.698,44.434,36.621,25.391,34.180,7.324,0
1492775893.702,41.016,37.598,54.688,28.809,19.531,0
1492775893.706,40.039,48.340,92.285,28.320,21.484,0
1492775893.710,23.438,14.160,53.711,18.066,13.672,0
1492775893.714,22.461,-3.906,5.371,28.320,17.090,0
1492775893.718,37.109,13.672,14.160,27.832,24.414,0
1492775893.721,33.203,15.625,-5.859,12.695,25.879,0
1492775893.725,41.504,35.645,-31.738,26.855,28.809,0
1492775893.729,45.410,30.273,19.531,27.344,-15.137,0
1492775893.733,44.434,20.508,79.102,15.625,20.508,0
1492775893.737,58.105,41.992,73.730,37.109,57.129,0
1492775893.741,61.523,46.387,77.637,47.363,17.578,0
1492775893.745,66.406,40.527,100.098,38.086,-0.488,0
1492775893.749,62.012,38.086,71.777,40.039,37.598,0
1492775893.753,43.457,35.156,32.715,30.273,67.383,0
1492775893.757,41.016,38.574,41.992,40.039,57.617,0
1492775893.761,54.688,37.598,46.875,42.969,20.508,0
1492775893.764,50.781,33.691,51.758,30.273,-9.766,0
1492775893.768,46.875,31.250,55.664,23.438,10.742,0
1492775893.772,50.781,29.785,24.414,22.461,11.230,0
1492775893.776,38.574,33.203,61.523,22.949,-2.441,0
1492775893.780,40.527,31.250,45.410,25.879,21.973,0
1492775893.784,67.871,41.016,-2.930,37.109,33.691,0
1492775893.788,63.477,46.875,57.129,24.902,38.574,0
1492775893.792,50.781,27.832,48.340,9.766,23.438,0
1492775893.796,67.871,41.504,47.363,30.273,5.859,0
1492775893.800,81.055,52.734,65.918,32.715,19.043,0
1492775893.803,66.406,41.504,39.551,11.719,42.969,0
1492775893.807,44.434,31.250,35.645,9.766,32.715,0
1492775893.811,53.711,32.227,29.785,27.344,20.508,0
1492775893.815,43.457,35.645,21.484,31.250,-9.277,0
1492775893.819,20.508,23.926,51.270,18.066,3.906,0
1492775893.823,42.969,36.133,21.484,33.203,61.523,0
1492775893.827,69.824,45.410,-38.086,41.504,27.344,0
1492775893.831,51.758,32.715,5.859,20.020,23.926,0
1492775893.835,29.785,19.531,56.152,-1.465,56.152,0
1492775893.839,30.762,22.949,64.941,19.531,50.781,0
1492775893.843,32.715,30.762,71.289,36.133,42.969,0
1492775893.846,36.621,27.832,83.008,25.879,41.504,0
1492775893.850,52.246,42.969,70.312,43.945,42.480,0
1492775893.854,62.012,48.340,28.809,44.922,43.945,0
1492775893.858,50.781,40.039,10.254,54.199,24.414,0
1492775893.862,51.270,46.875,-59.082,56.641,-15.137,0
1492775893.866,44.922,36.133,-52.246,32.715,-4.883,0
1492775893.870,34.180,23.926,52.246,30.273,41.992,0
1492775893.874,41.992,28.809,106.445,31.738,48.828,0
1492775893.878,43.945,35.645,98.633,32.227,8.789,0
1492775893.882,42.480,38.574,46.875,28.320,3.906,0
1492775893.886,62.988,46.387,63.477,42.969,41.016,0
1492775893.889,68.848,63.477,59.570,65.918,52.246,0
1492775893.893,51.270,44.922,3.906,54.688,22.461,0
1492775893.897,46.387,24.414,47.363,38.574,28.320,0
1492775893.901,44.434,32.715,63.477,36.621,61.523,0
1492775893.905,54.688,45.898,0.488,47.363,20.508,0
1492775893.909,55.664,42.480,22.461,46.387,-43.945,0
1492775893.913,37.598,28.320,59.570,33.691,-40.527,0
1492775893.917,44.434,41.504,77.637,51.270,9.277,0
1492775893.921,61.523,50.781,101.562,64.941,22.461,0
1492775893.925,74.219,61.035,75.195,74.219,10.742,0
1492775893.928,81.055,70.801,52.246,73.730,31.738,0
1492775893.932,80.566,68.359,59.082,64.941,42.969,0
1492775893.936,93.262,67.383,83.496,67.871,32.227,0
1492775893.940,83.008,62.500,41.992,70.801,41.016,0
1492775893.944,73.242,57.129,2.441,78.125,25.391,0
1492775893.948,78.613,39.062,38.086,83.496,7.324,0
1492775893.952,78.613,48.828,44.922,84.473,27.832,0
1492775893.956,72.266,54.199,44.434,63.477,20.996,0
1492775893.960,44.434,51.758,65.918,46.875,0.977,0
1492775893.964,44.922,64.453,83.496,69.824,1.465,0
1492775893.968,54.199,47.363,68.848,76.660,-0.488,0
1492775893.971,57.129,31.738,51.758,60.059,2.930,0
1492775893.975,70.801,47.363,53.711,65.918,9.766,0
1492775893.979,79.102,65.918,41.016,77.637,-10.742,0
1492775893.983,65.430,48.340,34.668,70.312,-14.160,0
1492775893.987,41.992,21.973,71.289,44.922,46.875,0
1492775893.991,41.504,27.832,44.922,36.133,37.598,0
1492775893.995,56.641,42.969,-29.785,62.500,-23.926,0
1492775893.999,54.199,39.551,25.879,66.895,-4.883,0
1492775894.003,59.570,33.691,94.238,58.594,32.715,0
1492775894.007,46.387,17.578,85.938,45.898,41.016,0
1492775894.011,35.156,13.672,64.453,30.762,9.277,0
1492775894.014,46.387,28.320,17.578,47.363,-12.207,0
1492775894.018,52.734,30.273,-22.949,56.152,33.203,0
1492775894.022,59.082,28.809,-1.953,43.945,49.805,0
1492775894.026,41.016,26.855,41.992,41.016,8.301,0
1492775894.030,26.855,20.508,79.590,26.367,-10.742,0
1492775894.034,49.805,40.527,47.852,31.250,24.414,0
1492775894.038,62.012,46.387,-37.598,45.898,48.828,0
1492775894.042,39.062,17.090,-8.789,31.250,34.180,0
1492775894.046,29.297,19.043,65.430,31.250,6.348,0
1492775894.050,50.293,34.180,57.617,33.203,-7.812,0
1492775894.053,55.176,31.738,57.129,30.762,47.852,0
1492775894.057,39.062,29.297,67.871,41.992,24.902,0
1492775894.061,31.738,31.250,37.109,41.992,-42.969,0
1492775894.065,42.480,33.203,21.973,49.805,16.602,0
1492775894.069,67.383,36.133,40.527,62.500,47.852,0
1492775894.073,77.637,43.457,54.688,69.336,35.156,0
1492775894.077,55.664,37.109,3.906,48.828,25.879,0
1492775894.081,22.461,18.555,-23.926,12.207,20.020,0
1492775894.085,29.785,22.949,-13.184,22.949,15.137,0
1492775894.089,36.621,22.949,9.277,16.113,19.043,0
1492775894.093,25.879,4.395,67.871,0.000,19.531,0
1492775894.096,33.203,8.301,65.430,9.277,13.184,0
1492775894.100,43.457,20.996,7.812,13.672,12.695,0
1492775894.104,37.598,22.949,12.207,11.230,3.418,0
1492775894.108,36.621,31.250,75.195,23.438,0.977,0
1492775894.112,53.711,40.527,46.387,36.621,32.715,0
1492775894.116,52.246,38.086,4.395,32.715,49.805,0
1492775894.120,58.105,29.785,11.719,37.598,10.742,0
1492775894.124,58.594,32.715,45.898,41.504,21.484,0
1492775894.128,40.039,32.227,58.594,19.531,30.273,0
1492775894.132,40.527,23.438,-21.973,10.742,9.766,0
1492775894.136,42.969,18.555,-45.898,1.953,53.223,0
1492775894.139,40.527,18.066,29.785,-3.906,79.590,0
1492775894.143,37.598,17.578,73.730,-3.418,37.109,0
1492775894.147,33.691,16.113,47.363,-6.348,-20.508,0
1492775894.151,41.992,25.391,31.738,-1.465,8.789,0
1492775894.155,62.988,43.457,26.367,8.789,72.754,0
1492775894.159,47.852,20.996,20.996,9.277,46.875,0
1492775894.163,24.414,8.301,46.875,2.930,31.738,0
1492775894.167,20.020,17.578,18.555,2.930,27.832,0
1492775894.171,24.414,19.531,0.977,5.859,44.434,0
1492775894.175,42.969,34.668,5.371,17.090,67.871,0
1492775894.178,51.758,34.668,-45.410,23.926,51.758,0
1492775894.182,50.781,20.996,2.441,5.859,52.734,0
1492775894.186,57.129,15.625,44.922,5.859,43.457,0
1492775894.190,38.574,15.137,40.039,19.531,19.043,0
1492775894.194,25.391,21.973,44.434,4.883,2.930,0
1492775894.198,35.645,25.879,43.457,3.418,12.695,0
1492775894.202,41.992,17.578,37.598,3.906,50.781,0
1492775894.206,52.246,28.320,27.832,14.648,38.086,0
1492775894.210,26.855,26.367,20.508,18.555,2.441,0
1492775894.214,15.137,12.207,18.066,7.324,-12.695,0
1492775894.218,41.992,19.043,31.738,17.578,39.551,0
1492775894.221,38.574,23.926,25.879,21.484,58.105,0
1492775894.225,32.715,29.297,33.691,24.902,14.160,0
1492775894.229,52.246,34.668,5.371,36.621,21.484,0
1492775894.233,66.895,46.387,-12.695,47.852,31.250,0
1492775894.237,57.617,34.668,30.762,44.434,-1.465,0
1492775894.241,46.875,15.625,62.988,24.902,-12.207,0
1492775894.245,51.270,25.879,68.848,24.414,16.113,0
1492775894.249,48.828,25.391,68.848,39.551,14.160,0
1492775894.253,38.574,15.137,34.668,20.508,31.738,0
1492775894.257,39.551,11.719,0.977,14.160,51.270,0
1492775894.261,44.434,36.621,32.227,41.016,31.738,0
1492775894.264,42.480,45.410,42.480,41.504,6.348,0
1492775894.268,37.598,24.414,54.199,23.438,42.480,0
1492775894.272,32.227,16.602,17.578,21.973,60.547,0
1492775894.276,37.598,24.902,-11.719,27.344,49.805,0
1492775894.280,61.523,49.316,20.020,48.828,31.738,0
1492775894.284,46.387,40.039,19.043,42.480,-12.695,0
1492775894.288,16.602,13.672,44.922,11.230,-4.395,0
1492775894.292,21.973,13.184,46.875,8.789,44.434,0
1492775894.296,21.973,16.113,49.805,20.996,13.184,0
1492775894.300,24.414,20.020,52.246,17.578,-7.324,0
1492775894.303,27.344,18.555,12.695,12.207,61.035,0
1492775894.307,28.809,9.277,22.949,19.531,46.387,0
1492775894.311,54.199,20.996,67.871,29.785,-23.438,0
1492775894.315,57.617,38.086,69.824,42.969,-5.371,0
1492775894.319,42.480,34.668,19.531,48.340,57.617,0
1492775894.323,62.988,40.527,0.977,54.199,63.477,0
1492775894.327,66.406,53.711,30.762,53.223,17.090,0
1492775894.331,31.250,31.738,40.527,39.551,-9.766,0
1492775894.335,45.410,30.273,52.246,54.688,31.738,0
1492775894.339,83.008,39.062,46.875,82.031,56.152,0
1492775894.343,83.984,32.227,38.574,83.008,1.953,0
1492775894.346,74.707,34.668,67.871,75.684,13.184,0
1492775894.350,66.895,33.203,73.730,67.383,62.500,0
1492775894.354,57.129,19.531,61.035,58.594,38.574,0
1492775894.358,75.195,29.297,61.035,76.172,38.574,0
1492775894.362,84.473,41.992,63.477,90.332,54.199,0
1492775894.366,92.285,40.527,55.664,85.938,85.449,0
1492775894.370,98.145,42.480,46.387,94.238,91.309,0
1492775894.374,79.590,36.621,45.410,93.262,26.855,0
1492775894.378,72.754,37.598,53.223,86.914,10.254,0
1492775894.382,79.102,42.969,25.391,89.355,21.973,0
1492775894.386,83.984,46.387,19.043,96.680,16.602,0
1492775894.389,80.566,43.457,30.273,89.355,24.414,0
1492775894.393,76.172,30.762,50.293,75.684,45.898,0
1492775894.397,73.242,18.555,71.777,80.078,49.805,0
1492775894.401,81.055,29.297,38.086,85.449,52.734,0
1492775894.405,77.637,35.645,42.969,76.660,38.574,0
1492775894.409,62.500,21.973,46.387,76.660,36.621,0
1492775894.413,70.312,34.180,21.973,99.121,30.273,0
1492775894.417,68.848,33.691,29.785,91.797,20.508,0
1492775894.421,60.547,22.461,55.176,74.707,16.602,0
1492775894.425,55.176,25.879,48.828,69.824,8.301,0
1492775894.428,46.875,21.484,44.434,53.223,-0.977,0
1492775894.432,55.176,10.254,26.855,40.527,-15.625,0
1492775894.436,50.293,13.184,0.000,46.387,15.137,0
1492775894.440,25.879,25.879,36.133,56.152,67.871,0
1492775894.444,47.852,28.320,11.719,59.570,17.578,0
1492775894.448,63.477,17.578,-20.020,52.734,7.324,0
1492775894.452,55.176,19.531,-0.977,32.715,30.762,0
1492775894.456,65.918,42.480,30.762,56.152,44.922,0
1492775894.460,66.406,48.828,65.430,57.617,21.973,0
1492775894.464,61.035,29.785,66.895,14.648,2.930,0
1492775894.468,42.969,15.625,29.297,11.719,48.828,0
1492775894.471,44.922,20.508,-15.625,19.043,60.059,0
1492775894.475,75.684,35.645,3.418,32.227,22.949,0
1492775894.479,68.848,31.250,23.926,31.738,-28.320,0
1492775894.483,41.992,24.414,14.648,20.508,-15.625,0
1492775894.487,48.828,35.156,-19.043,16.602,39.062,0
1492775894.491,38.086,18.066,-8.789,7.812,45.410,0
1492775894.495,17.090,-4.395,17.578,-0.977,37.598,0
1492775894.499,48.340,22.461,9.766,19.531,51.270,0
1492775894.503,54.688,32.715,36.621,21.973,42.480,0
1492775894.507,34.180,7.324,29.785,1.465,21.484,0
1492775894.511,53.223,12.695,25.879,11.719,0.488,0
1492775894.514,62.012,21.973,16.602,11.230,-7.324,0
1492775894.518,42.480,2.441,-10.742,0.488,41.504,0
1492775894.522,35.645,-9.277,2.930,-0.977,24.902,0
1492775894.526,37.109,-3.906,-6.348,12.695,-8.301,0
1492775894.530,33.691,-12.695,19.043,30.273,25.879,0
1492775894.534,32.227,-22.461,64.941,32.715,53.711,0
1492775894.538,37.109,5.371,39.062,37.598,73.242,0
1492775894.542,42.969,30.273,34.668,37.109,67.383,0
1492775894.546,44.922,31.250,52.246,31.250,18.066,0
1492775894.550,41.016,13.672,17.090,29.297,15.625,0
1492775894.553,33.691,-10.254,1.465,20.996,49.805,0
1492775894.557,43.945,3.418,36.133,35.645,53.711,0
1492775894.561,40.527,4.883,56.152,30.273,19.531,0
1492775894.565,37.109,-6.348,33.691,12.695,1.953,0
1492775894.569,35.645,-1.953,-23.438,16.602,27.344,0
1492775894.573,36.621,10.254,4.395,29.297,12.695,0
1492775894.577,55.176,27.344,91.797,49.316,20.508,0
1492775894.581,74.707,32.227,96.680,52.246,9.277,0
1492775894.585,67.383,32.715,66.895,46.875,24.414,0
1492775894.589,52.246,41.992,77.637,46.875,68.359,0
1492775894.593,41.992,43.457,85.938,41.992,28.809,0
1492775894.596,41.504,32.715,86.426,38.086,15.137,0
1492775894.600,45.410,26.367,70.801,37.598,21.484,0
1492775894.604,34.180,8.789,16.113,26.855,43.945,0
1492775894.608,35.645,13.184,-26.367,26.855,27.832,0
1492775894.612,46.387,35.156,13.184,45.898,-15.137,0
1492775894.616,44.922,26.855,83.008,30.273,-7.324,0
1492775894.620,52.246,29.785,62.012,26.367,31.250,0
1492775894.624,75.195,43.945,73.730,56.641,64.453,0
1492775894.628,74.219,40.527,103.027,51.270,9.277,0
1492775894.632,57.129,29.785,84.961,45.410,-15.137,0
1492775894.636,57.617,19.531,78.613,49.805,44.434,0
1492775894.639,49.316,14.160,60.547,46.387,41.992,0
1492775894.643,47.363,20.996,64.453,58.594,21.973,0
1492775894.647,52.734,24.414,63.477,53.223,25.879,0
1492775894.651,49.805,18.555,36.133,34.180,44.922,0
1492775894.655,59.570,26.367,28.320,43.457,45.410,0
1492775894.659,67.871,27.344,49.805,47.852,6.348,0
1492775894.663,56.152,17.090,67.871,46.387,-13.672,0
1492775894.667,66.406,34.180,83.496,63.965,20.020,0
1492775894.671,77.637,42.480,16.602,75.684,35.156,0
1492775894.675,55.176,19.043,-1.465,61.035,14.648,0
1492775894.678,39.551,12.207,26.367,41.504,-6.836,0
1492775894.682,45.898,13.672,2.441,34.668,4.883,0
1492775894.686,57.617,30.273,32.715,44.922,22.949,0
1492775894.690,47.852,28.809,76.660,24.414,1.465,0
1492775894.694,48.340,15.137,75.684,36.133,8.301,0
1492775894.698,51.758,19.043,29.785,52.734,25.391,0
1492775894.702,68.848,43.945,45.410,57.129,14.160,0
1492775894.706,72.754,48.828,49.805,60.059,24.902,0
1492775894.710,63.965,34.180,45.898,44.434,29.785,0
1492775894.714,62.500,35.645,-1.465,47.852,12.695,0
1492775894.718,40.039,30.273,5.859,47.852,-12.695,0
1492775894.721,20.020,23.438,95.703,25.879,7.812,0
1492775894.725,27.344,29.297,92.773,23.926,10.254,0
1492775894.729,32.715,20.508,64.941,44.434,-30.762,0
1492775894.733,38.574,13.672,49.316,53.223,-8.301,0
1492775894.737,75.195,46.875,54.199,67.871,36.621,0
1492775894.741,65.918,52.246,43.457,67.383,46.387,0
1492775894.745,48.828,39.551,49.805,59.570,22.949,0
1492775894.749,64.941,39.551,86.426,65.918,5.859,0
1492775894.753,69.336,27.344,93.750,60.547,35.156,0
1492775894.757,81.543,29.785,44.434,73.242,44.922,0
1492775894.761,79.590,50.293,25.879,82.031,10.254,0
1492775894.764,62.012,46.387,74.219,64.941,-29.297,0
1492775894.768,57.617,39.062,72.754,59.570,6.836,0
1492775894.772,69.824,46.387,65.918,73.242,57.129,0
1492775894.776,52.734,38.574,77.148,64.941,13.184,0
1492775894.780,54.199,34.180,47.852,55.176,-20.020,0
1492775894.784,97.168,58.594,46.387,73.242,40.039,0
1492775894.788,78.125,60.547,78.125,67.383,74.219,0
1492775894.792,59.570,46.387,67.383,61.523,48.340,0
1492775894.796,83.008,48.340,48.340,64.941,-12.207,0
1492775894.800,83.008,55.664,73.730,53.223,1.465,0
1492775894.803,69.824,69.336,72.266,59.082,62.012,0
1492775894.807,58.105,58.594,30.762,44.434,8.789,0
1492775894.811,54.199,52.734,19.043,31.250,-9.766,0
1492775894.815,55.664,54.199,-4.883,46.387,46.875,0
1492775894.819,55.664,47.852,5.859,50.781,55.664,0
1492775894.823,54.688,46.387,55.664,43.457,29.785,0
1492775894.827,56.152,43.945,83.984,29.785,14.160,0
1492775894.831,50.781,42.969,55.664,31.250,21.973,0
1492775894.835,54.688,44.922,42.480,24.414,50.781,0
1492775894.839,64.453,45.410,40.527,19.531,56.152,0
1492775894.843,35.156,29.297,12.695,9.277,24.902,0
1492775894.846,11.719,8.301,18.555,0.000,21.973,0
1492775894.850,36.621,28.320,18.066,27.832,4.883,0
1492775894.854,54.199,45.410,-24.902,31.250,5.859,0
1492775894.858,54.688,30.762,-10.742,15.137,15.625,0
1492775894.862,35.156,21.973,13.672,1.465,35.645,0
1492775894.866,25.391,28.809,12.695,-7.812,24.902,0
1492775894.870,37.109,29.297,50.781,-9.277,34.668,0
1492775894.874,30.762,30.762,47.363,-18.555,67.871,0
1492775894.878,27.832,35.156,5.371,-4.883,48.828,0
1492775894.882,35.645,38.574,24.414,5.371,47.852,0
1492775894.886,33.203,36.621,39.062,18.066,51.758,0
1492775894.889,31.250,25.391,11.230,27.344,55.176,0
1492775894.893,45.898,23.438,10.254,18.555,9.766,0
1492775894.897,72.266,46.387,31.738,33.691,-21.484,0
1492775894.901,61.035,58.105,31.738,28.809,12.695,0
1492775894.905,42.969,51.270,15.625,23.926,52.246,0
1492775894.909,60.547,63.965,17.090,43.945,38.574,0
1492775894.913,87.402,72.266,-10.742,48.828,13.184,0
1492775894.917,74.219,43.457,49.316,30.762,29.785,0
1492775894.921,46.387,26.367,93.262,25.391,65.918,0
1492775894.925,53.711,36.133,42.969,47.852,50.293,0
1492775894.928,49.316,25.879,29.297,50.293,-11.230,0
1492775894.932,53.711,26.367,27.344,43.945,18.555,0
1492775894.936,68.359,51.758,22.949,52.246,59.570,0
1492775894.940,76.172,69.824,41.992,60.547,27.832,0
1492775894.944,90.820,84.961,53.223,73.730,-0.488,0
1492775894.948,70.801,66.895,62.012,61.523,11.719,0
1492775894.952,45.410,36.621,48.340,33.691,49.805,0
1492775894.956,48.828,27.832,10.742,24.414,62.988,0
1492775894.960,49.316,33.691,-8.789,29.297,28.320,0
1492775894.964,57.129,44.434,41.016,46.387,11.230,0
1492775894.968,64.941,47.852,84.961,63.965,52.246,0
1492775894.971,56.152,45.410,66.895,61.523,60.059,0
1492775894.975,40.039,35.645,64.941,37.109,24.414,0
1492775894.979,49.316,40.527,48.340,37.598,-9.277,0
1492775894.983,59.082,63.965,10.742,51.758,0.000,0
1492775894.987,58.105,73.242,10.742,52.734,-10.742,0
1492775894.991,56.152,66.895,-15.625,39.062,-18.066,0
1492775894.995,54.199,52.246,14.160,25.391,9.277,0
1492775894.999,61.523,38.574,78.613,29.297,18.555,0
1492775895.003,46.875,16.602,44.434,23.438,19.043,0
1492775895.007,41.016,20.020,48.828,25.391,22.461,0
1492775895.011,74.707,41.992,71.777,44.434,33.203,0
1492775895.014,73.730,22.949,50.293,42.480,14.648,0
1492775895.018,57.129,7.324,0.977,18.555,2.930,0
1492775895.022,63.477,21.484,-0.977,5.859,24.902,0
1492775895.026,62.012,30.273,40.039,17.090,44.922,0
1492775895.030,83.984,39.551,12.695,49.316,20.020,0
1492775895.034,92.773,43.945,-12.695,59.082,8.789,0
1492775895.038,58.105,28.809,12.695,25.879,41.992,0
1492775895.042,62.988,39.551,41.016,31.738,48.828,0
1492775895.046,73.242,50.781,71.777,48.340,9.766,0
1492775895.050,63.965,45.898,69.824,44.434,-10.742,0
1492775895.053,70.801,39.551,14.160,47.363,20.996,0
1492775895.057,92.285,45.410,29.297,52.734,30.273,0
1492775895.061,83.496,38.086,92.285,39.551,19.531,0
1492775895.065,70.312,33.203,49.805,37.109,25.391,0
1492775895.069,78.125,44.434,32.227,51.270,63.477,0
1492775895.073,78.125,38.574,53.223,52.246,81.055,0
1492775895.077,66.406,33.203,41.016,53.223,38.574,0
1492775895.081,71.777,44.434,53.223,49.316,16.113,0
1492775895.085,76.172,41.504,43.945,40.527,44.922,0
1492775895.089,53.223,30.273,-17.578,43.945,72.754,0
1492775895.093,58.594,44.922,-41.504,61.523,-6.348,0
1492775895.096,65.918,45.410,37.109,50.781,-53.223,0
1492775895.100,46.875,35.645,124.023,31.738,35.645,0
1492775895.104,61.035,60.059,122.559,50.293,69.824,0
1492775895.108,59.082,54.199,87.402,51.270,29.785,0
1492775895.112,58.105,42.480,59.082,52.734,5.371,0
1492775895.116,80.078,52.734,20.996,68.359,30.273,0
1492775895.120,68.359,42.480,41.016,68.359,62.012,0
1492775895.124,59.570,34.668,84.473,52.734,44.922,0
1492775895.128,71.289,40.527,51.758,44.922,-6.348,0
1492775895.132,75.684,58.594,0.488,57.617,17.578,0
1492775895.136,63.477,57.617,38.086,61.523,45.410,0
1492775895.139,56.152,55.176,92.773,55.176,31.250,0
1492775895.143,97.168,77.148,68.848,74.219,34.668,0
1492775895.147,101.074,66.895,55.176,80.566,30.762,0
1492775895.151,70.312,48.340,48.340,61.035,25.391,0
1492775895.155,77.637,37.109,32.227,60.059,13.672,0
1492775895.159,84.473,40.039,4.883,64.941,43.945,0
1492775895.163,81.543,48.828,35.156,62.988,62.012,0
1492775895.167,68.848,38.574,79.590,58.105,57.129,0
1492775895.171,62.012,32.227,74.707,51.758,64.941,0
1492775895.175,70.801,41.016,67.871,53.711,41.016,0
1492775895.178,75.684,49.805,77.637,54.688,24.414,0
1492775895.182,72.266,47.852,58.105,52.246,8.301,0
1492775895.186,66.895,40.039,-1.465,49.805,23.926,0
1492775895.190,75.195,55.664,41.992,49.316,47.363,0
1492775895.194,68.848,56.152,78.613,41.504,29.785,0
1492775895.198,48.828,43.945,25.391,34.668,57.129,0
1492775895.202,37.598,38.574,1.465,35.156,63.965,0
1492775895.206,46.875,39.551,20.996,30.273,57.129,0
1492775895.210,44.434,27.832,41.504,28.320,40.527,0
1492775895.214,41.504,20.020,54.199,28.320,9.277,0
1492775895.218,45.410,31.250,55.664,20.020,38.574,0
1492775895.221,49.805,34.180,51.758,14.648,44.434,0
1492775895.225,59.082,39.062,59.570,17.090,28.320,0
1492775895.229,59.082,41.992,35.156,26.367,-14.160,0
1492775895.233,64.941,31.738,-20.020,35.156,22.949,0
1492775895.237,57.617,19.043,-1.953,33.691,67.871,0
1492775895.241,61.523,29.785,25.879,35.645,-4.395,0
1492775895.245,50.293,32.715,37.109,32.715,-10.254,0
1492775895.249,25.879,25.879,52.734,31.250,17.578,0
1492775895.253,27.344,11.719,50.781,30.273,27.832,0
1492775895.257,19.043,-9.277,29.297,17.090,25.391,0
1492775895.261,30.273,0.977,36.621,33.203,0.977,0
1492775895.264,31.738,10.742,62.500,30.762,15.137,0
1492775895.268,27.344,5.371,48.828,8.789,44.434,0
1492775895.272,39.551,8.789,1.953,19.531,37.598,0
1492775895.276,28.809,7.324,-9.277,35.156,-0.977,0
1492775895.280,46.875,25.879,-8.789,67.383,37.598,0
1492775895.284,54.199,34.668,17.090,67.871,89.355,0
1492775895.288,31.250,15.625,39.062,41.016,48.828,0
1492775895.292,51.270,21.973,33.203,48.340,41.016,0
1492775895.296,66.895,25.879,47.852,48.828,71.289,0
1492775895.300,44.922,12.695,73.242,43.457,39.551,0
1492775895.303,46.387,14.160,76.660,44.922,34.180,0
1492775895.307,59.082,29.297,56.152,58.594,52.246,0
1492775895.311,48.828,30.273,57.129,65.430,49.316,0
1492775895.315,51.270,24.414,32.227,50.781,25.879,0
1492775895.319,43.457,24.414,9.277,35.645,7.324,0
1492775895.323,19.531,-0.977,49.316,21.484,27.344,0
1492775895.327,26.367,1.953,79.590,24.902,27.344,0
1492775895.331,42.969,40.039,-9.766,37.109,4.883,0
1492775895.335,49.805,41.504,-40.527,29.785,16.113,0
1492775895.339,34.668,8.789,41.016,17.578,41.016,0
1492775895.343,20.020,12.695,55.664,22.461,15.625,0
1492775895.346,31.738,40.039,71.289,33.691,-25.391,0
1492775895.350,34.668,36.133,68.848,34.668,11.230,0
1492775895.354,58.105,41.504,23.926,50.781,52.246,0
1492775895.358,60.547,27.832,19.531,54.688,42.969,0
1492775895.362,38.574,3.906,34.668,34.180,27.832,0
1492775895.366,43.457,12.695,47.363,23.926,12.207,0
1492775895.370,40.039,23.438,46.387,27.344,24.902,0
1492775895.374,34.180,26.855,41.504,36.133,42.480,0
1492775895.378,38.574,25.879,53.711,38.086,18.066,0
1492775895.382,34.668,26.855,68.359,27.344,24.902,0
1492775895.386,34.180,20.020,19.531,25.391,63.477,0
1492775895.389,46.387,18.066,-48.828,32.227,49.805,0
1492775895.393,82.520,43.457,-22.949,56.152,-4.883,0
1492775895.397,83.008,55.176,-26.367,63.965,14.160,0
1492775895.401,39.062,46.387,16.602,43.945,60.547,0
1492775895.405,32.227,23.926,111.816,27.344,41.992,0
1492775895.409,44.922,18.066,120.605,10.742,-1.953,0
1492775895.413,47.363,36.621,96.191,15.137,1.953,0
1492775895.417,52.246,49.316,70.801,35.156,13.672,0
1492775895.421,76.172,68.848,63.477,62.500,40.527,0
1492775895.425,87.402,64.941,64.453,62.012,42.480,0
1492775895.428,71.289,48.340,38.086,39.551,17.090,0
1492775895.432,66.406,57.617,6.836,47.363,24.902,0
1492775895.436,63.477,54.688,-5.371,53.223,41.504,0
1492775895.440,61.035,49.805,-5.859,56.641,49.805,0
1492775895.444,74.219,57.617,10.254,51.758,40.039,0
1492775895.448,63.477,39.062,48.340,29.785,27.344,0
1492775895.452,28.809,25.391,81.543,27.832,22.461,0
1492775895.456,17.578,20.508,99.121,32.227,-3.418,0
1492775895.460,30.762,17.090,86.426,32.227,-5.859,0
1492775895.464,33.203,17.090,52.246,28.320,4.395,0
1492775895.468,24.902,27.344,46.387,26.367,20.996,0
1492775895.471,30.762,52.246,42.969,39.551,17.090,0
1492775895.475,34.668,53.223,37.109,44.434,19.043,0
1492775895.479,39.062,34.668,17.090,52.246,21.973,0
1492775895.483,33.203,22.949,-11.719,48.828,29.297,0
1492775895.487,49.316,38.574,51.758,47.852,54.688,0
1492775895.491,53.711,29.297,41.016,35.645,45.410,0
1492775895.495,28.809,-1.953,-12.207,15.625,18.066,0
1492775895.499,35.156,0.000,40.527,32.227,-10.254,0
1492775895.503,48.340,13.184,81.055,43.945,16.602,0
1492775895.507,49.316,-4.395,58.105,34.668,28.320,0
1492775895.511,56.152,3.418,10.742,25.391,6.348,0
1492775895.514,73.242,36.621,23.438,37.109,-5.371,0
1492775895.518,65.918,39.551,40.039,41.016,26.855,0
1492775895.522,52.246,15.137,29.785,13.672,79.102,0
1492775895.526,61.523,16.113,19.531,17.090,25.879,0
1492775895.530,65.430,31.738,-2.930,44.434,-24.902,0
1492775895.534,30.273,-1.465,-35.645,23.926,25.879,0
1492775895.538,33.203,-2.441,-37.109,21.484,55.176,0
1492775895.542,60.059,23.926,18.066,43.457,41.992,0
1492775895.546,64.941,32.227,68.848,53.711,10.254,0
1492775895.550,69.824,25.879,66.895,47.363,22.949,0
1492775895.553,66.895,32.227,42.969,37.598,53.711,0
1492775895.557,59.570,44.434,51.758,49.316,18.555,0
1492775895.561,58.594,41.016,67.383,46.387,-14.648,0
1492775895.565,56.152,33.203,34.668,19.531,8.301,0
1492775895.569,46.387,31.250,7.324,-2.930,47.363,0
1492775895.573,46.387,35.645,13.184,-1.465,32.227,0
1492775895.577,32.227,20.508,-13.184,-5.859,-13.672,0
1492775895.581,12.695,3.418,-43.945,-23.438,20.020,0
1492775895.585,32.227,17.578,-50.293,-18.555,33.691,0
1492775895.589,35.645,21.484,-11.719,-6.348,12.207,0
1492775895.593,20.996,6.836,10.742,-11.230,15.625,0
1492775895.596,19.531,21.484,-23.438,-11.719,4.883,0
1492775895.600,24.902,39.062,38.574,11.230,21.484,0
1492775895.604,24.414,32.715,82.520,-0.488,44.434,0
1492775895.608,12.695,20.996,40.039,-24.414,28.809,0
1492775895.612,22.461,17.090,29.297,-2.441,20.020,0
1492775895.616,55.176,29.785,28.320,14.648,18.066,0
1492775895.620,58.594,33.203,-22.461,16.113,41.504,0
1492775895.624,38.086,22.949,-17.090,20.020,61.523,0
1492775895.628,37.598,25.391,8.301,15.625,36.621,0
1492775895.632,50.781,17.578,-12.207,19.043,28.809,0
1492775895.636,48.340,20.508,22.461,28.320,36.133,0
1492775895.639,41.992,33.691,49.316,36.133,44.922,0
1492775895.643,54.688,35.156,38.574,45.898,17.090,0
1492775895.647,81.055,44.922,5.371,54.688,-19.531,0
1492775895.651,87.402,49.805,-0.488,62.500,19.043,0
1492775895.655,77.637,40.527,62.500,50.781,77.148,0
1492775895.659,77.637,32.227,104.004,46.387,38.574,0
1492775895.663,93.750,50.781,83.008,68.359,1.465,0
1492775895.667,89.355,54.199,34.180,54.199,37.598,0
1492775895.671,63.965,27.832,23.926,23.926,78.125,0
1492775895.675,60.547,36.133,-16.602,32.227,34.668,0
1492775895.678,61.523,45.898,-43.457,45.898,-0.977,0
1492775895.682,58.105,34.668,26.855,37.598,13.672,0
1492775895.686,69.336,41.016,45.410,47.363,47.363,0
1492775895.690,83.496,54.199,49.316,75.195,37.109,0
1492775895.694,65.430,40.527,52.246,49.805,-33.203,0
1492775895.698,64.453,38.574,47.363,40.039,0.977,0
1492775895.702,60.547,37.598,90.820,38.574,72.266,0
1492775895.706,39.062,25.391,99.121,7.812,34.668,0
1492775895.710,47.852,33.203,51.758,17.090,-19.043,0
1492775895.714,51.270,49.805,0.488,36.621,3.418,0
1492775895.718,59.082,55.664,9.766,33.203,43.457,0
1492775895.721,64.453,46.875,32.715,25.391,69.824,0
1492775895.725,43.945,45.410,23.926,33.691,47.363,0
1492775895.729,45.410,49.805,45.410,32.227,23.926,0
1492775895.733,55.176,43.457,82.031,23.438,24.902,0
1492775895.737,35.645,34.180,75.684,21.973,13.672,0
1492775895.741,19.531,27.832,47.363,25.879,-16.602,0
1492775895.745,44.922,37.598,50.781,52.734,2.930,0
1492775895.749,55.176,41.504,63.965,50.293,41.016,0
1492775895.753,40.039,25.391,46.875,18.066,43.457,0
1492775895.757,37.109,20.508,21.973,15.625,31.738,0
1492775895.761,36.133,20.508,-20.996,21.973,38.574,0
1492775895.764,54.688,24.902,-2.930,33.203,34.180,0
1492775895.768,65.918,32.227,108.887,48.340,31.738,0
1492775895.772,61.523,33.203,91.309,49.316,56.152,0
1492775895.776,58.594,39.551,-2.441,48.340,45.410,0
1492775895.780,65.918,46.875,-8.301,56.641,-6.836,0
1492775895.784,60.547,41.016,30.273,32.715,-5.371,0
1492775895.788,46.875,23.438,14.648,7.812,44.434,0
1492775895.792,53.711,38.086,40.039,28.320,43.457,0
1492775895.796,69.336,57.129,65.918,34.180,24.414,0
1492775895.800,52.734,40.527,52.246,14.160,50.781,0
1492775895.803,55.664,43.945,60.547,11.230,51.270,0
1492775895.807,73.730,50.781,75.684,17.090,54.688,0
1492775895.811,85.938,52.734,80.078,43.457,20.508,0
1492775895.815,110.352,61.523,42.969,60.059,-10.742,0
1492775895.819,117.188,74.219,-1.953,58.594,45.410,0
1492775895.823,95.215,63.965,24.414,55.664,33.203,0
1492775895.827,72.266,41.992,38.574,51.270,3.906,0
1492775895.831,60.059,34.668,44.922,31.250,18.066,0
1492775895.835,58.105,51.758,104.004,26.367,35.645,0
1492775895.839,66.895,64.453,112.793,39.062,56.152,0
1492775895.843,61.035,49.805,66.895,37.109,30.762,0
1492775895.846,45.898,43.457,49.316,29.297,2.930,0
1492775895.850,47.363,46.387,36.621,34.668,39.062,0
1492775895.854,52.734,41.016,16.602,33.691,77.148,0
1492775895.858,47.363,37.598,10.254,37.598,29.785,0
1492775895.862,48.828,39.551,31.738,57.129,-19.043,0
1492775895.866,55.664,41.504,60.059,52.734,-0.488,0
1492775895.870,54.199,37.109,56.641,51.270,40.039,0
1492775895.874,56.152,43.457,8.789,63.965,15.625,0
1492775895.878,47.363,45.410,-14.160,53.711,8.789,0
1492775895.882,41.504,39.062,39.062,41.992,45.898,0
1492775895.886,37.109,38.574,67.871,41.504,62.988,0
1492775895.889,36.133,31.250,52.246,46.387,72.754,0
1492775895.893,57.617,25.879,55.176,57.617,21.484,0
1492775895.897,57.129,32.227,48.340,55.176,20.508,0
1492775895.901,45.898,41.016,53.711,48.340,37.598,0
1492775895.905,22.461,19.531,42.480,36.621,24.902,0
1492775895.909,13.184,16.113,-14.648,33.691,38.574,0
1492775895.913,25.391,29.785,7.812,35.156,41.504,0
1492775895.917,39.062,32.715,56.152,44.922,49.805,0
1492775895.921,46.875,38.574,70.801,58.594,41.504,0
1492775895.925,57.129,41.504,56.641,55.664,17.090,0
1492775895.928,68.359,55.176,21.973,46.387,2.441,0
1492775895.932,90.820,68.848,-8.301,62.988,6.348,0
1492775895.936,98.633,58.105,22.949,68.848,17.090,0
1492775895.940,72.266,32.227,21.484,31.250,32.227,0
1492775895.944,70.312,21.484,27.344,28.320,12.695,0
1492775895.948,77.637,36.621,69.824,43.945,5.859,0
1492775895.952,71.777,46.387,57.129,43.457,69.824,0
1492775895.956,75.195,48.340,73.730,46.875,87.402,0
1492775895.960,83.496,48.340,81.543,54.688,27.832,0
1492775895.964,65.918,31.250,64.941,39.062,30.273,0
1492775895.968,59.570,23.438,44.434,39.551,31.738,0
1492775895.971,67.871,23.926,35.645,54.688,38.086,0
1492775895.975,65.430,27.344,62.500,56.641,28.320,0
1492775895.979,57.617,38.086,38.086,49.316,-21.484,0
1492775895.983,65.430,57.129,-37.598,61.035,12.695,0
1492775895.987,53.711,34.668,-21.484,49.316,56.641,0
1492775895.991,41.992,16.602,18.555,22.949,49.805,0
1492775895.995,54.688,37.109,-9.766,37.109,1.465,0
1492775895.999,54.199,39.062,28.809,36.621,3.418,0
1492775896.003,51.758,36.133,81.055,17.090,56.641,0
1492775896.007,37.598,34.180,54.688,3.418,43.945,0
1492775896.011,32.715,16.602,18.066,6.348,3.418,0
1492775896.014,42.480,12.695,4.395,19.043,10.254,0
1492775896.018,29.785,14.648,29.297,10.742,46.387,0
1492775896.022,43.945,36.133,54.688,20.996,13.184,0
1492775896.026,55.664,52.734,26.367,36.621,-31.250,0
1492775896.030,28.809,33.691,-17.578,4.395,-6.348,0
1492775896.034,18.555,35.156,20.508,-5.859,34.668,0
1492775896.038,27.344,32.227,36.621,-6.348,9.277,0
1492775896.042,50.293,32.715,18.066,-1.465,-7.812,0
1492775896.046,40.039,34.180,24.902,6.348,22.461,0
1492775896.050,35.645,34.668,41.992,8.789,9.277,0
1492775896.053,41.992,37.109,30.273,9.766,-10.254,0
1492775896.057,30.762,32.715,-19.043,-9.766,11.230,0
1492775896.061,35.645,40.039,10.254,5.371,22.461,0
1492775896.065,40.527,33.203,42.969,26.367,25.391,0
1492775896.069,23.438,11.719,3.418,4.395,52.734,0
1492775896.073,-6.348,-10.742,-28.320,-27.344,28.809,0
1492775896.077,-23.438,-27.832,-37.109,-36.133,4.395,0
1492775896.081,-16.602,-20.020,-10.742,-23.438,35.645,0
1492775896.085,-18.066,-16.113,-26.367,-32.227,44.922,0
1492775896.089,-24.902,-15.625,-48.828,-41.992,40.527,0
1492775896.093,-2.441,2.441,13.184,-18.066,21.973,0
1492775896.096,10.742,10.254,47.363,2.441,15.137,0
1492775896.100,15.625,13.672,35.645,14.160,14.648,0
1492775896.104,11.230,17.578,25.391,13.672,25.879,0
1492775896.108,15.137,20.996,36.133,19.043,42.969,0
1492775896.112,25.879,4.883,56.152,22.949,-12.695,0
1492775896.116,46.387,21.973,32.715,44.922,-31.250,0
1492775896.120,79.102,74.707,-2.930,88.867,23.926,0
1492775896.124,68.359,79.590,29.785,75.684,60.059,0
1492775896.128,71.777,64.941,60.059,60.059,23.926,0
1492775896.132,82.031,59.082,62.500,63.477,10.742,0
1492775896.136,56.641,43.457,72.266,51.758,46.875,0
1492775896.139,36.133,20.508,44.922,23.926,41.992,0
1492775896.143,47.363,21.484,41.504,24.902,-2.441,0
1492775896.147,79.102,32.715,83.496,51.270,-0.488,0
1492775896.151,62.988,28.320,62.012,46.387,55.176,0
1492775896.155,22.461,12.207,31.738,24.414,41.016,0
1492775896.159,29.785,10.254,41.016,21.973,-17.090,0
1492775896.163,57.129,28.320,66.895,32.227,-20.996,0
1492775896.167,45.410,22.461,30.762,23.438,27.344,0
1492775896.171,27.344,25.391,-58.594,37.109,45.898,0
1492775896.175,32.227,25.391,-37.598,38.574,-9.766,0
1492775896.178,34.668,9.766,57.129,26.367,-29.297,0
1492775896.182,41.504,7.812,97.168,34.668,22.461,0
1492775896.186,35.645,6.348,96.680,24.414,58.105,0
1492775896.190,18.555,-4.395,73.242,16.113,46.387,0
1492775896.194,31.250,-1.953,68.848,34.668,20.508,0
1492775896.198,37.598,4.395,57.129,46.387,9.766,0
1492775896.202,31.738,11.719,11.230,39.062,33.203,0
1492775896.206,20.508,20.996,25.391,24.414,32.227,0
1492775896.210,8.301,19.531,11.230,13.184,-8.789,0
1492775896.214,22.949,22.949,-1.465,14.648,7.812,0
1492775896.218,34.668,30.762,38.574,21.973,5.371,0
1492775896.221,24.414,17.578,43.945,9.766,-6.836,0
1492775896.225,23.438,1.953,18.555,-6.348,30.762,0
1492775896.229,15.625,1.465,-32.227,7.324,36.621,0
1492775896.233,13.672,-2.930,-2.441,9.277,23.438,0
1492775896.237,9.766,-7.812,67.383,1.953,42.480,0
1492775896.241,3.418,0.977,69.824,5.371,56.152,0
1492775896.245,5.859,0.488,0.000,8.789,31.738,0
1492775896.249,3.906,-7.812,-10.254,11.719,19.531,0
1492775896.253,11.230,-1.953,56.152,1.465,59.082,0
1492775896.257,32.715,12.695,66.406,12.207,69.336,0
1492775896.261,44.434,26.367,45.898,28.320,19.043,0
1492775896.264,50.293,35.645,15.137,33.691,-15.137,0
1492775896.268,57.617,33.691,32.227,32.227,36.621,0
1492775896.272,40.527,27.832,44.922,15.137,87.402,0
1492775896.276,34.668,20.508,8.301,28.809,44.922,0
1492775896.280,51.758,16.602,-8.789,40.039,31.250,0
1492775896.284,37.598,17.578,5.371,13.184,46.387,0
1492775896.288,24.414,26.855,40.039,5.859,48.828,0
1492775896.292,47.852,33.203,73.730,20.020,27.344,0
1492775896.296,53.711,31.738,52.246,19.531,-10.254,0
1492775896.300,55.664,38.086,23.438,16.602,12.207,0
1492775896.303,74.219,42.969,35.156,40.039,69.824,0
1492775896.307,70.312,35.645,62.988,52.246,40.527,0
1492775896.311,55.664,30.762,35.156,31.250,-23.438,0
1492775896.315,66.406,36.133,10.254,43.457,8.301,0
1492775896.319,59.570,32.227,31.738,61.523,41.992,0
1492775896.323,43.457,27.832,34.180,41.992,21.973,0
1492775896.327,35.156,26.367,8.789,24.414,15.625,0
1492775896.331,40.039,25.391,6.836,30.273,62.500,0
1492775896.335,46.875,32.227,62.500,30.762,67.383,0
1492775896.339,46.387,37.109,55.664,20.996,23.926,0
1492775896.343,59.570,42.480,13.184,31.738,25.391,0
1492775896.346,61.035,56.641,26.855,44.434,87.891,0
1492775896.350,51.270,51.270,68.848,41.504,140.625,0
1492775896.354,48.340,27.832,95.215,24.414,108.887,0
1492775896.358,41.504,24.902,35.156,23.926,83.496,0
1492775896.362,41.504,38.086,-25.879,24.902,101.074,0
1492775896.366,51.270,49.316,7.812,23.926,89.844,0
1492775896.370,53.711,52.734,16.113,27.832,85.449,0
1492775896.374,65.918,62.988,24.414,39.062,100.098,0
1492775896.378,74.707,58.105,58.594,38.574,92.285,0
1492775896.382,75.195,41.016,80.078,29.297,93.262,0
1492775896.386,91.797,55.176,120.117,53.711,99.609,0
1492775896.389,102.539,76.172,96.680,70.801,62.988,0
1492775896.393,121.582,90.332,48.828,85.938,45.898,0
1492775896.397,125.977,85.449,26.855,99.121,4.395,0
1492775896.401,102.051,68.359,27.832,71.289,-8.301,0
1492775896.405,85.449,71.777,52.734,53.223,63.477,0
1492775896.409,89.355,63.477,78.125,59.082,52.734,0
1492775896.413,90.820,60.059,46.875,58.594,0.977,0
1492775896.417,78.125,64.941,32.227,50.293,7.812,0
1492775896.421,76.660,61.523,98.633,53.711,52.246,0
1492775896.425,85.938,67.871,90.332,59.082,38.574,0
1492775896.428,95.215,80.078,-0.977,62.012,-2.930,0
1492775896.432,105.957,90.332,16.113,81.543,15.625,0
1492775896.436,95.703,68.359,52.734,74.219,37.598,0
1492775896.440,71.289,45.410,19.043,62.012,2.930,0
1492775896.444,66.406,56.641,53.223,56.152,-35.645,0
1492775896.448,79.102,67.871,113.770,52.734,3.906,0
1492775896.452,81.543,60.059,96.680,65.430,28.320,0
1492775896.456,80.566,45.898,51.270,52.734,5.371,0
1492775896.460,77.148,49.805,70.312,38.086,-8.789,0
1492775896.464,65.430,43.457,76.172,40.527,12.695,0
1492775896.468,67.383,40.039,45.410,58.105,48.828,0
1492775896.471,85.938,73.242,41.992,68.848,58.594,0
1492775896.475,58.594,58.594,46.875,35.645,22.461,0
1492775896.479,36.621,38.086,15.625,29.785,-14.648,0
1492775896.483,54.688,71.777,19.043,53.223,-21.484,0
1492775896.487,41.504,80.566,74.707,44.922,-22.949,0
1492775896.491,21.973,52.734,71.289,11.719,-34.668,0
1492775896.495,31.738,41.016,58.105,6.836,4.395,0
1492775896.499,40.039,52.734,20.508,24.414,28.809,0
1492775896.503,41.992,59.082,28.809,26.367,16.113,0
1492775896.507,50.293,57.129,50.293,36.621,31.738,0
1492775896.511,45.898,59.082,47.852,33.691,23.926,0
1492775896.514,55.176,69.824,89.844,36.621,-29.785,0
1492775896.518,47.852,44.434,55.176,36.621,-9.766,0
1492775896.522,32.715,20.508,5.371,19.043,15.625,0
1492775896.526,14.160,11.719,11.230,-1.953,11.230,0
1492775896.530,3.906,16.113,29.297,3.906,32.715,0
1492775896.534,54.199,52.246,52.734,32.715,19.043,0
1492775896.538,69.336,54.199,29.785,36.621,14.160,0
1492775896.542,64.453,40.527,15.625,36.621,24.414,0
1492775896.546,69.824,39.551,38.574,40.039,8.301,0
1492775896.550,70.312,40.039,-7.812,41.992,13.672,0
1492775896.553,55.176,42.969,29.785,33.203,55.664,0
1492775896.557,50.293,40.039,93.750,39.551,61.523,0
1492775896.561,41.016,22.461,44.922,30.762,30.762,0
1492775896.565,37.598,16.602,25.879,25.879,10.742,0
1492775896.569,64.453,27.344,39.062,42.480,10.254,0
1492775896.573,56.641,19.531,48.828,34.668,39.062,0
1492775896.577,47.852,31.250,76.172,33.203,-4.395,0
1492775896.581,56.641,45.898,71.289,47.363,-43.945,0
1492775896.585,55.664,31.738,40.527,38.086,37.109,0
1492775896.589,65.918,30.273,2.930,52.734,64.941,0
1492775896.593,54.199,22.461,-27.344,57.617,13.184,0
1492775896.596,28.320,20.020,7.324,40.527,15.137,0
1492775896.600,35.156,23.926,2.441,34.180,72.754,0
1492775896.604,46.875,22.949,-3.418,27.344,78.613,0
1492775896.608,50.293,22.461,58.594,41.992,23.926,0
1492775896.612,50.293,22.461,68.848,44.922,12.695,0
1492775896.616,42.480,31.738,42.480,26.367,39.551,0
1492775896.620,46.387,19.531,14.648,27.344,37.598,0
1492775896.624,65.430,11.230,-55.176,29.785,28.320,0
1492775896.628,45.410,17.090,1.953,23.926,-7.812,0
1492775896.632,17.578,17.578,74.219,20.508,-7.812,0
1492775896.636,24.902,24.902,32.227,27.344,27.832,0
1492775896.639,31.738,27.832,20.996,33.691,-4.883,0
1492775896.643,25.391,3.906,35.156,7.812,17.578,0
1492775896.647,25.391,-2.441,18.066,9.277,41.016,0
1492775896.651,43.945,25.391,9.277,37.109,20.996,0
1492775896.655,24.414,16.602,35.645,19.531,38.086,0
1492775896.659,12.207,1.465,36.133,9.277,51.758,0
1492775896.663,29.297,15.625,-13.672,15.625,44.434,0
1492775896.667,42.480,23.926,-14.648,8.301,62.500,0
1492775896.671,52.734,25.391,41.992,15.625,64.453,0
1492775896.675,60.547,22.461,52.246,29.785,43.945,0
1492775896.678,67.871,18.066,13.672,23.926,27.344,0
1492775896.682,88.867,36.133,-1.953,40.527,18.066,0
1492775896.686,68.848,34.668,26.367,39.551,27.832,0
1492775896.690,34.180,20.996,61.035,12.207,30.762,0
1492775896.694,55.664,39.062,61.035,26.367,15.625,0
1492775896.698,49.805,37.598,39.551,32.227,28.809,0
1492775896.702,23.926,5.371,38.086,10.742,56.152,0
1492775896.706,27.832,-1.953,42.969,13.672,91.309,0
1492775896.710,38.574,14.648,3.418,30.273,69.824,0
1492775896.714,45.410,33.691,-18.066,42.969,13.184,0
1492775896.718,42.480,44.922,27.344,50.781,38.574,0
1492775896.721,32.715,38.574,79.102,43.457,74.707,0
1492775896.725,38.086,37.109,77.637,41.016,40.527,0
1492775896.729,39.062,36.621,60.547,42.969,-28.320,0
1492775896.733,42.969,45.898,37.598,43.945,8.789,0
1492775896.737,54.199,54.199,18.066,55.176,96.680,0
1492775896.741,76.172,50.781,54.199,73.730,44.922,0
1492775896.745,70.312,52.246,77.148,64.941,23.438,0
1492775896.749,51.758,46.387,19.531,47.852,64.941,0
1492775896.753,54.688,45.898,-33.691,50.293,43.457,0
1492775896.757,41.016,27.344,22.461,46.875,16.113,0
1492775896.761,37.598,7.812,88.379,27.344,10.742,0
1492775896.764,49.805,16.113,66.895,29.297,19.043,0
1492775896.768,62.500,36.133,53.223,62.988,49.316,0
1492775896.772,72.266,48.340,34.180,59.082,43.457,0
1492775896.776,66.406,36.621,-0.488,41.504,4.395,0
1492775896.780,68.359,42.969,42.480,56.641,8.301,0
1492775896.784,84.473,63.477,108.887,70.801,38.574,0
1492775896.788,91.309,75.195,104.004,86.426,55.664,0
1492775896.792,87.402,69.824,28.320,99.121,30.762,0
1492775896.796,77.148,51.758,16.602,74.219,8.301,0
1492775896.800,54.199,39.062,66.895,55.176,20.508,0
1492775896.803,55.664,35.645,75.684,60.059,58.594,0
1492775896.807,66.895,38.574,46.875,74.707,52.246,0
1492775896.811,65.918,42.969,30.273,83.984,-15.625,0
1492775896.815,66.406,48.828,48.340,78.125,-8.789,0
1492775896.819,58.594,55.664,72.754,67.871,17.090,0
1492775896.823,72.754,61.035,85.938,61.035,9.277,0
1492775896.827,76.172,62.988,87.891,50.293,35.156,0
1492775896.831,68.848,62.988,76.660,60.547,20.996,0
1492775896.835,87.402,68.848,19.043,89.844,9.277,0
1492775896.839,87.891,52.246,19.043,62.988,48.828,0
1492775896.843,65.430,25.879,61.035,39.062,41.992,0
1492775896.846,58.105,31.738,40.039,49.316,1.465,0
1492775896.850,65.430,24.902,19.531,54.199,15.137,0
1492775896.854,83.008,26.855,59.570,56.152,38.574,0
1492775896.858,84.473,51.270,77.637,69.336,15.625,0
1492775896.862,80.566,56.152,62.500,73.242,-26.367,0
1492775896.866,66.406,40.527,62.988,45.410,-36.133,0
1492775896.870,54.688,37.598,78.125,43.457,21.973,0
1492775896.874,60.059,49.316,74.707,62.988,53.711,0
1492775896.878,42.480,32.227,38.086,31.250,18.066,0
1492775896.882,41.992,28.809,26.367,23.438,25.879,0
1492775896.886,54.688,53.711,25.391,55.176,62.012,0
1492775896.889,53.223,39.551,30.762,46.387,55.664,0
1492775896.893,48.340,30.273,29.297,47.363,32.715,0
1492775896.897,56.152,44.922,26.367,55.176,32.227,0
1492775896.901,73.730,52.246,31.250,48.828,65.918,0
1492775896.905,67.383,44.922,14.648,53.223,50.293,0
1492775896.909,57.617,45.410,59.082,54.688,-27.832,0
1492775896.913,65.918,54.199,104.980,61.035,-43.945,0
1492775896.917,54.688,45.898,30.762,50.781,34.668,0
1492775896.921,39.062,26.855,-20.996,24.902,60.059,0
1492775896.925,37.598,13.672,27.832,22.949,0.000,0
1492775896.928,38.086,23.438,25.879,19.531,-19.043,0
1492775896.932,58.594,38.086,0.488,32.227,36.621,0
1492775896.936,46.387,23.438,26.855,52.246,63.477,0
1492775896.940,16.113,18.066,20.020,37.598,25.879,0
1492775896.944,29.785,37.109,20.020,28.320,-4.395,0
1492775896.948,40.527,41.016,43.457,33.691,3.418,0
1492775896.952,39.062,29.785,32.715,30.273,23.926,0
1492775896.956,56.641,34.180,14.648,33.203,22.949,0
1492775896.960,48.828,34.668,5.859,37.598,20.996,0
1492775896.964,32.715,29.785,41.992,29.297,26.367,0
1492775896.968,39.062,30.762,8.301,26.367,33.203,0
1492775896.971,41.992,26.367,-1.465,30.762,49.316,0
1492775896.975,39.551,10.254,32.715,18.555,26.855,0
1492775896.979,43.457,19.531,9.766,24.902,6.348,0
1492775896.983,48.340,44.922,44.434,39.062,20.508,0
1492775896.987,34.180,29.297,72.266,28.320,48.828,0
1492775896.991,40.039,26.855,59.082,28.320,45.410,0
1492775896.995,50.781,33.203,19.043,31.738,25.391,0
1492775896.999,43.457,19.531,26.855,21.484,11.719,0
1492775897.003,30.762,7.324,39.062,9.766,27.344,0
1492775897.007,40.039,4.395,12.207,17.090,37.109,0
1492775897.011,52.734,9.277,15.625,25.391,18.066,0
1492775897.014,18.066,-6.348,28.320,4.395,18.066,0
1492775897.018,-1.953,-14.648,-4.883,0.488,25.391,0
1492775897.022,20.996,11.230,-0.977,21.484,28.809,0
1492775897.026,34.668,29.785,75.684,22.461,22.949,0
1492775897.030,35.645,31.738,42.480,31.738,23.926,0
1492775897.034,35.156,25.879,-0.977,38.086,59.570,0
1492775897.038,27.344,21.973,26.367,30.762,93.262,0
1492775897.042,35.156,27.832,34.668,32.227,52.246,0
1492775897.046,41.504,22.949,53.711,36.133,11.719,0
1492775897.050,30.273,8.301,20.508,40.527,28.809,0
1492775897.053,40.527,11.230,-5.859,42.969,52.246,0
1492775897.057,54.199,24.902,46.875,47.363,20.020,0
1492775897.061,51.758,27.344,83.496,55.176,-32.715,0
1492775897.065,57.617,38.086,44.922,67.383,21.484,0
1492775897.069,82.031,64.453,45.410,86.914,70.801,0
1492775897.073,80.566,59.082,61.035,80.078,28.320,0
1492775897.077,65.430,50.781,56.152,67.383,0.000,0
1492775897.081,84.473,59.082,48.828,59.082,16.113,0
1492775897.085,91.797,67.383,39.551,56.641,58.105,0
1492775897.089,65.430,64.941,44.434,63.965,38.086,0
1492775897.093,56.152,60.547,13.184,67.871,2.930,0
1492775897.096,57.617,50.781,38.086,63.477,24.902,0
1492775897.100,71.289,55.176,80.078,60.547,32.227,0
1492775897.104,76.660,55.664,40.527,58.594,23.926,0
1492775897.108,66.895,44.434,16.602,51.270,38.086,0
1492775897.112,75.684,59.570,56.641,62.012,42.480,0
1492775897.116,86.426,70.312,95.215,70.312,7.324,0
1492775897.120,80.078,59.082,62.012,57.129,30.273,0
1492775897.124,105.957,67.383,31.738,77.148,68.848,0
1492775897.128,114.258,71.289,17.090,75.684,29.297,0
1492775897.132,90.820,68.359,20.996,64.453,40.527,0
1492775897.136,76.660,65.430,73.730,68.848,76.660,0
1492775897.139,77.637,44.434,18.066,58.105,63.477,0
1492775897.143,84.473,31.250,-59.570,60.059,35.645,0
1492775897.147,73.730,31.250,40.039,51.270,14.648,0
1492775897.151,69.824,54.199,99.121,31.738,19.043,0
1492775897.155,88.867,67.383,67.383,28.320,61.035,0
1492775897.159,87.891,54.688,51.758,41.504,65.430,0
1492775897.163,63.477,41.504,45.898,40.039,4.883,0
1492775897.167,73.242,51.270,58.594,44.434,12.207,0
1492775897.171,97.656,69.336,88.867,68.359,66.895,0
1492775897.175,111.816,77.148,59.570,82.031,50.781,0
1492775897.178,106.445,72.266,14.160,73.242,4.395,0
1492775897.182,79.102,35.645,28.320,52.246,32.227,0
1492775897.186,77.637,27.344,69.824,40.527,39.551,0
1492775897.190,85.449,45.410,66.895,43.945,14.160,0
1492775897.194,79.102,50.293,33.203,47.363,-37.109,0
1492775897.198,62.012,41.504,6.836,38.574,19.531,0
1492775897.202,73.730,39.062,26.855,40.039,94.238,0
1492775897.206,85.938,34.180,83.984,32.227,62.012,0
1492775897.210,68.848,25.391,95.215,22.949,18.555,0
1492775897.214,64.453,46.875,34.668,41.016,24.414,0
1492775897.218,79.590,59.082,44.922,52.246,55.664,0
1492775897.221,87.402,46.387,48.340,47.363,44.922,0
1492775897.225,86.426,39.062,8.789,45.410,41.504,0
1492775897.229,83.496,28.809,48.828,42.969,34.180,0
1492775897.233,61.523,22.461,77.637,41.016,30.273,0
1492775897.237,63.477,33.691,70.801,41.992,11.719,0
1492775897.241,74.219,47.852,33.203,48.828,-11.230,0
1492775897.245,74.219,63.965,34.180,53.711,6.348,0
1492775897.249,64.453,38.574,30.762,40.039,18.555,0
1492775897.253,34.668,6.348,-11.719,19.043,38.086,0
1492775897.257,57.617,32.227,11.230,30.273,38.086,0
1492775897.261,71.777,45.898,47.363,30.762,-7.324,0
1492775897.264,52.734,28.809,6.348,26.367,-4.395,0
1492775897.268,60.059,22.949,9.277,44.434,43.945,0
1492775897.272,64.453,33.691,45.898,37.598,59.082,0
1492775897.276,61.035,43.945,56.641,27.832,35.645,0
1492775897.280,74.219,50.781,36.621,48.828,-11.230,0
1492775897.284,88.867,62.988,15.137,47.363,10.254,0
1492775897.288,93.262,64.453,64.941,41.016,38.086,0
1492775897.292,76.660,39.551,82.520,32.715,39.062,0
1492775897.296,70.801,29.297,19.531,16.113,21.484,0
1492775897.300,82.520,53.711,-49.316,51.270,3.418,0
1492775897.303,83.496,60.059,-45.898,63.477,41.992,0
1492775897.307,73.242,47.363,33.203,37.109,31.738,0
1492775897.311,60.059,37.109,79.102,40.527,-8.789,0
1492775897.315,81.055,45.898,62.500,59.570,13.672,0
1492775897.319,80.078,53.223,26.367,56.152,35.645,0
1492775897.323,63.965,56.641,44.434,52.734,37.598,0
1492775897.327,66.406,74.707,84.961,50.781,23.438,0
1492775897.331,62.988,61.035,53.223,40.039,20.020,0
1492775897.335,47.852,25.391,5.859,34.668,50.781,0
1492775897.339,40.527,29.297,5.371,40.039,48.340,0
1492775897.343,45.410,34.668,23.926,41.504,-11.230,0
1492775897.346,59.570,29.785,39.551,33.691,-18.066,0
1492775897.350,78.125,45.898,43.945,51.270,51.270,0
1492775897.354,78.125,66.895,60.547,67.871,52.246,0
1492775897.358,56.641,53.711,30.273,55.664,19.531,0
1492775897.362,56.152,44.922,-17.578,43.945,18.066,0
1492775897.366,74.219,61.035,18.066,41.992,32.715,0
1492775897.370,59.570,47.363,62.500,21.973,57.617,0
1492775897.374,42.480,46.875,46.387,20.996,46.387,0
1492775897.378,40.527,38.086,25.879,30.762,-5.859,0
1492775897.382,53.711,25.879,53.711,30.762,13.672,0
1492775897.386,66.406,36.133,53.223,38.086,46.875,0
1492775897.389,67.871,41.992,14.160,44.434,15.625,0
1492775897.393,77.637,38.086,25.391,37.598,4.395,0
1492775897.397,83.496,42.969,20.996,35.645,18.555,0
1492775897.401,91.797,48.828,42.969,27.344,6.836,0
1492775897.405,105.957,40.039,93.262,23.926,13.672,0
1492775897.409,83.984,46.875,91.797,28.809,42.969,0
1492775897.413,71.777,53.711,70.312,26.367,37.598,0
1492775897.417,85.938,54.688,55.176,38.574,38.574,0
1492775897.421,77.148,59.570,16.602,50.293,58.105,0
1492775897.425,67.871,57.129,-41.992,46.875,32.227,0
1492775897.428,76.172,56.641,15.625,59.082,-13.672,0
1492775897.432,69.336,44.434,41.504,58.594,-19.043,0
1492775897.436,58.105,34.668,8.301,38.086,14.648,0
1492775897.440,59.082,44.434,43.945,24.414,26.367,0
1492775897.444,84.473,62.500,85.449,44.434,8.301,0
1492775897.448,75.684,55.176,85.449,53.711,-10.254,0
1492775897.452,47.852,35.156,65.430,31.738,28.809,0
1492775897.456,53.223,48.828,30.273,48.828,60.059,0
1492775897.460,45.898,60.547,-20.508,63.965,-1.465,0
1492775897.464,45.410,53.223,-10.254,52.734,-10.742,0
1492775897.468,38.574,51.270,68.359,46.875,45.898,0
1492775897.471,35.156,53.711,80.566,48.340,38.574,0
1492775897.475,50.293,46.387,34.180,46.387,-4.395,0
1492775897.479,59.570,35.645,58.105,31.738,2.930,0
1492775897.483,60.547,43.457,43.945,32.715,47.852,0
1492775897.487,51.270,60.547,-5.371,48.340,67.871,0
1492775897.491,35.156,51.758,31.738,47.363,34.180,0
1492775897.495,28.320,38.086,9.277,40.039,-14.648,0
1492775897.499,39.551,28.320,-9.766,28.320,14.648,0
1492775897.503,55.664,33.691,48.828,42.480,76.660,0
1492775897.507,43.457,29.785,66.895,36.621,56.152,0
1492775897.511,43.457,21.484,56.152,29.297,15.137,0
1492775897.514,73.242,41.016,57.617,54.199,13.184,0
1492775897.518,78.613,50.781,74.707,59.570,26.855,0
1492775897.522,66.406,44.922,47.363,48.828,9.277,0
1492775897.526,62.988,25.391,24.414,44.922,-9.766,0
1492775897.530,78.613,19.043,42.480,55.664,2.441,0
1492775897.534,82.520,39.551,19.531,60.059,19.531,0
1492775897.538,65.430,51.270,-20.020,52.734,24.414,0
1492775897.542,70.312,56.152,5.859,48.340,11.719,0
1492775897.546,77.148,55.176,57.617,52.246,19.043,0
1492775897.550,66.895,48.340,85.938,66.406,28.809,0
1492775897.553,59.570,29.297,62.500,59.570,46.875,0
1492775897.557,50.293,20.020,74.707,50.781,44.434,0
1492775897.561,42.969,24.414,86.426,53.711,-15.625,0
1492775897.565,40.039,24.902,51.758,35.645,-34.180,0
1492775897.569,43.457,27.344,29.297,41.504,-11.719,0
1492775897.573,48.828,31.738,5.371,59.082,28.809,0
1492775897.577,40.527,36.621,1.953,50.781,0.000,0
1492775897.581,24.414,32.715,51.270,37.109,-25.391,0
1492775897.585,18.066,25.391,75.195,35.156,17.578,0
1492775897.589,31.250,34.668,72.754,49.805,30.762,0
1492775897.593,40.039,37.598,61.523,53.711,30.273,0
1492775897.596,36.621,25.879,70.801,42.480,5.859,0
1492775897.600,41.016,25.391,51.758,45.898,10.254,0
1492775897.604,33.203,7.812,2.930,32.227,57.617,0
1492775897.608,36.621,-2.441,25.879,29.785,56.641,0
1492775897.612,58.594,27.832,62.500,56.152,-9.277,0
1492775897.616,48.340,37.598,78.125,53.223,2.930,0
1492775897.620,18.555,29.785,13.184,21.973,56.152,0
1492775897.624,23.926,40.039,-8.789,25.391,24.414,0
1492775897.628,44.434,43.945,48.828,37.598,-3.418,0
1492775897.632,37.598,32.227,85.938,33.691,17.090,0
1492775897.636,25.391,27.344,59.082,28.320,48.340,0
1492775897.639,38.086,28.809,28.320,35.156,44.434,0
1492775897.643,68.848,38.574,53.711,57.617,22.461,0
1492775897.647,73.730,42.480,50.293,46.875,10.254,0
1492775897.651,56.641,31.738,28.320,23.438,44.434,0
1492775897.655,66.406,38.574,24.414,37.598,38.574,0
1492775897.659,62.012,32.715,-1.465,39.062,-21.484,0
1492775897.663,56.152,25.391,0.977,32.715,-4.883,0
1492775897.667,55.176,28.320,53.711,41.992,66.406,0
1492775897.671,46.387,20.508,63.965,26.367,74.219,0
1492775897.675,53.711,32.715,26.855,21.973,56.152,0
1492775897.678,49.316,42.480,22.949,32.715,28.320,0
1492775897.682,39.551,22.949,58.105,35.645,22.461,0
1492775897.686,47.363,23.926,50.293,41.016,57.129,0
1492775897.690,63.965,41.504,31.250,55.664,34.668,0
1492775897.694,73.730,37.109,41.016,56.641,-8.789,0
1492775897.698,50.293,7.324,50.293,25.879,11.230,0
1492775897.702,49.805,14.160,64.941,28.320,37.598,0
1492775897.706,62.012,18.066,16.602,37.598,16.602,0
1492775897.710,50.781,12.695,-3.906,29.297,7.324,0
1492775897.714,68.359,34.668,46.387,52.246,20.020,0
1492775897.718,68.848,39.551,62.012,53.711,17.578,0
1492775897.721,50.293,35.645,46.387,32.715,32.227,0
1492775897.725,60.547,48.828,26.367,44.922,34.180,0
1492775897.729,69.824,49.805,-13.184,61.035,14.160,0
1492775897.733,84.473,56.152,30.762,76.660,31.250,0
1492775897.737,66.406,49.805,73.730,54.688,41.992,0
1492775897.741,30.273,28.809,15.137,17.578,45.898,0
1492775897.745,29.785,22.949,29.785,3.418,32.227,0
1492775897.749,55.664,42.969,90.820,30.273,11.230,0
1492775897.753,56.641,48.340,99.121,42.969,16.602,0
1492775897.757,41.016,33.691,79.102,18.555,22.461,0
1492775897.761,57.129,41.016,54.688,36.133,-11.719,0
1492775897.764,69.824,45.410,-10.742,55.176,-20.996,0
1492775897.768,63.477,43.945,26.367,54.199,30.273,0
1492775897.772,69.336,63.965,20.508,63.965,56.641,0
1492775897.776,57.129,54.199,-25.879,34.668,-2.441,0
1492775897.780,46.875,30.762,80.566,15.137,-19.043,0
1492775897.784,43.945,19.043,127.930,20.020,50.293,0
1492775897.788,41.504,16.113,99.121,27.344,70.801,0
1492775897.792,38.574,35.156,68.359,26.855,30.273,0
1492775897.796,48.828,54.199,12.207,18.066,11.719,0
1492775897.800,59.570,56.641,0.977,34.180,21.973,0
1492775897.803,73.242,66.895,32.715,57.129,68.848,0
1492775897.807,76.172,70.312,35.156,46.875,66.406,0
1492775897.811,74.707,63.965,79.590,38.086,-3.418,0
1492775897.815,75.195,72.754,82.520,38.574,5.371,0
1492775897.819,61.523,69.824,10.254,33.691,80.078,0
1492775897.823,48.340,52.734,55.664,20.508,46.875,0
1492775897.827,40.039,30.762,33.691,14.160,7.324,0
1492775897.831,48.828,39.062,-29.297,39.551,25.879,0
1492775897.835,34.668,30.762,33.203,27.832,30.273,0
1492775897.839,17.578,19.043,56.152,5.371,56.641,0
1492775897.843,50.781,46.387,69.824,21.484,35.156,0
1492775897.846,70.312,70.312,76.660,44.434,22.461,0
1492775897.850,49.316,51.270,65.430,43.457,27.344,0
1492775897.854,32.715,19.531,40.527,29.297,2.930,0
1492775897.858,29.785,31.738,28.809,32.227,23.926,0
1492775897.862,37.109,36.133,65.918,41.504,17.578,0
1492775897.866,57.129,36.621,62.988,56.641,-16.602,0
1492775897.870,64.453,49.805,29.297,53.711,3.418,0
