timestamps,TP9,AF7,AF8,TP10,Right AUX,Marker0
1492488181.700,36.133,71.289,29.297,-4.395,22.949,0
1492488181.704,35.645,41.504,29.785,1.465,30.762,0
1492488181.707,32.715,56.152,26.367,-1.953,1.465,0
1492488181.711,34.668,82.031,27.344,6.348,3.418,0
1492488181.715,31.738,42.969,21.973,16.602,14.648,0
1492488181.719,30.273,53.711,11.719,13.184,-37.109,0
1492488181.723,29.785,64.941,10.254,4.883,-19.531,0
1492488181.727,32.715,16.113,7.324,11.719,36.621,0
1492488181.731,33.691,30.762,17.090,14.648,13.672,0
1492488181.735,40.039,55.176,22.949,9.766,-1.465,0
1492488181.739,40.527,41.016,25.879,8.301,17.090,0
1492488181.743,29.785,29.785,25.391,16.113,48.828,0
1492488181.746,35.645,42.969,22.461,30.273,42.969,0
1492488181.750,38.574,64.453,20.020,20.020,4.395,0
1492488181.754,31.250,62.012,16.113,13.184,12.695,0
1492488181.758,33.691,61.523,15.625,21.973,30.762,0
1492488181.762,41.992,46.875,23.438,22.461,-0.977,0
1492488181.766,32.227,21.973,23.926,16.602,-11.719,0
1492488181.770,28.809,34.668,19.043,14.160,-14.648,0
1492488181.774,34.668,41.992,29.785,9.766,-17.090,0
1492488181.778,32.715,29.785,33.691,5.859,5.371,0
1492488181.782,38.086,31.738,34.180,8.789,-0.488,0
1492488181.786,43.457,30.762,38.086,12.695,21.973,0
1492488181.789,41.504,29.785,38.086,21.484,47.363,0
1492488181.793,36.133,63.965,36.621,22.461,13.672,0
1492488181.797,37.598,82.520,26.367,14.160,18.066,0
1492488181.801,47.363,66.895,30.762,18.555,50.293,0
1492488181.805,58.105,59.570,40.039,38.574,41.016,0
1492488181.809,63.965,29.785,53.223,39.062,31.250,0
1492488181.813,63.477,48.828,67.871,27.832,22.949,0
1492488181.817,67.383,111.816,66.895,23.926,26.855,0
1492488181.821,72.266,103.516,74.707,29.297,45.410,0
1492488181.825,65.430,87.891,78.125,37.598,15.625,0
1492488181.829,60.059,96.191,64.453,30.762,5.371,0
1492488181.832,64.941,62.988,53.223,27.344,49.805,0
1492488181.836,72.754,38.574,58.594,36.133,41.992,0
1492488181.840,70.312,37.598,56.641,28.809,31.250,0
1492488181.844,69.336,18.555,59.082,26.367,40.527,0
1492488181.848,71.289,8.301,56.641,29.785,57.617,0
1492488181.852,66.895,32.227,52.246,22.949,38.086,0
1492488181.856,46.875,62.500,44.434,12.207,25.879,0
1492488181.860,51.758,82.031,42.480,17.090,56.641,0
1492488181.864,60.547,89.844,51.758,20.508,55.664,0
1492488181.868,55.176,86.426,57.617,20.020,36.621,0
1492488181.871,55.176,64.941,56.641,28.809,8.301,0
1492488181.875,57.129,70.801,49.316,35.645,22.949,0
1492488181.879,52.246,60.547,49.805,26.367,27.832,0
1492488181.883,48.340,41.504,47.852,16.602,20.020,0
1492488181.887,60.547,61.523,41.016,24.902,35.156,0
1492488181.891,66.406,58.594,36.621,34.668,38.086,0
1492488181.895,62.500,51.758,48.828,36.621,21.484,0
1492488181.899,58.594,45.410,53.711,22.461,37.109,0
1492488181.903,53.711,56.152,36.621,14.160,58.594,0
1492488181.907,58.594,66.406,30.762,26.855,52.246,0
1492488181.911,69.336,58.594,36.621,38.086,50.781,0
1492488181.914,66.406,53.223,50.781,39.062,5.859,0
1492488181.918,45.410,52.246,43.945,27.344,-8.789,0
1492488181.922,39.062,47.852,29.297,27.344,38.574,0
1492488181.926,53.711,28.320,37.598,24.414,35.156,0
1492488181.930,56.641,13.672,40.039,11.719,30.273,0
1492488181.934,62.500,31.250,32.227,17.578,30.762,0
1492488181.938,62.500,29.297,34.668,17.578,38.086,0
1492488181.942,49.805,27.832,32.227,8.789,49.805,0
1492488181.946,33.691,90.332,27.344,3.906,21.973,0
1492488181.950,23.438,116.699,29.785,-2.930,48.828,0
1492488181.954,25.391,98.145,24.414,-5.859,48.340,0
1492488181.957,29.785,81.543,15.137,-13.184,0.488,0
1492488181.961,42.480,56.641,15.625,-18.066,13.672,0
1492488181.965,58.105,29.785,15.625,-9.277,41.504,0
1492488181.969,51.758,25.391,26.367,-4.395,46.387,0
1492488181.973,46.387,17.578,32.227,-10.742,30.273,0
1492488181.977,49.316,36.621,14.648,-18.555,12.207,0
1492488181.981,46.875,62.988,8.301,-16.602,31.738,0
1492488181.985,50.781,63.477,25.879,-2.930,37.598,0
1492488181.989,42.480,61.523,35.645,11.719,43.457,0
1492488181.993,28.320,32.227,27.344,20.996,52.734,0
1492488181.996,23.438,29.785,21.973,24.902,52.734,0
1492488182.000,25.391,31.250,24.902,32.715,29.785,0
1492488182.004,34.180,24.902,30.273,45.410,9.277,0
1492488182.008,36.621,9.766,36.621,47.363,18.066,0
1492488182.012,25.391,34.180,27.344,25.879,40.527,0
1492488182.016,30.762,68.359,19.043,5.859,17.090,0
1492488182.020,45.410,41.504,27.344,7.812,24.902,0
1492488182.024,41.992,29.785,27.344,9.766,52.246,0
1492488182.028,41.016,39.062,20.020,5.859,33.691,0
1492488182.032,54.199,47.852,32.715,15.625,34.180,0
1492488182.036,62.988,31.250,48.828,30.273,38.574,0
1492488182.039,66.895,-13.672,51.758,37.109,20.508,0
1492488182.043,61.035,-16.602,41.016,29.297,33.691,0
1492488182.047,45.898,-11.230,29.297,22.461,19.531,0
1492488182.051,34.180,-3.906,20.020,12.207,-20.508,0
1492488182.055,40.039,31.738,27.344,7.812,19.531,0
1492488182.059,47.852,28.320,27.832,13.672,51.758,0
1492488182.063,51.270,7.812,22.461,8.301,25.879,0
1492488182.067,58.105,6.348,28.809,8.301,19.531,0
1492488182.071,56.641,-10.742,37.598,19.043,46.387,0
1492488182.075,48.340,-19.531,37.109,27.344,57.129,0
1492488182.079,47.852,-21.973,30.273,22.461,43.945,0
1492488182.082,64.941,-32.715,34.180,32.227,31.250,0
1492488182.086,63.965,-39.062,30.273,40.039,27.344,0
1492488182.090,55.176,-42.969,28.809,42.480,56.152,0
1492488182.094,61.035,-49.316,44.434,38.574,52.734,0
1492488182.098,44.434,-38.086,32.715,20.020,24.902,0
1492488182.102,41.016,-6.836,19.043,15.625,31.250,0
1492488182.106,46.387,9.277,31.250,24.414,31.250,0
1492488182.110,49.805,26.367,35.645,24.902,-5.371,0
1492488182.114,65.918,-20.020,33.203,29.785,0.000,0
1492488182.118,63.965,-42.969,31.738,32.227,17.090,0
1492488182.121,44.922,20.020,25.879,27.832,33.203,0
1492488182.125,43.457,49.805,23.926,23.438,43.457,0
1492488182.129,51.758,43.945,26.855,21.484,41.016,0
1492488182.133,51.758,28.809,30.273,22.461,62.500,0
1492488182.137,39.062,23.926,30.273,21.484,53.223,0
1492488182.141,38.086,15.137,27.832,23.926,25.879,0
1492488182.145,50.293,3.906,31.250,23.438,33.691,0
1492488182.149,45.898,6.348,36.621,22.461,56.641,0
1492488182.153,38.086,-18.066,31.738,23.926,27.832,0
1492488182.157,39.551,-36.133,28.809,25.391,-3.418,0
1492488182.161,37.109,21.484,32.227,23.926,26.855,0
1492488182.164,41.992,45.898,31.738,27.832,27.344,0
1492488182.168,40.039,38.086,26.855,21.484,14.648,0
1492488182.172,35.645,44.434,20.508,11.230,26.367,0
1492488182.176,48.340,57.129,19.531,15.137,25.391,0
1492488182.180,59.570,73.730,31.250,19.531,32.715,0
1492488182.184,60.059,57.617,36.133,24.414,39.062,0
1492488182.188,55.664,32.715,37.109,31.250,9.277,0
1492488182.192,57.129,26.367,43.945,23.926,7.812,0
1492488182.196,62.500,10.742,52.246,27.832,16.602,0
1492488182.200,66.406,19.531,52.246,27.344,-4.395,0
1492488182.204,65.430,65.918,40.527,20.508,4.883,0
1492488182.207,72.754,73.730,36.621,20.996,20.020,0
1492488182.211,78.613,30.273,39.062,28.320,6.348,0
1492488182.215,62.988,27.832,38.086,35.156,0.977,0
1492488182.219,61.523,55.664,33.691,29.785,20.020,0
1492488182.223,76.660,52.246,32.227,23.926,17.090,0
1492488182.227,76.172,24.902,37.109,20.508,19.043,1
1492488182.231,67.383,38.086,31.738,17.090,8.301,0
1492488182.235,66.895,66.895,26.367,23.438,0.977,0
1492488182.239,71.289,62.012,34.668,35.645,20.996,0
1492488182.243,70.801,44.434,24.902,23.926,2.930,0
1492488182.246,69.336,25.391,10.254,20.996,-14.648,0
1492488182.250,70.312,34.180,20.020,36.133,1.953,0
1492488182.254,67.871,43.945,30.762,21.484,7.324,0
1492488182.258,66.895,25.879,26.367,8.789,1.953,0
1492488182.262,72.266,14.160,26.367,20.996,-25.879,0
1492488182.266,68.848,51.758,26.855,20.996,-8.301,0
1492488182.270,61.035,57.617,23.926,20.996,26.367,0
1492488182.274,65.430,22.949,31.250,29.297,29.785,0
1492488182.278,63.965,32.227,32.227,32.227,31.738,0
1492488182.282,52.734,55.176,15.137,29.297,25.391,0
1492488182.286,56.152,61.035,9.766,18.066,22.949,0
1492488182.289,68.359,49.316,21.973,20.508,-28.809,0
1492488182.293,67.383,46.387,26.855,25.879,-41.992,0
1492488182.297,62.988,62.988,31.250,28.320,0.000,0
1492488182.301,69.824,60.547,41.992,36.133,-28.809,0
1492488182.305,64.941,34.668,38.574,32.227,-31.738,0
1492488182.309,53.223,19.531,19.531,20.996,0.488,0
1492488182.313,56.641,43.457,11.230,18.066,9.277,0
1492488182.317,66.406,65.918,30.762,31.738,3.906,0
1492488182.321,62.500,64.453,40.527,33.691,-13.672,0
1492488182.325,45.898,57.617,25.879,31.738,-10.254,0
1492488182.329,47.363,40.039,26.855,30.762,-17.578,0
1492488182.332,51.270,46.875,33.691,13.672,-28.809,0
1492488182.336,56.152,61.523,35.156,12.695,-51.758,0
1492488182.340,67.383,47.363,35.156,15.625,-35.156,0
1492488182.344,57.129,28.320,22.949,5.859,1.465,0
1492488182.348,49.805,32.227,21.484,15.625,9.277,0
1492488182.352,51.758,37.598,21.484,27.832,0.000,0
1492488182.356,54.688,34.668,16.602,20.508,-20.996,0
1492488182.360,55.176,18.066,24.902,28.320,-0.977,0
1492488182.364,65.430,14.648,37.598,44.434,0.488,0
1492488182.368,68.359,7.812,29.785,40.527,-2.930,0
1492488182.371,60.059,-12.695,18.066,31.250,9.277,0
1492488182.375,58.594,-6.348,29.297,35.156,-1.953,0
1492488182.379,48.828,2.930,29.785,28.809,-12.207,0
1492488182.383,55.176,3.906,20.020,20.508,-11.719,0
1492488182.387,63.477,28.809,14.648,24.902,-0.977,0
1492488182.391,58.105,61.035,23.438,20.508,4.395,0
1492488182.395,55.176,53.711,24.414,21.973,31.250,0
1492488182.399,51.270,30.762,21.484,26.855,25.391,0
1492488182.403,61.035,35.156,26.367,31.738,-7.812,0
1492488182.407,64.941,50.781,28.809,41.504,-13.672,0
1492488182.411,57.129,37.598,32.227,39.062,-13.672,0
1492488182.414,58.105,28.320,26.855,21.484,-9.277,0
1492488182.418,56.641,19.531,25.879,20.508,-2.930,0
1492488182.422,64.453,27.832,33.203,35.156,-17.090,0
1492488182.426,66.406,66.406,39.551,40.039,-35.645,0
1492488182.430,54.688,64.941,38.086,42.480,-22.949,0
1492488182.434,53.223,42.480,39.551,36.621,19.043,0
1492488182.438,69.824,38.574,44.434,36.621,12.207,0
1492488182.442,73.730,43.457,48.340,43.457,-32.715,0
1492488182.446,70.801,51.758,47.363,46.387,17.090,0
1492488182.450,67.871,70.801,41.992,45.410,29.297,0
1492488182.454,60.059,48.828,36.621,40.527,6.348,0
1492488182.457,63.965,18.066,37.109,32.227,7.324,0
1492488182.461,76.660,20.508,43.457,28.809,19.531,0
1492488182.465,63.477,18.066,48.828,31.250,24.414,0
1492488182.469,57.129,30.273,49.316,37.109,-5.859,0
1492488182.473,75.684,-10.254,37.598,44.434,-20.020,0
1492488182.477,64.941,-35.645,39.062,42.480,27.832,0
1492488182.481,69.336,1.953,45.410,36.621,39.062,0
1492488182.485,77.637,-8.301,42.969,39.062,-9.277,0
1492488182.489,71.289,-38.086,37.598,44.922,-3.906,0
1492488182.493,69.824,-50.781,31.738,46.387,44.922,0
1492488182.496,62.988,-46.387,39.062,49.805,12.695,0
1492488182.500,66.406,-31.738,41.016,41.016,-26.855,0
1492488182.504,78.125,-25.391,50.781,38.086,-11.230,0
1492488182.508,88.379,-55.176,65.918,48.828,12.207,0
1492488182.512,84.961,-58.105,51.758,47.363,-3.906,0
1492488182.516,77.148,-74.219,23.438,35.645,-11.230,0
1492488182.520,75.195,-112.305,30.273,38.086,6.348,0
1492488182.524,70.801,-100.098,41.504,43.945,16.602,0
1492488182.528,66.895,-69.824,36.133,44.922,-5.371,0
1492488182.532,60.059,-51.270,35.156,46.387,17.578,0
1492488182.536,59.570,-98.633,33.691,35.645,42.480,0
1492488182.539,62.500,-149.414,30.762,31.738,28.320,0
1492488182.543,64.941,-213.379,28.320,44.434,5.371,0
1492488182.547,61.035,-337.402,22.461,36.133,-15.137,0
1492488182.551,62.988,-463.379,34.668,33.203,7.812,0
1492488182.555,76.172,-587.891,46.875,47.852,20.508,0
1492488182.559,82.031,-666.992,49.316,57.129,-2.441,0
1492488182.563,69.824,-666.992,40.039,49.316,-22.461,0
1492488182.567,69.824,-686.523,34.180,39.551,2.441,0
1492488182.571,76.172,-716.309,38.574,41.992,22.949,0
1492488182.575,76.172,-679.688,39.062,43.945,-25.879,0
1492488182.579,77.148,-675.781,31.738,41.992,-36.621,0
1492488182.582,75.195,-713.867,24.902,26.367,-7.812,0
1492488182.586,81.055,-696.777,40.039,25.879,4.395,0
1492488182.590,77.148,-630.371,50.781,31.250,17.090,0
1492488182.594,63.477,-617.676,39.062,29.785,10.742,0
1492488182.598,68.359,-641.602,37.109,32.227,-3.418,0
1492488182.602,79.102,-620.605,42.969,29.785,-14.648,0
1492488182.606,80.078,-597.168,46.387,31.250,2.930,0
1492488182.610,83.496,-590.332,46.387,36.621,6.348,0
1492488182.614,80.078,-581.543,49.805,31.250,21.484,0
1492488182.618,71.289,-558.105,51.270,26.367,9.277,0
1492488182.621,68.848,-531.250,47.363,26.367,-30.762,0
1492488182.625,55.176,-498.535,39.062,22.461,3.418,0
1492488182.629,75.195,-462.402,41.992,31.738,33.203,0
1492488182.633,85.449,-439.941,46.875,35.645,22.949,0
1492488182.637,71.777,-443.359,43.457,34.180,-5.371,0
1492488182.641,76.172,-460.938,45.410,42.969,25.879,0
1492488182.645,81.543,-430.664,44.922,49.805,34.180,0
1492488182.649,85.449,-393.555,35.156,48.828,11.230,0
1492488182.653,88.867,-396.484,28.809,46.875,18.555,0
1492488182.657,95.215,-401.367,38.574,45.410,12.207,0
1492488182.661,107.422,-386.230,51.270,52.734,-2.930,0
1492488182.664,98.145,-363.770,58.105,54.688,-33.691,0
1492488182.668,85.938,-338.867,56.641,59.570,-17.578,0
1492488182.672,86.426,-340.332,44.434,61.523,45.898,0
1492488182.676,74.707,-345.703,34.668,51.758,29.297,0
1492488182.680,68.848,-327.148,33.691,41.016,-1.465,0
1492488182.684,71.777,-334.473,28.320,29.297,15.137,0
1492488182.688,78.613,-363.770,28.320,37.598,3.906,0
1492488182.692,79.102,-394.043,41.504,50.781,-24.414,0
1492488182.696,74.219,-371.094,49.316,56.641,-23.438,0
1492488182.700,73.730,-352.051,40.527,46.387,-15.625,0
1492488182.704,73.730,-361.328,39.551,32.227,-9.277,0
1492488182.707,54.688,-322.266,34.180,26.855,-6.836,0
1492488182.711,59.082,-331.543,23.438,34.668,-18.066,0
1492488182.715,64.453,-333.008,20.996,33.203,-12.695,0
1492488182.719,49.805,-285.156,31.250,18.555,-14.160,0
1492488182.723,57.617,-308.105,44.434,29.785,-26.855,0
1492488182.727,72.266,-332.031,41.016,27.832,-31.250,0
1492488182.731,68.848,-302.246,25.391,6.348,0.977,0
1492488182.735,62.988,-278.320,18.066,11.230,27.344,0
1492488182.739,75.684,-278.809,38.086,24.414,0.977,0
1492488182.743,87.402,-288.086,43.945,19.043,-34.180,0
1492488182.746,88.379,-282.715,30.273,11.230,-18.066,0
1492488182.750,81.055,-258.301,23.438,11.230,-18.066,0
1492488182.754,72.266,-241.699,23.926,10.254,-46.387,0
1492488182.758,69.336,-239.258,23.926,14.648,-36.133,0
1492488182.762,67.383,-238.770,35.645,35.645,-1.465,0
1492488182.766,64.453,-218.262,42.480,48.828,-19.531,0
1492488182.770,58.594,-188.477,43.457,54.199,-34.180,0
1492488182.774,47.363,-172.363,44.434,59.082,-27.344,0
1492488182.778,61.523,-197.266,43.945,72.266,-12.207,0
1492488182.782,75.195,-218.262,45.410,82.031,-14.160,0
1492488182.786,71.777,-225.586,51.270,68.359,-28.320,0
1492488182.789,65.430,-252.930,48.340,57.617,-7.812,0
1492488182.793,66.406,-227.051,44.922,51.270,10.742,0
1492488182.797,72.754,-190.430,54.688,43.945,0.488,0
1492488182.801,73.242,-177.246,49.805,51.270,-18.555,0
1492488182.805,73.730,-169.922,42.969,60.059,0.488,0
1492488182.809,73.730,-175.293,48.340,54.688,26.367,0
1492488182.813,69.824,-154.297,49.805,51.270,36.133,0
1492488182.817,70.312,-132.324,38.574,49.805,24.902,0
1492488182.821,77.637,-134.766,42.480,50.781,13.672,0
1492488182.825,80.566,-145.508,53.223,54.688,12.695,0
1492488182.829,83.984,-167.969,50.293,56.641,-0.488,0
1492488182.832,90.820,-178.223,56.152,65.430,-5.859,0
1492488182.836,87.402,-156.250,65.918,65.430,10.742,0
1492488182.840,71.777,-124.512,63.965,48.340,25.391,0
1492488182.844,66.406,-117.676,55.176,28.809,4.395,0
1492488182.848,72.754,-114.258,53.711,38.086,-8.789,0
1492488182.852,56.641,-83.984,47.363,39.062,25.879,0
1492488182.856,53.711,-83.008,48.340,29.785,21.973,0
1492488182.860,62.500,-110.352,56.641,38.086,5.859,0
1492488182.864,55.664,-141.602,52.734,26.855,19.043,0
1492488182.868,58.594,-149.902,47.363,20.020,26.367,0
1492488182.871,67.383,-144.043,46.875,44.922,17.578,0
1492488182.875,62.012,-132.324,45.410,47.852,-3.906,0
1492488182.879,48.828,-94.238,41.992,34.180,2.441,0
1492488182.883,35.645,-65.430,41.504,33.691,15.137,0
1492488182.887,39.062,-88.379,47.363,37.598,5.859,0
1492488182.891,63.477,-156.250,49.316,53.223,4.883,0
1492488182.895,83.984,-199.707,58.105,76.172,-11.719,0
1492488182.899,86.914,-138.672,62.988,73.242,-12.207,0
1492488182.903,87.891,-56.152,92.773,68.359,-23.926,0
1492488182.907,105.469,-35.156,143.066,82.031,-20.020,0
1492488182.911,126.953,-26.367,153.320,97.168,18.555,0
1492488182.914,134.766,-27.832,159.668,117.676,8.789,0
1492488182.918,134.277,-60.547,165.527,126.465,4.883,0
1492488182.922,153.809,-62.988,167.969,137.695,13.672,0
1492488182.926,175.293,-41.504,170.898,154.785,21.973,0
1492488182.930,184.570,-41.016,179.688,160.645,2.441,0
1492488182.934,192.383,-28.320,182.129,157.715,-21.484,0
1492488182.938,181.152,-4.883,167.969,146.973,-17.578,0
1492488182.942,157.227,49.316,156.738,125.977,0.977,0
1492488182.946,156.738,45.410,149.414,114.258,8.789,0
1492488182.950,166.016,-5.859,150.391,129.395,-20.996,0
1492488182.954,172.363,-48.828,155.273,138.184,-28.320,0
1492488182.957,171.387,-72.266,145.020,125.000,2.930,0
1492488182.961,156.250,-35.156,133.301,115.234,2.441,0
1492488182.965,145.996,-0.977,129.395,112.305,-5.859,0
1492488182.969,138.672,-20.508,129.395,103.516,-13.184,0
1492488182.973,145.508,-59.570,136.719,108.398,11.230,0
1492488182.977,143.066,-77.637,138.672,104.980,4.395,0
1492488182.981,126.953,-41.992,127.930,85.449,-6.836,0
1492488182.985,109.375,6.348,125.488,73.242,-16.602,0
1492488182.989,103.516,-28.320,120.605,78.125,-3.906,0
1492488182.993,103.027,-43.945,123.535,86.426,-6.836,0
1492488182.996,93.750,-6.348,183.594,83.008,-22.461,0
1492488183.000,102.051,-2.930,230.469,92.285,8.301,0
1492488183.004,102.539,-25.879,228.516,88.867,-0.488,0
1492488183.008,100.098,-41.504,222.656,82.520,-7.324,0
1492488183.012,99.121,-59.570,214.355,83.496,-12.695,0
1492488183.016,101.074,-59.082,200.684,77.148,-20.508,0
1492488183.020,105.957,-78.613,180.664,77.637,1.953,0
1492488183.024,101.074,-81.543,170.898,84.961,-13.184,0
1492488183.028,98.145,-53.711,174.805,80.566,-48.828,0
1492488183.032,99.121,-33.691,169.434,77.148,-52.246,0
1492488183.036,91.309,-16.602,154.785,76.172,-50.781,0
1492488183.039,102.539,-32.227,148.926,88.379,-67.871,0
1492488183.043,116.699,-44.434,144.531,94.238,-51.270,0
1492488183.047,109.375,-44.922,141.602,90.332,-25.879,0
1492488183.051,106.445,-60.059,151.855,94.727,-51.270,0
1492488183.055,102.539,-82.031,145.508,94.238,-70.801,0
1492488183.059,97.656,-54.688,141.602,90.820,-90.332,0
1492488183.063,96.191,-44.922,139.648,88.379,-96.191,0
1492488183.067,93.262,-66.895,134.766,82.520,-92.285,0
1492488183.071,92.285,-70.312,149.902,78.125,-80.078,0
1492488183.075,104.004,-73.730,176.758,88.867,-62.988,0
1492488183.079,92.285,-41.016,167.480,78.125,-53.711,0
1492488183.082,87.402,-37.598,190.918,71.777,-67.383,0
1492488183.086,97.656,-71.777,249.512,83.984,-111.328,0
1492488183.090,76.660,-50.781,267.578,85.449,-79.590,0
1492488183.094,65.918,-4.395,269.043,77.148,-35.645,0
1492488183.098,84.473,13.184,256.348,68.848,-91.797,0
1492488183.102,83.984,-22.461,248.047,66.895,-93.750,0
1492488183.106,80.078,-39.062,251.953,64.941,-59.082,0
1492488183.110,99.121,-37.598,253.418,72.754,-77.637,0
1492488183.114,98.145,-80.566,249.023,69.824,-30.273,0
1492488183.118,83.984,-102.051,242.188,68.359,-5.371,0
1492488183.121,80.078,-75.195,225.098,63.477,-12.695,0
1492488183.125,68.848,-62.012,217.773,51.758,-0.977,0
1492488183.129,62.500,-70.312,220.703,54.199,-38.574,0
1492488183.133,81.543,-95.703,225.586,59.570,-46.875,0
1492488183.137,80.078,-76.172,217.773,57.617,7.812,0
1492488183.141,62.988,-24.414,246.582,47.852,2.441,0
1492488183.145,61.035,-20.508,318.359,51.758,-24.414,0
1492488183.149,66.406,-44.434,354.980,55.176,-35.156,0
1492488183.153,66.406,-75.684,376.465,56.152,-40.039,0
1492488183.157,65.430,-100.098,382.812,55.176,-25.879,0
1492488183.161,66.406,-91.797,395.020,51.270,-23.926,0
1492488183.164,68.848,-49.316,416.504,55.664,-15.625,0
1492488183.168,67.383,-40.039,469.727,59.570,3.418,0
1492488183.172,71.777,-41.016,503.418,57.617,-42.969,0
1492488183.176,77.148,-41.992,488.770,61.035,-52.734,0
1492488183.180,71.289,-47.363,481.934,67.871,-16.602,0
1492488183.184,83.984,-53.223,479.004,74.707,-1.953,0
1492488183.188,96.191,-46.875,475.586,75.684,-14.648,0
1492488183.192,93.750,-57.129,472.168,74.219,-28.320,0
1492488183.196,85.938,-61.523,474.121,66.406,-21.973,0
1492488183.200,74.707,-46.875,479.980,57.617,-20.508,0
1492488183.204,72.754,-32.715,479.492,57.617,-32.715,0
1492488183.207,81.055,-34.668,481.445,58.594,3.906,0
1492488183.211,82.520,-46.387,479.492,59.570,17.578,0
1492488183.215,86.426,-40.039,467.773,64.453,-8.301,0
1492488183.219,102.539,-51.270,457.520,71.289,-21.973,0
1492488183.223,103.027,-43.945,457.520,64.941,-22.461,0
1492488183.227,88.379,-17.090,446.777,57.129,-20.996,0
1492488183.231,81.543,-7.812,430.176,52.734,-32.715,0
1492488183.235,80.566,-10.742,420.898,48.340,-100.098,0
1492488183.239,83.984,-18.555,407.715,42.480,-112.793,0
1492488183.243,82.031,-27.832,393.555,39.062,-85.449,0
1492488183.246,83.496,-13.672,377.930,40.527,-111.328,0
1492488183.250,85.449,-26.367,373.535,41.504,-113.281,0
1492488183.254,95.703,-62.988,365.234,35.156,-88.379,0
1492488183.258,94.238,-20.996,339.844,28.320,-115.234,0
1492488183.262,81.543,35.645,337.402,30.762,-148.926,0
1492488183.266,87.891,22.949,338.867,48.828,-148.926,0
1492488183.270,82.520,-10.254,311.035,41.504,-150.391,0
1492488183.274,81.543,6.836,306.152,30.273,-121.094,0
1492488183.278,87.402,2.441,299.805,32.715,-135.742,0
1492488183.282,77.148,-36.621,272.461,16.602,-157.715,0
1492488183.286,82.031,-10.742,258.301,17.578,-91.797,0
1492488183.289,81.055,2.441,256.836,25.391,-79.590,0
1492488183.293,76.172,-34.180,261.719,19.043,-92.285,0
1492488183.297,78.125,-38.574,253.906,24.414,-79.590,0
1492488183.301,79.590,-22.949,235.352,29.785,-66.895,0
1492488183.305,93.750,-34.180,233.887,36.133,-79.590,0
1492488183.309,100.586,-38.086,228.516,40.039,-79.102,0
1492488183.313,98.145,-36.621,207.031,33.203,-51.270,0
1492488183.317,88.379,-26.855,205.566,25.879,-55.176,0
1492488183.321,94.727,4.883,218.262,40.039,-69.336,0
1492488183.325,120.117,-9.277,229.492,70.801,-112.793,0
1492488183.329,127.930,-45.410,241.211,80.078,-103.027,0
1492488183.332,126.465,-31.250,240.234,75.195,-84.473,0
1492488183.336,131.836,-12.207,223.633,74.707,-93.750,0
1492488183.340,136.230,-49.805,213.379,83.496,-102.051,0
1492488183.344,133.301,-85.449,215.820,84.961,-93.750,0
1492488183.348,131.348,-37.109,216.309,83.496,-101.562,0
1492488183.352,120.117,-9.766,198.730,75.195,-130.859,0
1492488183.356,116.699,-24.902,180.176,66.895,-123.047,0
1492488183.360,118.164,-36.621,168.457,60.547,-126.953,0
1492488183.364,109.375,-31.738,157.715,62.988,-99.121,0
1492488183.368,104.004,-27.832,156.250,70.312,-82.520,0
1492488183.371,104.004,-38.574,158.203,68.359,-110.840,0
1492488183.375,104.004,-49.316,152.832,64.453,-78.613,0
1492488183.379,97.656,-80.566,153.320,67.871,-28.809,0
1492488183.383,96.191,-73.730,143.066,62.500,-29.297,0
1492488183.387,103.027,-48.828,140.137,52.734,-46.387,0
1492488183.391,103.027,-74.219,145.508,59.082,-28.320,0
1492488183.395,95.703,-79.102,140.625,62.988,-20.996,0
1492488183.399,98.145,-61.035,138.672,54.199,-55.664,0
1492488183.403,92.285,-53.223,137.207,53.711,-77.637,0
1492488183.407,89.355,-65.918,129.395,62.988,-67.383,0
1492488183.411,91.797,-79.102,128.418,63.477,-38.574,0
1492488183.414,89.844,-73.730,122.559,60.059,-88.867,0
1492488183.418,93.750,-95.703,108.887,65.430,-76.172,0
1492488183.422,83.984,-88.379,104.004,55.176,-23.438,0
1492488183.426,65.430,-40.039,96.680,38.086,-54.199,0
1492488183.430,62.988,-38.086,96.191,34.180,-50.293,0
1492488183.434,60.059,-59.570,94.238,27.832,-14.648,0
1492488183.438,59.082,-70.801,108.887,38.574,8.789,0
1492488183.442,67.871,-89.355,126.465,56.152,-16.113,0
1492488183.446,73.730,-104.004,111.816,54.199,-10.254,0
1492488183.450,61.523,-95.703,86.914,45.410,5.371,0
1492488183.454,60.547,-141.602,80.566,52.246,5.859,0
1492488183.457,65.918,-165.039,93.262,53.223,-11.719,0
1492488183.461,60.059,-131.836,88.379,46.875,-54.199,0
1492488183.465,68.359,-113.770,86.914,49.805,-25.879,0
1492488183.469,74.707,-92.285,93.262,57.617,-10.254,0
1492488183.473,67.871,-82.031,90.332,57.617,-26.855,0
1492488183.477,71.289,-113.281,71.777,53.223,-11.719,0
1492488183.481,86.914,-174.316,69.824,68.359,-18.555,0
1492488183.485,85.938,-130.371,82.031,76.172,-22.949,2
1492488183.489,85.449,-69.336,91.797,80.078,-47.363,0
1492488183.493,88.379,-74.219,108.398,78.613,-47.852,0
1492488183.496,95.215,-58.594,99.609,70.801,-21.484,0
1492488183.500,105.957,-69.336,90.332,65.918,-33.203,0
1492488183.504,104.492,-60.547,97.168,57.617,-68.848,0
1492488183.508,101.562,-24.414,89.355,46.875,-62.988,0
1492488183.512,108.887,-37.598,82.520,55.176,-1.465,0
1492488183.516,123.047,-54.688,85.938,60.059,-4.883,0
1492488183.520,126.465,-61.035,83.984,57.129,-30.762,0
1492488183.524,123.535,-70.801,96.680,63.477,-8.789,0
1492488183.528,109.375,-56.641,81.055,60.059,-17.090,0
1492488183.532,95.703,-40.527,72.754,65.918,-34.180,0
1492488183.536,87.891,-67.383,96.680,86.426,-34.668,0
1492488183.539,93.750,-95.215,102.539,100.586,-16.602,0
1492488183.543,95.215,-37.598,98.633,103.516,-5.371,0
1492488183.547,96.191,-46.875,91.797,103.027,-11.719,0
1492488183.551,84.473,-71.777,90.332,90.332,-17.578,0
1492488183.555,76.660,-25.391,76.172,82.520,3.906,0
1492488183.559,89.355,-62.500,70.312,88.867,36.621,0
1492488183.563,74.219,-55.176,62.988,73.730,4.395,0
1492488183.567,65.918,0.488,71.777,68.359,-22.461,0
1492488183.571,73.730,-21.973,90.820,69.824,3.418,0
1492488183.575,83.496,-51.270,92.285,67.871,16.113,0
1492488183.579,70.312,-44.922,78.613,56.152,49.316,0
1492488183.582,57.129,-31.250,73.730,55.664,59.570,0
1492488183.586,78.125,-53.223,118.164,76.172,40.039,0
1492488183.590,75.195,-95.703,128.906,73.730,16.113,0
1492488183.594,65.430,-86.914,108.398,64.453,-14.160,0
1492488183.598,71.777,-71.289,115.723,71.289,-18.066,0
1492488183.602,72.754,-53.711,108.887,64.453,6.348,0
1492488183.606,67.383,-5.859,107.910,55.176,7.324,0
1492488183.610,73.242,-18.555,102.539,66.895,4.395,0
1492488183.614,76.172,-55.664,89.355,83.496,34.180,0
1492488183.618,79.590,-81.543,97.656,92.285,45.410,0
1492488183.621,83.496,-108.398,105.957,90.332,22.461,0
1492488183.625,77.148,-68.848,107.910,90.820,2.441,0
1492488183.629,66.406,-14.160,84.961,86.426,25.391,0
1492488183.633,60.547,14.648,78.125,84.961,34.668,0
1492488183.637,83.008,-23.438,77.148,88.379,17.578,0
1492488183.641,89.844,-43.457,71.777,87.891,27.344,0
1492488183.645,72.266,-44.434,78.613,94.238,10.742,0
1492488183.649,74.707,-59.570,84.473,94.727,21.973,0
1492488183.653,76.172,-64.453,87.891,96.680,18.555,0
1492488183.657,77.148,-64.453,76.172,101.562,1.465,0
1492488183.661,89.355,-57.129,57.617,112.793,41.992,0
1492488183.664,85.938,-57.617,69.824,130.371,31.738,0
1492488183.668,80.078,-63.965,75.684,128.418,15.137,0
1492488183.672,80.078,-20.996,65.430,125.488,23.438,0
1492488183.676,87.402,4.395,78.125,141.113,18.555,0
1492488183.680,86.426,-44.434,85.449,146.973,15.137,0
1492488183.684,90.820,-88.867,85.938,162.109,6.836,0
1492488183.688,92.773,-66.895,66.406,159.180,0.000,0
1492488183.692,68.848,14.648,53.711,127.441,5.371,0
1492488183.696,62.012,36.621,46.875,110.840,0.488,0
1492488183.700,74.707,15.625,49.316,112.793,-31.250,0
1492488183.704,77.637,7.324,59.082,112.793,-23.438,0
1492488183.707,78.125,-18.555,60.547,120.605,13.672,0
1492488183.711,73.242,-63.477,49.805,144.043,17.578,0
1492488183.715,81.055,-80.566,49.316,154.297,19.043,0
1492488183.719,74.219,-79.102,62.988,141.113,14.648,0
1492488183.723,63.477,-52.246,30.273,124.512,26.367,0
1492488183.727,88.379,-26.367,22.461,129.883,26.855,0
1492488183.731,90.820,-28.809,55.176,136.719,20.508,0
1492488183.735,79.590,-36.133,35.645,132.324,28.320,0
1492488183.739,65.430,-20.996,13.672,107.422,27.832,0
1492488183.743,86.914,-2.930,24.902,116.699,20.996,0
1492488183.746,116.211,-64.453,34.668,130.859,6.348,0
1492488183.750,93.750,-56.641,40.039,107.422,17.578,0
1492488183.754,81.055,-9.277,43.457,109.863,49.316,0
1492488183.758,77.148,-0.977,42.480,103.027,55.664,0
1492488183.762,104.004,-23.438,32.715,97.168,17.578,0
1492488183.766,113.770,-25.391,33.691,121.094,-0.977,0
1492488183.770,94.238,-8.789,40.527,113.281,15.137,0
1492488183.774,104.980,-38.574,52.734,109.863,8.789,0
1492488183.778,115.723,-36.133,70.801,117.676,-2.930,0
1492488183.782,115.234,-45.898,56.152,104.004,8.789,0
1492488183.786,114.746,-34.668,63.477,112.305,11.230,0
1492488183.789,104.004,18.066,78.125,125.977,-13.184,0
1492488183.793,103.516,-7.324,70.801,116.211,-2.930,0
1492488183.797,108.887,-34.668,65.918,114.746,38.574,0
1492488183.801,102.539,-11.719,40.039,129.883,1.465,0
1492488183.805,98.145,27.344,28.809,123.535,-2.441,0
1492488183.809,84.473,42.480,53.711,127.441,23.926,0
1492488183.813,92.773,4.395,74.707,129.395,33.203,0
1492488183.817,108.887,-52.734,74.219,109.863,42.969,0
1492488183.821,98.633,-32.227,66.895,108.398,44.922,0
1492488183.825,96.680,-5.859,71.777,133.789,17.578,0
1492488183.829,101.074,-52.734,72.266,154.785,-12.695,0
1492488183.832,85.449,-52.246,74.219,155.273,-23.926,0
1492488183.836,51.758,92.285,41.016,125.977,-38.574,0
1492488183.840,73.730,53.223,21.973,118.164,-5.859,0
1492488183.844,69.336,4.883,26.855,118.164,46.875,0
1492488183.848,42.480,101.074,23.926,104.492,-12.695,0
1492488183.852,72.754,83.984,60.547,134.277,-24.902,0
1492488183.856,35.645,130.859,60.059,125.000,48.340,0
1492488183.860,34.180,126.465,44.434,112.793,18.066,0
1492488183.864,90.820,0.977,65.430,150.391,3.906,0
1492488183.868,62.012,91.309,43.945,137.695,30.762,0
1492488183.871,35.645,224.121,17.090,120.117,39.062,0
1492488183.875,52.246,244.141,28.809,135.742,38.086,0
1492488183.879,107.910,100.098,70.801,174.805,-11.719,0
1492488183.883,109.863,115.723,71.289,171.387,0.000,0
1492488183.887,43.457,521.973,23.926,113.770,36.133,0
1492488183.891,27.832,717.773,32.715,102.539,19.043,0
1492488183.895,29.785,737.305,59.570,102.539,13.184,0
1492488183.899,35.645,767.578,56.641,113.770,4.395,0
1492488183.903,48.340,708.008,48.340,136.230,19.043,0
1492488183.907,59.082,630.371,59.082,144.531,28.320,0
1492488183.911,75.684,555.664,73.730,162.109,6.348,0
1492488183.914,62.500,572.754,60.547,133.789,-1.465,0
1492488183.918,32.227,697.266,34.180,98.145,8.789,0
1492488183.922,27.344,724.121,40.039,91.797,2.441,0
1492488183.926,42.480,626.953,62.988,89.844,-11.719,0
1492488183.930,55.176,562.988,56.641,108.398,-0.488,0
1492488183.934,50.781,590.820,38.574,125.488,35.645,0
1492488183.938,64.941,516.113,28.320,138.184,36.133,0
1492488183.942,71.289,554.688,17.578,134.766,-12.695,0
1492488183.946,62.500,874.023,29.785,115.723,4.883,0
1492488183.950,55.176,-988.770,39.551,93.262,18.066,0
1492488183.954,56.641,990.234,43.945,98.633,0.977,0
1492488183.957,72.754,998.535,51.270,117.676,-4.883,0
1492488183.961,63.477,-1000.000,30.762,109.863,21.484,0
1492488183.965,84.473,999.512,23.926,120.605,41.504,0
1492488183.969,109.375,999.512,42.480,124.512,-9.277,0
1492488183.973,98.145,999.512,48.340,109.375,-34.668,0
1492488183.977,72.754,999.512,23.438,94.238,-27.344,0
1492488183.981,58.105,999.512,4.395,87.891,-32.715,0
1492488183.985,50.781,999.512,10.742,79.102,-71.777,3
1492488183.989,78.613,999.023,30.762,104.492,-92.773,0
1492488183.993,99.121,999.023,36.621,124.023,-54.199,0
1492488183.996,84.473,999.512,14.648,104.004,-55.664,0
1492488184.000,87.402,987.793,12.695,108.887,-55.664,0
1492488184.004,81.543,970.215,16.113,108.887,-35.156,0
1492488184.008,91.309,889.648,29.785,121.094,-29.297,0
1492488184.012,78.125,771.973,36.621,113.770,-20.996,0
1492488184.016,69.336,723.633,18.066,113.770,-34.668,0
1492488184.020,75.195,787.598,26.855,118.652,-19.531,0
1492488184.024,51.270,847.168,34.180,92.773,-6.348,0
1492488184.028,66.406,774.902,29.785,100.098,-39.551,0
1492488184.032,95.215,670.410,40.039,123.535,-44.434,0
1492488184.036,100.098,640.625,36.133,139.160,-16.602,0
1492488184.039,80.078,657.227,13.184,119.141,-30.762,0
1492488184.043,88.867,462.402,25.391,110.352,-27.832,0
1492488184.047,82.520,377.930,45.898,119.141,-10.254,0
1492488184.051,55.176,593.750,28.320,88.867,21.484,0
1492488184.055,76.660,521.484,34.180,104.980,46.875,0
1492488184.059,57.129,464.355,36.133,105.469,36.621,0
1492488184.063,50.293,545.898,32.715,90.332,-2.930,0
1492488184.067,80.078,487.305,46.387,109.375,8.789,0
1492488184.071,64.453,465.332,32.715,83.008,44.434,0
1492488184.075,48.828,498.535,26.855,65.918,-18.066,0
1492488184.079,52.734,520.996,31.738,78.613,-25.391,0
1492488184.082,93.262,341.797,48.340,94.727,33.691,0
1492488184.086,104.004,249.023,36.621,94.727,-0.488,0
1492488184.090,67.383,385.254,16.113,71.289,-22.461,0
1492488184.094,61.523,437.988,30.762,72.754,12.207,0
1492488184.098,76.660,361.328,40.527,90.820,32.227,0
1492488184.102,92.773,286.621,42.969,97.656,39.062,0
1492488184.106,68.359,411.133,9.766,73.242,22.461,0
1492488184.110,63.477,452.637,13.184,65.430,-0.488,0
1492488184.114,91.797,322.754,47.852,79.102,8.301,0
1492488184.118,106.934,199.219,53.711,103.027,23.926,0
1492488184.121,96.680,157.227,56.152,115.723,-17.578,0
1492488184.125,78.125,257.812,45.898,92.285,-11.230,0
1492488184.129,80.566,334.473,37.109,94.238,27.344,0
1492488184.133,105.957,212.402,52.246,111.816,21.484,0
1492488184.137,86.914,360.840,49.316,99.609,29.785,0
1492488184.141,82.520,649.414,38.086,97.168,42.480,0
1492488184.145,113.281,675.781,60.547,109.863,34.668,0
1492488184.149,81.543,791.992,45.898,95.703,20.508,0
1492488184.153,55.664,834.473,29.785,77.637,24.902,0
1492488184.157,70.312,711.914,38.086,85.938,34.668,0
1492488184.161,86.914,607.910,59.082,91.797,39.551,0
1492488184.164,69.824,560.547,69.336,82.031,13.672,0
1492488184.168,62.988,486.816,52.246,80.566,17.090,0
1492488184.172,75.195,733.887,47.852,100.586,29.785,0
1492488184.176,51.758,-980.957,44.434,83.008,15.137,0
1492488184.180,32.715,992.676,35.156,60.547,21.484,0
1492488184.184,34.668,994.629,37.109,54.199,30.273,0
1492488184.188,37.598,-999.512,45.898,47.363,33.691,0
1492488184.192,62.988,999.512,60.059,71.289,16.113,0
1492488184.196,50.293,999.512,30.273,68.359,3.418,0
1492488184.200,27.832,999.512,12.207,40.039,20.996,0
1492488184.204,61.523,999.512,60.547,51.270,50.293,0
1492488184.207,63.965,-1000.000,57.617,59.082,20.020,0
1492488184.211,37.598,996.094,15.137,43.457,-15.137,0
1492488184.215,29.297,-1000.000,16.113,29.785,22.461,0
1492488184.219,41.016,993.164,41.504,39.062,53.711,0
1492488184.223,54.199,852.051,41.016,47.852,45.410,0
1492488184.227,55.664,774.414,30.762,53.223,39.551,0
1492488184.231,49.805,741.211,31.738,54.688,74.219,0
1492488184.235,51.270,620.117,31.738,48.340,67.383,0
1492488184.239,63.965,538.086,21.484,61.523,53.223,0
1492488184.243,60.547,430.176,13.672,69.336,51.758,0
1492488184.246,62.012,424.316,37.109,62.988,54.688,0
1492488184.250,75.195,493.164,63.477,83.496,56.152,0
1492488184.254,64.453,545.410,55.176,74.707,21.973,0
1492488184.258,53.711,502.441,44.434,42.480,28.809,0
1492488184.262,42.969,479.492,38.086,48.340,73.242,0
1492488184.266,53.223,426.270,42.969,62.988,60.547,0
1492488184.270,69.336,423.828,28.320,29.297,25.391,0
1492488184.274,67.383,283.691,15.625,16.113,49.316,0
1492488184.278,70.312,38.086,10.742,22.461,43.457,0
1492488184.282,72.266,110.840,11.719,5.371,29.297,0
1492488184.286,98.633,99.121,35.156,15.625,77.637,0
1492488184.289,107.910,-47.363,39.551,17.090,65.430,0
1492488184.293,88.379,-86.426,33.203,25.391,34.180,0
1492488184.297,103.027,-65.918,54.199,54.199,42.969,0
1492488184.301,73.730,27.832,46.387,49.316,13.184,0
1492488184.305,21.484,187.012,8.789,14.648,33.691,0
1492488184.309,23.438,209.961,6.348,14.648,86.426,0
1492488184.313,28.320,167.969,10.254,23.438,35.645,0
1492488184.317,53.223,-134.277,36.133,56.641,-21.484,0
1492488184.321,83.984,-751.953,59.082,78.125,17.090,0
1492488184.325,70.801,-940.918,37.598,60.059,40.527,0
1492488184.329,42.480,-968.750,14.648,60.059,12.207,0
1492488184.332,32.715,-869.629,6.836,28.809,-7.324,0
1492488184.336,53.223,-738.281,10.254,37.109,4.883,0
1492488184.340,63.965,-858.398,33.691,72.754,33.691,0
1492488184.344,50.293,-814.453,30.762,39.551,29.297,0
1492488184.348,84.473,-801.270,12.695,38.574,26.855,0
1492488184.352,95.215,-881.836,15.137,64.453,25.391,0
1492488184.356,73.242,-760.742,22.949,62.988,30.762,0
1492488184.360,81.055,-674.316,26.855,70.312,43.457,0
1492488184.364,97.168,-722.168,32.227,71.289,36.133,0
1492488184.368,88.867,-614.258,33.691,58.105,43.945,0
1492488184.371,56.641,-501.465,31.738,47.852,14.648,0
1492488184.375,60.059,-535.156,29.297,46.387,8.789,0
1492488184.379,70.312,-544.434,24.902,51.758,34.668,0
1492488184.383,90.820,-565.430,41.016,83.984,48.828,0
1492488184.387,99.121,-571.289,51.270,93.262,81.055,0
1492488184.391,76.660,-487.793,43.457,72.754,53.711,0
1492488184.395,79.590,-491.699,41.992,76.172,33.203,0
1492488184.399,101.074,-523.926,60.547,100.098,44.922,0
1492488184.403,88.867,-390.625,74.707,98.633,7.324,0
1492488184.407,74.707,-324.707,68.359,90.332,-1.465,0
1492488184.411,75.684,-358.398,62.012,90.820,50.781,0
1492488184.414,61.035,-274.902,29.785,77.148,85.938,0
1492488184.418,63.477,-217.773,14.648,81.543,47.363,0
1492488184.422,84.473,-290.527,33.203,90.820,17.578,0
1492488184.426,97.168,-329.102,36.621,95.703,34.180,0
1492488184.430,90.332,-277.344,33.203,90.332,26.855,0
1492488184.434,73.730,-202.637,43.457,83.008,20.508,0
1492488184.438,72.754,-194.336,53.711,89.844,20.020,0
1492488184.442,82.520,-242.676,57.129,82.520,26.367,0
1492488184.446,94.238,-225.586,47.363,90.820,46.387,0
1492488184.450,92.773,-161.621,21.973,116.699,19.043,0
1492488184.454,91.797,-138.184,11.719,104.980,18.066,0
1492488184.457,105.957,-156.250,39.551,107.910,63.965,0
1492488184.461,104.004,-227.539,60.547,123.535,82.520,0
1492488184.465,91.309,-203.125,51.758,105.469,57.617,0
1492488184.469,74.219,-117.676,28.809,103.027,15.137,0
1492488184.473,70.801,-52.246,11.230,87.891,41.992,0
1492488184.477,91.309,-51.270,35.645,82.520,59.082,0
1492488184.481,109.863,-84.961,57.129,107.910,24.414,0
1492488184.485,122.559,-200.195,56.152,130.371,3.906,4
1492488184.489,90.332,-160.156,48.828,118.652,40.527,0
1492488184.493,61.523,33.203,44.922,102.539,3.906,0
1492488184.496,78.125,-35.156,38.574,111.816,-39.062,0
1492488184.500,62.012,-16.602,11.719,86.914,32.227,0
1492488184.504,61.035,-33.203,22.461,78.125,51.270,0
1492488184.508,100.586,-160.156,55.664,105.957,-2.930,0
1492488184.512,84.961,-52.734,52.734,87.891,-5.371,0
1492488184.516,61.523,12.695,40.527,64.453,28.320,0
1492488184.520,82.520,-32.715,48.340,84.473,26.855,0
1492488184.524,77.148,-30.273,46.875,93.750,6.836,0
1492488184.528,69.336,6.836,29.297,79.102,8.301,0
1492488184.532,72.266,10.254,19.531,46.387,31.250,0
1492488184.536,82.520,-23.926,41.016,60.547,36.133,0
1492488184.539,84.473,7.812,40.527,82.031,1.953,0
1492488184.543,75.684,19.531,27.344,52.246,22.461,0
1492488184.547,67.871,62.988,32.715,45.410,43.945,0
1492488184.551,100.098,-19.043,48.828,72.266,2.930,0
1492488184.555,105.957,-63.965,53.223,75.684,-14.160,0
1492488184.559,68.848,-4.883,38.574,69.336,9.277,0
1492488184.563,73.242,-11.719,32.227,56.641,38.086,0
1492488184.567,67.871,51.758,18.555,31.250,12.207,0
1492488184.571,72.754,64.941,13.184,26.855,12.695,0
1492488184.575,74.219,36.133,8.789,20.996,40.039,0
1492488184.579,60.547,35.156,19.043,23.438,21.484,0
1492488184.582,97.656,-91.797,67.383,77.637,3.418,0
1492488184.586,104.980,-194.824,59.570,76.172,-2.930,0
1492488184.590,72.754,-32.715,12.207,17.090,15.137,0
1492488184.594,61.035,37.109,10.742,19.531,36.133,0
1492488184.598,48.340,46.875,13.184,38.086,32.715,0
1492488184.602,43.457,85.449,4.883,-2.930,32.227,0
1492488184.606,50.293,62.988,3.906,-27.832,29.785,0
1492488184.610,59.570,-27.832,19.531,-6.348,33.691,0
1492488184.614,32.227,-142.090,16.602,-34.668,45.898,0
1492488184.618,27.832,-279.297,13.672,-64.941,34.180,0
1492488184.621,51.270,-470.703,22.461,-39.551,37.598,0
1492488184.625,71.777,-635.254,31.738,-12.695,57.129,0
1492488184.629,61.523,-667.480,36.621,-14.160,42.480,0
1492488184.633,20.996,-638.184,27.832,-35.645,26.855,0
1492488184.637,39.062,-715.332,15.137,-37.598,78.125,0
1492488184.641,46.875,-674.316,4.883,-39.062,77.637,0
1492488184.645,52.734,-677.246,26.855,-16.113,35.645,0
1492488184.649,65.918,-763.184,33.203,-11.230,30.762,0
1492488184.653,40.527,-677.734,20.508,-42.480,47.363,0
1492488184.657,45.410,-625.488,23.926,-53.711,42.480,0
1492488184.661,67.383,-704.590,33.691,-58.105,40.039,0
1492488184.664,74.219,-749.023,27.832,-47.852,51.758,0
1492488184.668,79.102,-706.543,18.555,-27.832,33.203,0
1492488184.672,80.078,-737.793,35.156,-34.180,14.160,0
1492488184.676,59.570,-713.379,37.109,-51.270,4.395,0
1492488184.680,41.504,-633.789,35.645,-46.387,21.484,0
1492488184.684,40.039,-478.516,16.602,-63.965,33.691,0
1492488184.688,31.738,-401.367,1.953,-93.750,18.555,0
1492488184.692,63.965,-554.688,34.668,-70.801,15.625,0
1492488184.696,98.633,-602.539,45.410,-27.344,22.949,0
1492488184.700,79.102,-525.879,23.926,-30.273,22.461,0
1492488184.704,89.355,-541.016,41.992,-31.250,33.691,0
1492488184.707,93.750,-599.121,62.988,-17.578,24.902,0
1492488184.711,63.477,-558.594,57.129,-14.648,42.480,0
1492488184.715,67.383,-373.047,46.387,-2.930,81.543,0
1492488184.719,64.941,-308.594,41.016,-19.043,69.824,0
1492488184.723,56.152,-307.617,30.762,-53.711,24.414,0
1492488184.727,91.309,-409.180,30.273,-12.695,5.371,0
1492488184.731,142.578,-615.234,80.566,60.547,46.387,0
1492488184.735,82.031,-411.621,55.664,-3.906,62.012,0
1492488184.739,35.156,-184.570,19.043,-62.988,25.391,0
1492488184.743,79.590,-325.684,47.363,-10.254,10.742,0
1492488184.746,90.332,-408.691,44.434,5.859,-0.977,0
1492488184.750,73.730,-292.969,30.762,-27.832,-5.859,0
1492488184.754,68.848,-238.770,36.133,-37.598,14.648,0
1492488184.758,54.688,-238.770,39.551,-32.715,16.113,0
1492488184.762,70.801,-270.996,59.570,-1.953,-14.160,0
1492488184.766,97.656,-394.531,76.172,36.621,9.277,0
1492488184.770,92.773,-325.195,52.246,10.254,21.973,0
1492488184.774,101.074,-263.672,59.570,-4.395,21.973,0
1492488184.778,82.520,-213.379,54.688,-8.789,23.438,0
1492488184.782,79.590,-261.719,43.945,3.906,-16.113,0
1492488184.786,95.215,-343.750,50.781,15.137,-4.395,0
1492488184.789,70.312,-240.234,22.461,-34.180,40.527,0
1492488184.793,58.105,-194.336,19.531,-28.320,29.297,0
1492488184.797,83.008,-188.477,38.086,15.625,20.508,0
1492488184.801,94.727,-231.445,37.109,1.953,33.691,0
1492488184.805,85.938,-272.461,39.551,-9.277,8.301,0
1492488184.809,96.191,-262.695,45.898,10.742,11.230,0
1492488184.813,73.730,-136.230,30.273,7.324,4.883,0
1492488184.817,83.984,-163.574,32.227,-6.836,4.883,0
1492488184.821,100.098,-247.070,33.691,-5.859,12.695,0
1492488184.825,67.383,-134.766,17.090,-3.418,-16.602,0
1492488184.829,100.586,-276.367,48.340,39.062,-16.113,0
1492488184.832,105.469,-292.969,58.594,30.273,36.133,0
1492488184.836,60.547,-116.699,30.762,-7.324,27.832,0
1492488184.840,65.918,-62.012,23.438,-10.254,29.785,0
1492488184.844,97.168,-124.512,41.016,10.742,50.293,0
1492488184.848,115.234,-201.660,52.246,41.016,51.270,0
1492488184.852,114.746,-186.523,52.734,42.969,13.184,0
1492488184.856,110.840,-182.129,47.363,43.945,2.441,0
1492488184.860,77.637,-30.762,20.020,17.090,44.922,0
1492488184.864,60.547,32.715,13.184,-12.695,37.598,0
1492488184.868,77.148,-77.637,32.715,0.977,-9.766,0
1492488184.871,92.285,-165.039,45.898,32.715,-4.395,0
1492488184.875,88.379,-198.730,41.992,53.711,20.020,0
1492488184.879,114.746,-236.328,50.293,61.035,20.508,0
1492488184.883,108.887,-131.348,49.805,56.152,18.066,0
1492488184.887,61.035,-16.602,40.527,19.043,4.395,0
1492488184.891,49.805,-45.898,29.297,-10.742,13.672,0
1492488184.895,66.895,-50.293,18.066,19.531,18.066,0
1492488184.899,115.723,-235.352,41.992,50.781,0.000,0
1492488184.903,112.793,-357.422,50.781,38.574,-2.441,0
1492488184.907,64.453,-118.652,27.832,-2.930,-0.488,0
1492488184.911,46.875,65.918,17.578,-2.930,23.926,0
1492488184.914,73.730,-3.418,33.691,34.668,18.555,0
1492488184.918,104.004,-260.742,53.711,51.758,-1.953,0
1492488184.922,68.359,-160.156,16.113,14.648,26.855,0
1492488184.926,49.316,49.805,-9.766,-2.930,41.504,0
1492488184.930,63.965,-21.973,7.324,11.230,31.738,0
1492488184.934,86.426,-57.617,17.090,19.043,28.320,0
1492488184.938,91.797,-118.164,31.738,31.738,37.109,0
1492488184.942,85.449,-129.395,37.109,27.344,8.789,0
1492488184.946,88.867,-116.699,25.879,14.648,19.531,0
1492488184.950,94.238,-132.324,27.344,40.039,58.594,0
1492488184.954,76.172,-89.844,27.344,55.176,18.066,0
1492488184.957,72.266,-79.102,31.250,36.621,-8.789,0
1492488184.961,107.422,-116.211,61.523,55.176,-20.996,0
1492488184.965,105.469,-130.371,64.453,75.684,0.488,0
1492488184.969,80.566,-34.180,41.504,53.223,37.109,0
1492488184.973,88.379,-3.418,42.969,27.344,-3.418,0
1492488184.977,86.426,-40.527,30.273,9.766,14.648,0
1492488184.981,79.590,-92.773,26.855,28.320,67.383,0
1492488184.985,82.031,-142.090,42.969,56.152,43.457,5
1492488184.989,70.801,-62.500,41.992,31.738,34.180,0
1492488184.993,61.523,14.648,27.344,7.324,34.180,0
1492488184.996,76.660,-40.527,25.879,22.461,68.848,0
1492488185.000,84.473,-147.949,41.016,35.156,39.062,0
1492488185.004,73.730,-119.141,36.133,24.414,-12.207,0
1492488185.008,60.547,-74.707,23.438,18.066,-4.883,0
1492488185.012,90.820,-236.328,40.527,41.016,29.297,0
1492488185.016,93.262,-201.660,45.898,38.574,43.945,0
1492488185.020,36.133,83.008,10.742,-9.766,40.039,0
1492488185.024,71.777,32.715,25.879,2.930,29.785,0
1492488185.028,120.605,-187.500,42.480,57.129,39.062,0
1492488185.032,88.379,-77.148,-4.883,14.648,25.879,0
1492488185.036,82.031,104.980,0.977,-28.809,-0.977,0
1492488185.039,99.121,47.363,36.133,-19.043,27.832,0
1492488185.043,95.215,-41.504,25.879,-0.977,47.852,0
1492488185.047,92.773,-76.172,28.809,34.668,14.648,0
1492488185.051,74.707,-61.523,31.250,38.574,-8.301,0
1492488185.055,67.383,-82.520,24.902,27.344,32.715,0
1492488185.059,62.012,-121.582,31.250,49.805,48.340,0
1492488185.063,52.734,-119.141,26.367,61.035,27.344,0
1492488185.067,41.992,-52.734,20.508,54.199,52.246,0
1492488185.071,38.086,-9.277,23.438,58.105,52.246,0
1492488185.075,50.293,-113.281,17.090,43.457,43.945,0
1492488185.079,57.617,-128.906,18.066,41.016,54.688,0
1492488185.082,51.270,-41.504,18.066,48.340,55.176,0
1492488185.086,35.645,-20.996,2.441,29.785,50.293,0
1492488185.090,58.105,-68.848,18.066,35.156,55.664,0
1492488185.094,85.449,-143.066,24.902,56.152,16.113,0
1492488185.098,57.129,-74.219,0.977,28.809,18.555,0
1492488185.102,51.758,-49.316,-5.371,9.277,80.566,0
1492488185.106,64.941,-107.422,6.348,22.461,61.523,0
1492488185.110,53.223,-41.992,15.137,23.438,29.297,0
1492488185.114,43.457,-36.133,16.113,23.926,58.105,0
1492488185.118,48.340,-41.016,17.090,31.250,71.777,0
1492488185.121,47.852,6.348,15.625,38.086,32.715,0
1492488185.125,42.480,-71.289,11.719,25.391,41.016,0
1492488185.129,62.500,-106.934,13.184,22.949,51.270,0
1492488185.133,79.590,-85.449,21.484,59.082,59.082,0
1492488185.137,74.707,-80.078,9.766,48.340,47.852,0
1492488185.141,60.547,-28.809,9.766,38.574,20.508,0
1492488185.145,52.246,-40.039,25.879,58.105,29.297,0
1492488185.149,67.871,-58.105,21.484,44.434,34.180,0
1492488185.153,70.312,4.395,23.438,34.180,34.668,0
1492488185.157,54.688,9.277,22.461,45.898,23.926,0
1492488185.161,57.617,-4.883,8.789,43.457,42.480,0
1492488185.164,58.594,-40.039,19.043,52.246,40.039,0
1492488185.168,69.824,-106.445,39.551,70.801,-10.742,0
1492488185.172,74.219,-68.848,34.668,57.617,-47.363,0
1492488185.176,51.270,-34.180,14.648,52.246,-51.758,0
1492488185.180,43.945,-34.180,14.648,55.664,-42.480,0
1492488185.184,60.547,-53.223,37.109,59.570,-33.691,0
1492488185.188,77.637,-110.352,44.922,98.633,-47.363,0
1492488185.192,80.566,-91.309,35.645,102.539,-72.266,0
1492488185.196,58.105,18.066,13.672,54.199,-80.078,0
1492488185.200,38.086,83.008,13.672,41.992,-97.656,0
1492488185.204,54.688,50.293,40.039,71.289,-112.305,0
1492488185.207,67.383,-17.578,50.293,82.520,-100.586,0
1492488185.211,53.711,-24.902,39.062,65.918,-123.047,0
1492488185.215,63.477,-64.941,40.527,59.082,-153.809,0
1492488185.219,72.266,-87.891,55.176,67.383,-152.832,0
1492488185.223,51.270,28.809,57.129,57.617,-158.203,0
1492488185.227,62.500,-0.488,62.012,69.824,-197.754,0
1492488185.231,66.406,21.484,45.410,59.570,-185.547,0
1492488185.235,48.340,65.430,44.434,42.969,-145.996,0
1492488185.239,55.664,18.066,56.152,68.359,-166.504,0
1492488185.243,56.641,65.918,52.246,76.172,-181.641,0
1492488185.246,49.316,50.293,47.363,63.477,-154.785,0
1492488185.250,53.711,-2.441,49.316,45.410,-129.395,0
1492488185.254,44.434,-22.949,62.012,51.270,-125.488,0
1492488185.258,38.086,18.066,57.129,56.152,-112.793,0
1492488185.262,36.133,4.883,41.504,43.457,-153.809,0
1492488185.266,36.621,-34.668,53.711,64.941,-153.320,0
1492488185.270,56.641,-48.828,55.664,78.125,-72.266,0
1492488185.274,68.848,-87.402,64.941,71.289,-71.777,0
1492488185.278,48.828,-112.305,80.566,64.453,-104.004,0
1492488185.282,14.160,-75.684,65.430,49.805,-52.734,0
1492488185.286,-8.301,-15.137,51.758,33.691,-37.109,0
1492488185.289,-10.254,-27.832,42.480,34.180,-74.707,0
1492488185.293,4.395,-59.570,49.805,17.578,9.277,0
1492488185.297,8.789,-61.035,61.523,1.465,46.387,0
1492488185.301,4.395,-75.195,59.082,24.414,-23.438,0
1492488185.305,15.137,-77.637,55.664,32.227,-39.551,0
1492488185.309,25.391,282.227,77.148,32.715,-13.184,0
1492488185.313,6.836,477.051,69.336,25.391,24.414,0
1492488185.317,-6.348,246.582,53.711,22.949,-42.969,0
1492488185.321,3.906,102.539,66.895,23.926,-38.574,0
1492488185.325,10.254,-20.996,76.172,16.113,9.766,0
1492488185.329,5.371,-155.273,77.637,19.531,-2.441,0
1492488185.332,-11.230,-178.711,77.637,26.367,1.953,0
1492488185.336,-23.438,-168.457,69.824,8.789,-23.438,0
1492488185.340,-22.949,-240.723,45.898,1.465,20.508,0
1492488185.344,-16.602,-244.629,54.688,13.184,52.734,0
1492488185.348,4.883,-247.559,87.891,6.348,84.961,0
1492488185.352,5.859,-252.441,70.312,-13.184,77.637,0
1492488185.356,-27.832,-159.668,53.711,-28.320,26.367,0
1492488185.360,-50.293,-60.547,60.059,-28.809,55.176,0
1492488185.364,-51.270,-25.391,70.312,-40.039,45.898,0
1492488185.368,-47.852,-144.043,67.871,-48.828,61.035,0
1492488185.371,-45.898,359.863,58.594,-46.387,32.715,0
1492488185.375,-22.949,-937.012,79.590,-28.320,32.715,0
1492488185.379,-8.789,858.887,83.496,-3.418,49.316,0
1492488185.383,-32.227,311.523,59.082,-16.602,19.531,0
1492488185.387,-53.711,-43.457,55.664,-49.316,25.391,0
1492488185.391,-46.387,-187.988,80.078,-35.156,66.895,0
1492488185.395,-56.641,-255.371,73.730,-48.828,67.383,0
1492488185.399,-47.363,-304.688,62.012,-52.246,56.152,0
1492488185.403,-16.113,-333.984,76.660,-28.809,84.961,0
1492488185.407,-45.898,-351.562,74.707,-53.711,74.219,0
1492488185.411,-63.965,-339.844,63.965,-75.195,34.180,0
1492488185.414,-29.297,-345.215,72.266,-51.758,43.945,0
1492488185.418,-18.066,-356.445,85.449,-23.926,20.996,0
1492488185.422,-38.086,-262.695,73.730,-25.879,-8.789,0
1492488185.426,-29.297,-229.492,78.613,-10.742,30.273,0
1492488185.430,-5.371,-299.805,87.891,-2.930,55.176,0
1492488185.434,-44.434,-319.824,81.543,-41.016,17.090,0
1492488185.438,-62.012,-182.617,104.492,-49.316,35.156,0
1492488185.442,-26.855,-165.039,100.586,-29.297,98.633,0
1492488185.446,-6.836,-215.820,97.656,-9.277,47.852,0
1492488185.450,-9.277,-190.918,90.820,3.418,15.137,0
1492488185.454,-10.254,-178.711,56.152,-7.812,3.418,0
1492488185.457,-9.766,-200.195,75.684,-11.230,5.859,0
1492488185.461,-4.883,-216.309,77.148,5.859,41.016,0
1492488185.465,8.301,-198.730,58.105,18.066,25.879,0
1492488185.469,13.672,-140.137,100.586,4.883,36.133,0
1492488185.473,7.324,-163.574,111.328,-6.836,25.879,0
1492488185.477,-6.836,-141.602,65.918,-4.395,8.301,0
1492488185.481,-0.488,-90.332,67.871,1.465,83.008,0
1492488185.485,51.758,-153.809,78.613,42.480,48.828,0
1492488185.489,58.594,-150.879,83.008,57.129,35.156,0
1492488185.493,5.371,-83.984,113.281,13.184,38.574,0
1492488185.496,14.160,-40.527,114.258,-1.465,-29.297,0
1492488185.500,60.547,-111.816,128.418,37.598,-10.742,0
1492488185.504,40.527,-180.664,111.328,34.180,25.879,0
1492488185.508,34.180,-142.578,78.613,26.855,17.578,0
1492488185.512,64.453,-99.121,76.660,29.785,30.762,0
1492488185.516,53.711,-50.293,44.922,16.602,12.695,0
1492488185.520,39.551,-28.320,40.039,26.855,51.270,0
1492488185.524,37.109,-19.531,85.938,8.301,53.223,0
1492488185.528,12.695,27.344,87.891,-4.883,0.000,0
1492488185.532,7.812,37.109,70.801,23.438,39.551,0
1492488185.536,27.832,-16.602,76.172,31.250,-10.254,0
1492488185.539,35.156,-98.145,72.754,34.668,18.555,0
1492488185.543,74.707,-139.160,50.293,70.801,99.121,0
1492488185.547,78.125,-134.766,62.988,80.566,39.551,0
1492488185.551,60.547,-114.258,105.469,79.590,32.227,0
1492488185.555,26.367,-10.742,66.895,44.922,32.715,0
1492488185.559,20.508,28.320,23.926,8.789,68.359,0
1492488185.563,51.758,-24.902,10.254,-0.977,109.375,0
1492488185.567,52.246,-32.227,44.922,22.949,86.914,0
1492488185.571,59.082,-80.566,85.938,40.527,38.574,0
1492488185.575,71.289,-83.008,71.777,39.062,14.648,0
1492488185.579,65.918,-92.773,72.266,60.547,8.301,0
1492488185.582,34.668,-65.918,67.871,38.086,-34.180,0
1492488185.586,29.785,42.969,61.035,18.555,-15.137,0
1492488185.590,37.598,35.645,50.781,7.812,24.902,0
1492488185.594,48.340,-11.719,27.344,20.996,79.102,0
1492488185.598,58.594,-46.387,24.414,51.270,80.566,0
1492488185.602,62.988,-82.520,61.035,64.453,58.105,0
1492488185.606,67.383,-60.547,69.336,75.195,-15.137,0
1492488185.610,83.008,-23.926,49.805,55.176,-28.320,0
1492488185.614,82.520,3.906,33.691,48.340,33.691,0
1492488185.618,71.289,20.020,41.016,61.523,36.621,0
1492488185.621,73.730,-49.316,69.824,44.922,69.336,0
1492488185.625,81.055,-65.918,55.176,30.273,28.320,0
1492488185.629,66.406,-60.547,33.691,25.879,-7.812,0
1492488185.633,64.453,-46.875,48.340,28.320,55.176,0
1492488185.637,74.219,-35.645,64.453,55.176,41.992,0
1492488185.641,53.223,-41.016,57.617,62.988,0.977,0
1492488185.645,46.875,-43.457,52.246,40.039,-11.719,0
1492488185.649,62.500,1.953,55.176,38.574,48.828,0
1492488185.653,82.031,41.992,46.875,43.945,51.270,0
1492488185.657,62.500,86.426,26.367,2.441,-13.184,0
1492488185.661,34.668,108.887,20.020,1.465,32.227,0
1492488185.664,54.199,49.805,27.832,36.621,66.406,0
1492488185.668,42.480,7.812,52.246,40.527,48.828,0
1492488185.672,51.758,-96.680,72.754,61.523,8.301,0
1492488185.676,91.309,-88.867,70.312,79.102,1.953,0
1492488185.680,62.012,57.617,42.480,56.641,62.988,0
1492488185.684,59.570,52.734,26.367,45.898,55.176,0
1492488185.688,82.031,20.996,31.738,55.176,58.594,0
1492488185.692,75.195,10.254,25.391,29.297,57.617,0
1492488185.696,82.520,-51.758,28.320,16.602,35.645,0
1492488185.700,89.844,-118.652,41.992,62.988,-6.348,0
1492488185.704,92.773,-25.391,54.199,59.082,-14.160,0
1492488185.707,97.656,82.031,34.180,16.113,25.391,0
1492488185.711,57.129,31.250,19.043,30.273,29.297,0
1492488185.715,36.621,14.160,23.926,36.133,16.602,0
1492488185.719,73.730,36.133,15.137,27.832,63.477,0
1492488185.723,89.355,25.391,43.457,47.852,83.984,0
1492488185.727,94.238,-0.488,56.152,38.574,32.715,0
1492488185.731,47.363,21.484,20.020,14.160,65.918,0
1492488185.735,41.992,-3.906,2.441,21.973,143.555,0
1492488185.739,60.547,-7.324,20.508,27.832,133.301,0
1492488185.743,56.152,-4.395,19.043,18.555,160.645,0
1492488185.746,75.195,-76.172,4.395,35.156,248.535,0
1492488185.750,76.172,-36.133,22.949,42.480,311.523,0
1492488185.754,75.195,-5.859,36.621,36.133,332.031,0
1492488185.758,75.684,-104.004,28.809,58.594,379.883,0
1492488185.762,73.242,-107.910,48.340,52.246,469.238,0
1492488185.766,34.180,111.328,62.988,-6.836,535.156,0
1492488185.770,13.672,187.500,75.195,-33.691,553.711,0
1492488185.774,38.574,96.191,111.328,2.441,560.059,0
1492488185.778,60.547,19.531,125.488,40.039,617.188,0
1492488185.782,85.938,-33.203,123.535,42.480,635.254,0
1492488185.786,85.938,14.160,95.703,41.504,640.625,0
1492488185.789,65.430,-59.570,115.723,41.992,662.109,0
1492488185.793,60.059,-193.848,146.973,43.457,660.645,0
1492488185.797,53.711,-21.484,123.535,51.758,644.531,0
1492488185.801,42.969,98.145,103.027,41.504,630.859,0
1492488185.805,19.531,44.922,82.031,43.457,624.023,0
1492488185.809,26.855,-4.883,79.102,88.867,631.348,0
1492488185.813,32.715,-10.742,102.051,98.145,620.117,0
1492488185.817,12.695,40.039,95.703,76.660,607.422,0
1492488185.821,11.230,32.715,76.660,68.848,617.676,0
1492488185.825,43.945,-16.113,67.383,79.102,609.375,0
1492488185.829,61.035,-40.039,49.316,75.684,635.254,0
1492488185.832,38.574,-19.531,67.383,65.918,678.223,0
1492488185.836,43.945,48.828,81.543,56.641,669.434,0
1492488185.840,40.527,83.984,57.129,60.059,626.953,0
1492488185.844,31.738,43.945,57.129,74.707,649.902,0
1492488185.848,39.062,104.004,67.871,73.242,645.020,0
1492488185.852,29.297,189.941,42.480,71.289,604.492,0
1492488185.856,42.480,41.016,55.176,78.613,616.211,0
1492488185.860,64.453,-84.473,101.562,117.676,586.426,0
1492488185.864,41.504,90.332,58.594,77.148,588.379,0
1492488185.868,29.785,252.441,8.301,17.090,621.094,0
1492488185.871,40.527,275.879,45.410,64.941,592.773,0
1492488185.875,50.781,311.523,65.430,104.004,585.449,0
1492488185.879,46.387,519.043,31.738,81.055,602.051,0
1492488185.883,52.734,673.828,40.527,76.172,640.625,0
1492488185.887,61.035,647.949,55.664,91.309,621.094,0
1492488185.891,41.992,727.539,57.617,92.773,567.871,0
1492488185.895,34.668,778.320,58.105,97.168,544.434,0
1492488185.899,37.598,710.938,42.969,104.980,513.672,0
1492488185.903,34.180,783.691,43.457,92.773,493.164,0
1492488185.907,50.781,775.879,52.246,93.262,487.305,0
1492488185.911,34.180,728.516,25.879,97.168,481.445,0
1492488185.914,30.273,759.766,27.832,86.426,468.750,0
1492488185.918,42.480,776.855,53.223,72.754,461.914,0
1492488185.922,38.086,767.578,33.691,62.500,433.594,0
1492488185.926,33.691,684.082,27.832,66.406,419.434,0
1492488185.930,48.340,600.098,56.152,83.496,375.000,0
1492488185.934,62.012,567.871,62.012,79.590,364.746,0
1492488185.938,30.273,646.484,54.688,66.895,330.566,0
1492488185.942,32.715,603.027,50.293,87.891,301.270,0
1492488185.946,49.316,516.602,43.457,110.840,334.473,0
1492488185.950,36.621,636.719,41.992,86.426,288.574,0
1492488185.954,42.969,666.504,46.387,57.617,271.973,0
1492488185.957,35.156,576.172,32.227,49.316,297.852,0
1492488185.961,8.301,690.918,33.203,55.176,274.414,0
1492488185.965,2.441,784.180,37.598,44.434,249.023,0
1492488185.969,21.484,869.141,19.043,26.855,255.859,0
1492488185.973,48.828,-998.535,26.367,35.645,283.203,0
1492488185.977,42.969,-991.699,59.082,48.828,258.301,0
1492488185.981,30.273,905.762,44.922,40.527,198.242,0
1492488185.985,37.109,721.680,23.926,29.785,183.594,0
1492488185.989,57.129,585.938,28.809,19.043,189.453,0
1492488185.993,31.250,733.887,20.508,11.230,191.895,0
1492488185.996,0.977,-991.699,4.395,5.371,165.039,0
1492488186.000,39.551,999.023,30.273,4.395,158.203,0
1492488186.004,52.734,992.188,35.645,-15.625,154.785,0
1492488186.008,33.691,-999.023,20.020,-7.324,129.883,0
1492488186.012,41.016,999.512,18.555,30.762,129.883,0
1492488186.016,62.012,999.512,21.973,15.137,153.320,0
1492488186.020,55.664,999.023,21.484,-25.391,148.438,0
1492488186.024,47.363,998.535,11.719,-33.203,118.652,0
1492488186.028,36.133,-1000.000,24.414,-16.602,108.887,0
1492488186.032,46.875,972.168,53.711,8.789,112.305,0
1492488186.036,59.570,932.129,58.105,0.488,106.445,0
1492488186.039,45.410,842.773,44.922,-16.602,97.168,0
1492488186.043,59.082,744.629,52.734,-0.488,94.727,0
1492488186.047,70.312,733.398,65.918,15.137,129.395,0
1492488186.051,54.199,727.051,52.246,21.484,134.277,0
1492488186.055,57.129,691.895,52.734,16.602,121.582,0
1492488186.059,51.270,704.102,66.895,-5.859,123.047,0
1492488186.063,44.922,727.051,77.148,0.000,103.027,0
1492488186.067,70.312,573.242,90.332,22.949,98.633,0
1492488186.071,83.496,459.473,93.262,19.531,83.496,0
1492488186.075,41.992,594.238,77.637,3.418,66.406,0
1492488186.079,30.762,643.066,69.336,-1.953,80.078,0
1492488186.082,35.156,709.473,70.801,1.953,54.199,0
1492488186.086,17.090,645.996,70.801,7.324,20.020,0
1492488186.090,20.020,386.230,66.406,23.926,63.965,0
1492488186.094,56.152,14.648,90.820,51.758,75.684,0
1492488186.098,66.895,-309.570,91.309,34.668,51.270,0
1492488186.102,35.645,-300.293,62.988,-3.418,79.590,0
1492488186.106,44.434,-225.586,79.102,19.531,105.469,0
1492488186.110,62.012,-29.297,84.961,35.645,70.312,0
1492488186.114,33.203,187.012,66.406,0.488,45.410,0
1492488186.118,4.395,356.445,62.988,-21.973,52.246,0
1492488186.121,2.441,370.605,73.242,15.137,67.383,0
1492488186.125,17.578,342.285,71.289,21.973,39.551,0
1492488186.129,15.625,379.395,68.359,7.812,5.859,0
1492488186.133,17.578,366.211,74.219,1.953,18.555,0
1492488186.137,26.855,302.734,69.824,-7.812,33.203,0
1492488186.141,34.180,270.020,58.105,-0.977,11.719,0
1492488186.145,56.152,212.891,74.219,18.555,23.926,0
1492488186.149,47.852,220.215,76.172,-0.977,58.594,0
1492488186.153,14.160,204.102,52.734,-27.344,43.457,0
1492488186.157,-4.883,186.523,47.363,-11.719,27.344,0
1492488186.161,0.488,246.094,41.016,-22.949,27.344,0
1492488186.164,3.906,294.434,41.016,-47.363,38.574,0
1492488186.168,-1.465,287.109,48.828,-39.551,34.180,0
1492488186.172,20.020,261.230,41.016,-9.277,24.902,0
1492488186.176,48.340,228.027,35.645,6.836,17.578,0
1492488186.180,50.781,163.086,52.734,11.719,23.926,0
1492488186.184,55.176,140.625,65.918,24.902,11.230,0
1492488186.188,77.637,175.781,72.266,17.090,-9.277,0
1492488186.192,48.828,229.980,73.242,6.836,-8.301,0
1492488186.196,20.020,294.922,60.547,2.930,10.254,0
1492488186.200,51.758,268.066,68.359,3.906,20.508,0
1492488186.204,55.664,224.121,67.871,-1.953,10.742,0
1492488186.207,37.109,212.402,48.828,-6.836,4.883,0
1492488186.211,25.879,182.129,46.875,6.836,-2.930,0
1492488186.215,67.871,183.105,52.246,1.953,-20.508,0
1492488186.219,77.637,130.371,55.664,-2.441,-10.254,0
1492488186.223,40.039,18.555,53.711,0.977,-16.113,0
1492488186.227,46.875,-45.410,53.711,8.301,-4.883,0
1492488186.231,55.176,10.254,41.016,-7.324,-20.996,0
1492488186.235,60.547,73.730,51.758,-21.973,-69.336,0
1492488186.239,50.293,59.570,57.617,-14.160,-53.711,0
1492488186.243,40.527,99.609,38.574,-24.414,-11.230,0
1492488186.246,34.668,58.105,30.273,-22.461,-18.066,0
1492488186.250,40.527,62.012,28.320,-14.648,-50.293,0
1492488186.254,53.223,233.398,37.598,-7.812,-43.945,0
1492488186.258,50.293,345.215,31.250,-30.273,-36.133,0
1492488186.262,57.617,293.457,15.625,-46.875,-35.645,0
1492488186.266,45.410,110.840,34.668,-28.320,-36.133,0
1492488186.270,19.531,3.418,56.641,-12.207,-48.340,0
1492488186.274,47.852,106.934,58.594,-11.230,-55.664,0
1492488186.278,67.383,224.121,49.316,-13.672,-29.785,0
1492488186.282,66.895,133.789,56.641,15.137,-38.574,0
1492488186.286,79.590,41.016,53.223,20.508,-22.461,0
1492488186.289,45.410,82.520,21.484,-20.020,-3.418,0
1492488186.293,27.832,101.074,26.855,-37.109,-30.762,0
1492488186.297,48.828,30.273,45.898,-21.484,-24.902,0
1492488186.301,35.156,60.059,48.340,2.441,-1.953,0
1492488186.305,43.457,40.039,45.898,-3.906,-35.645,0
1492488186.309,51.270,-103.516,49.316,-17.578,-53.223,0
1492488186.313,35.156,-31.250,50.781,-35.156,-49.316,0
1492488186.317,30.273,70.312,31.738,-41.504,-50.781,0
1492488186.321,28.809,-37.109,23.926,-16.113,-40.527,0
1492488186.325,49.805,-179.688,58.594,6.348,-68.848,0
1492488186.329,61.523,-221.191,65.430,-11.719,-61.035,0
1492488186.332,45.898,-176.758,34.668,-39.551,-26.367,0
1492488186.336,32.227,-87.402,20.020,-42.480,-50.781,0
1492488186.340,19.531,-90.820,16.113,-39.062,-74.707,0
1492488186.344,39.551,-126.953,20.508,-35.156,-38.574,0
1492488186.348,51.270,-181.641,25.879,-22.949,-33.691,0
1492488186.352,31.250,-172.363,19.043,-33.203,-78.125,0
1492488186.356,49.316,-162.109,20.996,-24.902,-62.500,0
1492488186.360,56.152,-69.336,35.645,10.254,-46.387,0
1492488186.364,51.270,95.703,31.738,-8.301,-62.012,0
1492488186.368,29.785,108.887,1.953,-45.898,-83.496,0
1492488186.371,17.090,100.098,-10.254,-55.664,-100.098,0
1492488186.375,24.902,70.312,5.859,-45.410,-63.965,0
1492488186.379,14.160,75.684,13.672,-21.484,-42.969,0
1492488186.383,38.574,20.020,28.320,-22.461,-83.008,0
1492488186.387,39.551,18.066,33.203,-35.645,-114.746,0
1492488186.391,25.391,114.258,20.508,-41.992,-109.375,0
1492488186.395,50.781,187.012,31.250,-33.691,-120.605,0
1492488186.399,42.480,129.395,34.668,-16.602,-159.180,0
1492488186.403,35.156,54.688,27.344,-2.441,-154.785,0
1492488186.407,51.758,45.898,38.086,1.465,-157.715,0
1492488186.411,67.871,170.898,49.316,-8.301,-188.965,0
1492488186.414,38.086,327.637,46.875,-11.230,-204.102,0
1492488186.418,18.066,336.914,24.414,-15.137,-210.449,0
1492488186.422,43.945,275.391,12.207,-14.648,-195.312,0
1492488186.426,61.035,104.004,47.363,-3.418,-205.566,0
1492488186.430,54.688,17.090,50.293,-8.789,-222.656,0
1492488186.434,50.781,126.953,40.039,-5.859,-229.004,0
1492488186.438,52.734,190.430,48.340,-3.906,-234.863,0
1492488186.442,31.250,217.285,39.551,-14.160,-270.020,0
1492488186.446,48.340,186.035,32.227,-19.531,-280.273,0
1492488186.450,48.340,115.723,23.926,-13.672,-229.004,0
1492488186.454,31.250,118.652,33.691,1.465,-246.582,0
1492488186.457,78.613,104.492,46.875,15.137,-255.859,0
1492488186.461,102.051,201.172,41.504,14.160,-266.602,0
1492488186.465,47.363,355.957,43.457,4.395,-273.438,0
1492488186.469,16.602,321.289,41.992,-6.348,-251.953,0
1492488186.473,27.344,291.016,33.203,-18.066,-248.047,0
1492488186.477,46.875,276.367,41.016,9.277,-238.281,0
1492488186.481,55.664,241.699,46.875,22.949,-221.680,0
1492488186.485,68.359,246.582,45.410,1.465,-228.516,0
1492488186.489,89.355,227.539,56.152,-6.348,-186.523,0
1492488186.493,100.098,199.219,61.035,14.648,-98.145,0
1492488186.496,98.633,193.359,62.500,11.719,-72.266,0
1492488186.500,63.965,264.648,47.852,-27.344,-128.906,0
1492488186.504,54.688,296.387,33.691,-33.203,-221.680,0
1492488186.508,43.945,118.652,48.340,-15.625,-286.621,0
1492488186.512,51.758,-17.578,51.270,-9.277,-331.055,0
1492488186.516,76.660,-56.641,41.504,-3.418,-396.484,0
1492488186.520,67.383,-26.367,51.270,11.719,-450.684,0
1492488186.524,30.762,126.953,48.340,8.301,-446.289,0
1492488186.528,10.254,109.375,35.645,5.859,-473.633,0
1492488186.532,33.691,-23.438,41.504,8.789,-527.344,0
1492488186.536,45.410,-18.066,35.156,-10.742,-536.133,0
1492488186.539,43.457,-37.109,35.156,-5.371,-524.902,0
1492488186.543,25.879,-18.555,40.527,6.836,-504.395,0
1492488186.547,18.555,108.887,33.203,-10.254,-562.012,0
1492488186.551,44.434,145.996,32.227,-22.461,-615.234,0
1492488186.555,72.266,134.277,29.785,-4.883,-596.680,0
1492488186.559,82.031,317.871,41.016,7.812,-579.590,0
1492488186.563,74.707,518.066,60.059,10.254,-625.488,0
1492488186.567,46.875,354.980,48.340,23.438,-689.941,0
1492488186.571,41.992,131.836,43.945,6.348,-682.129,0
1492488186.575,45.898,117.188,58.594,-8.789,-672.363,0
1492488186.579,52.246,140.625,49.805,11.719,-637.207,0
1492488186.582,76.660,209.961,39.062,8.301,-630.371,0
1492488186.586,55.664,257.324,34.668,-30.273,-622.070,0
1492488186.590,23.438,262.695,42.480,-40.039,-578.613,0
1492488186.594,62.500,186.523,57.617,-1.465,-577.148,0
1492488186.598,126.953,76.660,62.500,37.598,-600.586,0
1492488186.602,91.797,132.324,63.477,30.273,-576.172,0
1492488186.606,61.523,211.426,78.613,15.137,-545.898,0
1492488186.610,85.938,201.660,81.543,20.508,-480.469,0
1492488186.614,95.703,121.582,76.172,39.551,-393.555,0
1492488186.618,94.238,58.594,83.008,49.316,-364.746,0
1492488186.621,65.918,99.121,82.031,37.598,-379.395,0
1492488186.625,64.941,143.555,79.102,28.320,-334.473,0
1492488186.629,80.566,115.234,79.102,21.484,-308.105,0
1492488186.633,81.055,69.824,57.617,12.207,-291.992,0
1492488186.637,57.129,72.266,30.762,27.832,-275.391,0
1492488186.641,41.016,40.039,52.734,37.598,-278.320,0
1492488186.645,65.918,-20.508,81.543,23.926,-218.750,0
1492488186.649,92.285,-15.137,76.660,33.691,-206.055,0
1492488186.653,65.918,64.453,68.359,40.039,-229.980,0
1492488186.657,35.645,128.418,48.828,27.832,-184.570,0
1492488186.661,38.574,126.953,44.922,22.949,-120.605,0
1492488186.664,60.547,115.723,67.383,9.766,-155.273,0
1492488186.668,56.641,109.863,84.961,19.531,-177.246,0
1492488186.672,47.852,59.082,82.031,35.645,-164.062,0
1492488186.676,42.969,75.195,70.312,23.438,-218.262,0
1492488186.680,32.227,101.562,80.078,23.926,-129.395,0
1492488186.684,53.711,-30.273,79.590,22.949,-72.754,0
1492488186.688,61.035,-42.480,63.477,18.555,-121.094,0
1492488186.692,52.246,43.945,69.336,29.297,-82.031,0
1492488186.696,43.945,24.902,70.312,9.277,-81.055,0
1492488186.700,29.297,-74.219,60.547,1.953,-45.898,0
1492488186.704,32.715,-102.539,42.480,24.414,-35.645,0
1492488186.707,28.809,-69.824,39.062,-8.301,-91.797,0
1492488186.711,43.945,-90.332,74.707,-26.855,-102.051,0
1492488186.715,50.293,-14.160,74.219,-24.902,-49.316,0
1492488186.719,18.066,-14.648,63.965,-15.625,-66.406,0
1492488186.723,21.973,-62.012,64.941,0.977,-97.168,0
1492488186.727,34.180,-61.035,42.969,2.441,-22.949,0
1492488186.731,28.320,-75.195,34.668,-9.277,33.203,0
1492488186.735,38.574,-93.262,27.832,-20.508,-42.480,0
1492488186.739,45.410,-101.562,33.691,-4.395,-71.289,0
1492488186.743,33.691,-49.805,44.922,-22.461,-39.551,0
1492488186.746,5.371,-3.906,33.691,-27.344,-53.711,0
1492488186.750,11.230,38.086,13.672,-35.156,-87.891,0
1492488186.754,38.086,37.109,14.648,-36.133,-117.188,0
1492488186.758,45.410,-15.625,35.645,-2.930,-52.734,0
1492488186.762,28.320,-57.617,35.156,-10.742,9.766,0
1492488186.766,32.715,-36.621,29.785,-17.090,-15.625,0
1492488186.770,42.480,-50.293,30.273,-9.766,-50.781,0
1492488186.774,26.367,-166.504,24.414,-13.672,-73.242,0
1492488186.778,28.320,90.332,27.344,-16.113,-8.301,0
1492488186.782,54.688,329.590,32.715,-17.578,18.066,0
1492488186.786,66.895,221.680,28.809,-11.230,-11.230,0
1492488186.789,60.547,112.793,22.461,11.230,51.270,0
1492488186.793,67.383,78.125,19.043,29.785,-2.930,0
1492488186.797,63.477,149.414,13.672,1.953,-29.785,0
1492488186.801,51.270,192.383,22.949,-14.160,-9.277,0
1492488186.805,52.734,120.605,39.062,13.184,37.598,0
1492488186.809,45.898,-2.441,39.551,26.855,61.035,0
1492488186.813,46.875,0.488,32.715,14.648,-33.203,0
1492488186.817,62.988,33.691,30.273,17.090,-18.555,0
1492488186.821,43.945,89.844,24.902,4.883,15.625,0
1492488186.825,49.316,119.629,13.184,-29.297,-25.879,0
1492488186.829,48.828,82.031,10.254,-23.438,-78.125,0
1492488186.832,20.508,8.301,14.160,-10.254,-32.227,0
1492488186.836,27.344,-60.547,8.789,-7.812,16.113,0
1492488186.840,56.152,-69.336,8.301,0.488,17.090,0
1492488186.844,60.059,-92.285,13.672,-9.766,-16.602,0
1492488186.848,48.340,-50.781,7.324,-11.230,18.555,0
1492488186.852,36.621,15.137,3.418,1.953,34.668,0
1492488186.856,44.434,2.930,15.625,5.371,-30.762,0
1492488186.860,66.406,6.348,28.320,6.836,7.812,0
1492488186.864,75.195,-20.508,20.020,12.695,2.441,0
1492488186.868,50.293,-60.547,11.719,0.977,-2.930,0
1492488186.871,51.758,-1.465,12.207,20.996,62.012,0
1492488186.875,85.938,100.586,7.324,31.250,103.027,0
1492488186.879,76.172,236.816,16.602,-2.930,48.340,0
1492488186.883,70.312,295.898,24.414,-0.977,-6.348,0
1492488186.887,49.805,346.680,15.137,-6.836,-16.113,0
1492488186.891,28.320,326.172,1.465,-19.043,-14.648,0
1492488186.895,72.266,229.492,-4.883,3.418,-39.062,0
1492488186.899,83.008,188.965,-10.742,-14.648,-29.785,0
1492488186.903,62.988,163.574,0.488,-7.324,3.906,0
1492488186.907,75.195,180.176,19.043,10.254,-31.738,0
1492488186.911,82.520,125.000,11.719,8.301,-5.859,0
1492488186.914,75.195,136.230,-0.488,15.625,4.395,0
1492488186.918,68.848,172.363,-13.672,2.930,60.059,0
1492488186.922,69.336,127.441,-20.020,-2.930,34.668,0
1492488186.926,57.129,86.426,-8.301,12.695,6.348,0
1492488186.930,62.988,50.781,2.930,16.113,61.523,0
1492488186.934,66.895,8.789,12.207,15.137,47.852,0
1492488186.938,80.566,8.789,7.324,24.414,29.785,0
1492488186.942,111.328,-42.969,5.859,36.621,40.527,0
1492488186.946,100.586,-111.328,7.324,33.691,15.137,0
1492488186.950,66.406,-38.574,5.371,30.762,0.488,0
1492488186.954,53.223,62.012,-1.953,43.457,12.695,0
1492488186.957,62.012,15.137,-11.230,32.715,3.418,0
1492488186.961,97.656,-107.422,-5.371,31.250,26.367,0
1492488186.965,119.629,-214.844,8.789,75.684,11.719,0
1492488186.969,84.473,-135.254,-5.859,54.199,-3.418,0
1492488186.973,69.336,21.484,-26.367,17.578,26.367,0
1492488186.977,86.914,6.836,-14.648,39.062,124.023,0
1492488186.981,109.375,0.977,-6.836,51.270,73.242,0
1492488186.985,106.445,-7.812,-1.465,46.875,1.953,0
1492488186.989,91.797,-31.738,7.324,43.457,59.082,0
1492488186.993,81.055,52.734,-2.930,49.316,43.457,0
1492488186.996,103.027,105.957,-7.324,48.828,-8.789,0
1492488187.000,118.652,51.270,7.812,62.500,-7.812,0
1492488187.004,105.957,18.555,15.625,69.336,-14.648,0
1492488187.008,109.375,138.184,10.254,65.430,-36.621,0
1492488187.012,115.723,202.637,11.230,62.500,-15.625,0
1492488187.016,111.328,212.891,15.625,63.965,-1.465,0
1492488187.020,111.328,235.840,-9.766,60.059,5.859,0
1492488187.024,94.238,147.461,-2.930,67.871,22.949,0
1492488187.028,99.121,109.375,29.785,99.609,-17.090,0
1492488187.032,141.113,140.625,25.391,102.539,27.832,0
1492488187.036,133.301,243.164,6.348,68.359,81.055,0
1492488187.039,106.445,258.789,15.137,68.359,24.902,0
1492488187.043,105.957,151.367,33.691,80.078,4.883,0
1492488187.047,100.098,125.977,20.020,83.984,41.992,0
1492488187.051,107.422,128.906,16.113,84.961,26.855,0
1492488187.055,141.602,73.730,38.086,87.891,72.754,0
1492488187.059,111.328,134.766,29.785,88.867,27.344,0
1492488187.063,77.148,173.828,23.438,81.055,-31.738,0
1492488187.067,115.234,-7.324,34.668,79.590,20.508,0
1492488187.071,109.375,-87.402,13.184,60.547,12.695,0
1492488187.075,82.031,-14.160,-5.371,35.156,-4.395,0
1492488187.079,95.703,-119.141,10.254,56.152,-23.438,0
1492488187.082,84.473,-153.809,14.160,64.941,-59.082,0
1492488187.086,55.664,-52.246,13.184,36.133,12.207,0
1492488187.090,92.773,-175.781,35.156,37.598,41.504,0
1492488187.094,102.539,-279.785,41.504,59.570,-23.926,0
1492488187.098,90.332,-204.102,23.926,44.922,-20.508,0
1492488187.102,77.148,-129.395,15.137,39.062,21.973,0
1492488187.106,44.922,-74.219,9.277,22.461,17.090,0
1492488187.110,70.312,-147.461,12.207,4.395,26.855,0
1492488187.114,105.957,-269.531,37.598,44.922,38.086,0
1492488187.118,96.191,-83.984,40.039,51.270,52.734,0
1492488187.121,73.242,105.957,19.043,18.555,36.621,0
1492488187.125,76.172,97.656,16.602,37.598,58.594,0
1492488187.129,97.168,27.344,10.742,45.898,65.918,0
1492488187.133,106.445,-74.707,4.395,38.574,-15.625,0
1492488187.137,85.449,-152.832,19.043,45.898,-39.062,0
1492488187.141,67.383,-190.918,12.695,55.176,5.859,0
1492488187.145,73.730,-189.941,27.344,42.480,64.941,0
1492488187.149,88.867,-218.262,53.223,50.293,23.926,0
1492488187.153,119.141,-225.586,52.246,62.500,-22.461,0
1492488187.157,116.699,-149.902,32.227,37.109,22.461,0
1492488187.161,74.707,-100.586,23.926,41.992,44.922,0
1492488187.164,72.266,-121.582,30.762,41.992,1.465,0
1492488187.168,96.191,-142.578,19.531,36.133,-12.207,0
1492488187.172,85.938,-155.273,26.367,55.664,86.914,0
1492488187.176,74.219,-209.473,39.551,77.637,87.891,0
1492488187.180,84.961,-189.941,36.133,67.383,28.809,0
1492488187.184,87.402,-122.559,19.531,45.410,66.406,0
1492488187.188,70.312,-109.375,-0.977,32.715,78.125,0
1492488187.192,66.895,-67.383,14.160,27.344,63.965,0
1492488187.196,60.059,-65.430,41.992,28.809,49.805,0
1492488187.200,57.129,-105.957,42.969,32.715,-9.766,0
1492488187.204,64.941,-81.543,23.926,20.996,-23.926,0
1492488187.207,79.102,-20.020,30.273,26.367,6.348,0
1492488187.211,88.379,55.176,42.969,45.898,24.902,0
1492488187.215,91.309,132.324,34.180,32.227,16.602,0
1492488187.219,96.191,107.910,19.531,23.926,53.711,0
1492488187.223,104.980,-72.754,21.484,14.160,64.453,0
1492488187.227,106.445,-191.406,18.066,14.160,23.926,0
1492488187.231,108.887,-234.375,7.812,16.602,-1.465,0
1492488187.235,124.023,-281.738,29.297,44.922,-10.254,0
1492488187.239,104.004,-229.004,19.531,47.852,11.230,0
1492488187.243,69.336,-79.102,-3.906,17.578,41.992,0
1492488187.246,55.664,-20.996,17.578,47.363,75.195,0
1492488187.250,67.383,-88.379,25.391,63.477,45.410,0
1492488187.254,51.758,-60.059,26.367,47.852,53.711,0
1492488187.258,46.875,-100.586,23.926,36.621,46.387,0
1492488187.262,64.941,-144.531,10.254,42.969,94.727,0
1492488187.266,60.547,-33.203,8.789,49.316,105.469,0
1492488187.270,67.871,159.180,18.555,41.016,31.250,0
1492488187.274,57.617,359.863,27.344,48.828,9.277,0
1492488187.278,63.477,418.457,30.273,44.434,-3.906,0
1492488187.282,86.426,479.980,27.832,41.016,15.137,0
1492488187.286,53.711,527.344,19.043,43.945,25.391,0
1492488187.289,56.641,428.223,20.996,35.645,11.719,0
1492488187.293,66.406,244.629,26.367,31.250,26.367,0
1492488187.297,59.082,196.777,23.438,40.527,1.953,0
1492488187.301,80.566,218.262,16.602,45.898,-22.949,0
1492488187.305,87.402,201.172,21.973,39.062,10.254,0
1492488187.309,69.336,230.957,30.273,34.668,14.160,0
1492488187.313,44.922,209.961,11.230,28.320,26.367,0
1492488187.317,46.875,62.500,17.578,30.273,5.859,0
1492488187.321,81.055,-63.965,40.527,48.828,-13.672,0
1492488187.325,95.703,-56.641,37.109,46.387,11.230,0
1492488187.329,68.359,-14.648,26.367,26.367,4.395,0
1492488187.332,58.105,-51.758,28.320,46.387,6.348,0
1492488187.336,71.289,-96.191,43.457,66.895,62.500,0
1492488187.340,79.590,-104.492,42.480,57.617,16.602,0
1492488187.344,85.938,-70.801,41.992,64.453,-28.320,0
1492488187.348,75.195,-40.527,41.504,60.547,3.906,0
1492488187.352,66.406,-11.719,25.879,44.434,5.859,0
1492488187.356,69.336,-2.441,20.020,44.922,11.719,0
1492488187.360,64.453,-7.324,20.996,52.246,9.277,0
1492488187.364,77.637,34.180,20.020,47.363,0.000,0
1492488187.368,98.145,4.883,11.719,46.875,42.480,0
1492488187.371,85.938,-8.789,7.812,57.129,7.812,0
1492488187.375,33.203,46.387,1.953,22.949,-19.043,0
1492488187.379,34.668,35.156,8.789,18.555,20.996,0
1492488187.383,37.109,7.324,17.090,48.828,74.707,0
1492488187.387,31.250,-41.504,9.766,31.738,68.848,0
1492488187.391,65.430,16.602,12.695,35.645,14.648,0
1492488187.395,70.801,109.863,17.578,59.570,9.277,0
1492488187.399,56.152,168.945,7.324,47.852,0.977,0
1492488187.403,65.918,183.594,-3.906,31.738,56.641,0
1492488187.407,60.059,134.277,-2.930,29.297,65.430,0
1492488187.411,49.805,56.641,10.254,46.875,75.684,0
1492488187.414,68.359,-20.996,17.090,50.293,41.016,0
1492488187.418,74.707,29.297,7.812,32.227,25.879,0
1492488187.422,94.727,52.734,7.324,31.738,46.387,0
1492488187.426,82.520,16.113,6.836,42.480,5.371,0
1492488187.430,49.805,77.637,-4.883,45.410,8.789,0
1492488187.434,55.664,110.352,-2.441,39.062,40.039,0
1492488187.438,58.594,49.805,9.277,28.809,48.340,0
1492488187.442,64.941,171.387,11.230,36.621,42.480,0
1492488187.446,64.453,234.375,8.301,44.922,16.602,0
1492488187.450,65.918,-9.277,12.695,55.176,3.418,0
1492488187.454,73.730,-72.266,12.207,54.199,-12.207,0
1492488187.457,74.219,-57.617,20.996,56.152,11.719,0
1492488187.461,57.617,-126.465,28.809,59.570,56.641,0
1492488187.465,50.781,-121.094,11.230,53.223,22.461,0
1492488187.469,60.059,-18.555,6.836,45.410,-11.230,0
1492488187.473,67.383,45.410,17.578,51.758,9.766,0
1492488187.477,66.406,41.504,16.602,41.016,19.531,0
1492488187.481,45.898,52.246,11.230,35.156,44.434,0
1492488187.485,34.668,81.543,3.906,56.641,46.875,0
1492488187.489,36.133,9.766,1.465,50.293,7.324,0
1492488187.493,37.109,11.719,15.137,50.781,23.438,0
1492488187.496,56.641,10.254,12.695,59.082,12.207,0
1492488187.500,74.707,-132.812,11.719,70.801,-10.254,0
1492488187.504,71.777,-131.836,21.484,79.590,41.016,0
1492488187.508,55.176,-148.926,23.926,70.312,69.824,0
1492488187.512,45.410,-260.742,29.785,63.477,28.320,0
1492488187.516,44.434,-285.645,21.484,51.270,50.293,0
1492488187.520,54.688,-215.332,-0.488,48.340,119.629,0
1492488187.524,57.617,-189.941,7.324,50.781,92.773,0
1492488187.528,49.316,-267.090,30.762,56.152,4.883,0
1492488187.532,45.410,-196.777,22.949,74.707,4.883,0
1492488187.536,43.945,-15.137,20.996,67.871,38.086,0
1492488187.539,52.734,105.957,24.902,64.941,54.688,0
1492488187.543,60.547,100.098,4.883,67.383,46.387,0
1492488187.547,45.898,50.781,11.719,72.754,36.621,0
1492488187.551,30.273,67.871,28.809,69.824,42.480,0
1492488187.555,47.363,133.301,39.551,69.336,28.320,0
1492488187.559,46.387,143.555,41.992,64.941,-10.742,0
1492488187.563,18.555,254.395,6.836,43.457,-30.273,0
1492488187.567,21.973,389.648,-2.441,56.152,2.441,0
1492488187.571,45.898,330.566,18.066,76.660,16.602,0
1492488187.575,52.734,266.113,25.391,69.336,-24.902,0
1492488187.579,28.320,186.035,20.020,51.270,-17.578,0
1492488187.582,21.484,95.215,6.836,49.805,28.320,0
1492488187.586,47.852,58.594,20.020,57.129,73.242,0
1492488187.590,54.199,97.656,34.668,50.293,100.586,0
1492488187.594,20.020,150.879,29.785,49.316,34.180,0
1492488187.598,25.879,190.430,16.602,36.621,11.719,0
1492488187.602,43.945,210.938,0.977,24.902,28.809,0
1492488187.606,32.715,211.426,-1.953,56.152,41.504,0
1492488187.610,50.293,151.855,0.488,59.570,70.801,0
1492488187.614,61.523,-20.020,15.625,54.688,59.082,0
1492488187.618,36.621,-46.387,22.949,65.918,66.895,0
1492488187.621,20.996,17.090,20.996,51.270,0.977,0
1492488187.625,18.066,16.113,14.648,28.320,-26.855,0
1492488187.629,6.836,22.949,0.977,13.184,52.734,0
1492488187.633,9.277,5.859,10.742,6.348,-8.301,0
1492488187.637,7.812,-38.574,18.555,8.789,-27.344,0
1492488187.641,-3.418,-101.074,11.719,20.996,20.996,0
1492488187.645,1.953,-113.770,12.695,25.391,-9.766,0
1492488187.649,19.531,-75.684,18.066,21.973,-41.016,0
1492488187.653,21.973,-59.570,23.438,44.434,5.371,0
1492488187.657,20.020,-99.121,22.461,41.504,29.297,0
1492488187.661,31.250,-105.469,14.648,24.902,33.691,0
1492488187.664,45.410,-37.109,20.020,17.090,49.316,0
1492488187.668,38.574,-19.043,21.484,45.898,21.973,0
1492488187.672,32.227,-12.207,17.090,51.270,28.320,0
1492488187.676,21.973,19.531,11.719,9.277,66.406,0
1492488187.680,19.531,31.250,9.766,7.324,44.922,0
1492488187.684,42.480,13.672,20.508,33.691,49.316,0
1492488187.688,51.758,-15.137,25.391,44.434,17.090,0
1492488187.692,36.621,-23.926,31.738,47.363,20.508,0
1492488187.696,37.109,-70.801,31.250,45.410,54.199,0
1492488187.700,63.477,-61.035,29.785,52.246,34.668,0
1492488187.704,53.711,22.949,9.766,61.523,26.367,0
1492488187.707,50.781,62.012,5.371,59.082,-11.230,0
1492488187.711,43.945,83.984,32.227,53.223,35.645,0
1492488187.715,13.672,127.441,38.574,48.828,58.594,0
1492488187.719,24.902,171.387,38.086,36.133,28.809,0
1492488187.723,38.574,194.824,26.855,41.992,5.371,0
1492488187.727,21.973,152.832,13.672,44.922,-7.812,0
1492488187.731,26.855,187.012,12.695,44.922,22.461,0
1492488187.735,25.391,494.629,20.508,54.688,37.598,0
1492488187.739,25.879,665.039,30.273,51.758,30.273,0
1492488187.743,49.316,662.109,12.207,58.105,28.809,0
1492488187.746,50.293,634.277,0.488,79.102,24.414,0
1492488187.750,57.129,586.426,26.855,77.637,9.766,0
1492488187.754,51.270,572.266,38.574,79.590,17.578,0
1492488187.758,52.734,582.031,24.414,67.383,63.477,0
1492488187.762,68.359,606.934,17.090,54.199,57.617,0
1492488187.766,55.664,511.719,23.926,52.246,-2.441,0
1492488187.770,57.129,397.461,22.949,20.996,-22.461,0
1492488187.774,49.805,349.609,14.160,24.902,-2.930,0
1492488187.778,50.781,245.117,16.113,62.988,19.531,0
1492488187.782,73.242,217.773,14.160,83.496,46.387,0
1492488187.786,48.828,331.055,12.207,67.871,24.414,0
1492488187.789,39.062,374.512,20.996,44.922,-12.695,0
1492488187.793,59.570,309.570,11.230,47.363,2.441,0
1492488187.797,66.895,241.211,24.902,50.293,3.906,0
1492488187.801,52.246,275.879,36.621,31.250,-14.648,0
1492488187.805,43.945,312.500,15.137,46.387,-25.391,0
1492488187.809,66.895,266.113,24.414,66.406,-20.996,0
1492488187.813,53.711,276.855,47.363,45.898,20.508,0
1492488187.817,13.184,343.262,14.160,35.645,55.664,0
1492488187.821,31.738,239.258,-17.090,45.898,28.320,0
1492488187.825,57.129,116.699,14.648,41.016,8.301,0
1492488187.829,44.922,147.949,29.785,48.340,-23.438,0
1492488187.832,20.996,208.496,-13.672,48.828,-17.578,0
1492488187.836,39.062,128.906,5.371,49.805,26.367,0
1492488187.840,37.598,13.184,43.945,58.594,53.223,0
1492488187.844,18.066,37.109,24.902,59.570,26.855,0
1492488187.848,33.203,55.176,21.973,51.270,47.852,0
1492488187.852,42.969,112.305,24.414,44.922,78.613,0
1492488187.856,30.762,203.613,21.973,46.875,0.977,0
1492488187.860,20.020,183.594,14.648,48.828,-17.090,0
1492488187.864,25.391,119.141,17.090,53.223,9.766,0
1492488187.868,33.691,84.473,22.461,61.523,32.715,0
1492488187.871,28.320,93.262,14.160,62.500,33.203,0
1492488187.875,34.668,106.934,15.137,40.527,4.395,0
1492488187.879,22.461,115.234,22.949,52.246,-0.488,0
1492488187.883,32.227,129.883,13.672,45.410,21.484,0
1492488187.887,34.180,117.188,20.996,27.344,29.297,0
1492488187.891,8.789,93.750,18.066,53.711,29.785,0
1492488187.895,22.949,116.699,-8.301,41.504,97.168,0
1492488187.899,11.230,104.492,11.230,30.273,95.215,0
1492488187.903,2.930,42.480,31.738,51.270,45.898,0
1492488187.907,25.391,40.527,25.391,33.203,86.914,0
1492488187.911,31.738,89.355,29.785,36.621,97.168,0
1492488187.914,24.902,129.395,27.832,36.621,60.059,0
1492488187.918,45.410,91.309,33.203,34.180,55.176,0
1492488187.922,64.453,16.113,45.410,63.965,83.008,0
1492488187.926,64.453,36.133,36.621,69.336,115.234,0
1492488187.930,97.168,51.270,19.531,54.688,121.094,0
1492488187.934,109.863,85.449,6.348,46.387,129.395,0
1492488187.938,90.820,185.547,4.395,23.438,157.715,0
1492488187.942,89.355,90.332,23.926,26.855,155.273,0
1492488187.946,83.008,-12.695,44.434,67.383,155.762,0
1492488187.950,53.223,113.281,32.715,67.383,140.625,0
1492488187.954,52.734,178.711,21.484,65.430,159.668,0
1492488187.957,52.734,-32.227,21.973,69.824,166.992,0
1492488187.961,50.293,-389.160,15.625,73.242,139.648,0
1492488187.965,53.223,-456.055,30.762,64.941,149.414,0
1492488187.969,22.461,-418.457,38.086,54.688,168.457,0
1492488187.973,19.531,-470.215,10.742,77.148,191.895,0
1492488187.977,59.082,-479.004,12.695,102.539,198.730,0
1492488187.981,71.777,-363.770,49.805,100.586,203.125,0
1492488187.985,48.340,-311.035,50.293,74.707,209.473,0
1492488187.989,41.016,-246.582,16.602,70.801,161.133,0
1492488187.993,53.223,-94.727,19.531,68.848,168.945,0
1492488187.996,56.641,-7.812,41.504,67.383,207.031,0
1492488188.000,48.828,47.363,42.969,90.820,155.762,0
1492488188.004,40.039,77.637,35.645,83.984,159.180,0
1492488188.008,40.527,90.820,26.367,72.266,186.523,0
1492488188.012,69.336,24.902,19.043,57.129,201.660,0
1492488188.016,65.430,-26.855,30.762,66.406,198.730,0
1492488188.020,37.109,-83.496,31.250,77.637,197.754,0
1492488188.024,50.781,-86.914,18.555,64.453,233.887,0
1492488188.028,44.922,-28.320,20.996,73.242,256.836,0
1492488188.032,46.875,-66.895,36.133,74.707,230.469,0
1492488188.036,58.105,-123.047,36.133,60.059,202.637,0
1492488188.039,45.898,-91.797,14.648,63.965,227.539,0
1492488188.043,50.781,-46.387,5.371,70.312,234.863,0
1492488188.047,56.152,-100.098,24.902,77.148,220.215,0
1492488188.051,66.895,-126.465,41.504,60.547,207.031,0
1492488188.055,42.969,-72.266,32.715,47.363,247.070,0
1492488188.059,17.578,-40.527,19.531,63.477,265.625,0
1492488188.063,37.109,-21.973,13.672,77.148,251.953,0
1492488188.067,54.199,-59.082,12.207,62.012,282.227,0
1492488188.071,28.320,-127.441,28.320,83.496,310.059,0
1492488188.075,-0.977,-148.926,25.879,96.680,292.969,0
1492488188.079,16.113,-102.539,15.137,72.266,297.363,0
1492488188.082,28.320,-95.703,5.859,71.289,294.922,0
1492488188.086,45.898,-88.379,-0.488,76.660,289.551,0
1492488188.090,48.340,-41.016,12.695,80.566,297.852,0
1492488188.094,20.996,6.836,21.973,87.891,295.410,0
1492488188.098,7.324,49.316,13.672,81.055,264.160,0
1492488188.102,6.348,46.875,20.996,95.215,243.652,0
1492488188.106,8.301,8.789,23.438,93.262,265.137,0
1492488188.110,27.832,-53.711,25.879,93.750,216.309,0
1492488188.114,46.387,-92.285,15.137,106.445,175.293,0
1492488188.118,24.414,-38.574,6.348,105.957,233.887,0
1492488188.121,28.809,20.508,2.441,108.887,234.375,0
1492488188.125,49.316,9.277,4.883,117.676,221.680,0
1492488188.129,34.668,-16.602,19.531,114.258,262.207,0
1492488188.133,42.480,-78.613,12.207,104.004,260.742,0
1492488188.137,37.109,-127.441,9.277,116.699,229.004,0
1492488188.141,38.086,-81.543,20.508,131.348,234.863,0
1492488188.145,47.363,-73.242,27.344,137.695,236.328,0
1492488188.149,52.734,-78.613,32.715,139.648,262.695,0
1492488188.153,56.641,-49.316,26.367,121.094,271.484,0
1492488188.157,45.410,41.504,23.438,116.699,248.047,0
1492488188.161,37.598,346.680,20.508,118.652,255.859,0
1492488188.164,35.645,655.273,-5.371,113.281,266.602,0
1492488188.168,44.922,808.105,-9.277,112.793,229.492,0
1492488188.172,64.453,814.453,5.371,112.793,210.449,0
1492488188.176,72.754,833.008,25.391,129.395,239.258,0
1492488188.180,62.012,895.508,39.551,129.883,233.887,0
1492488188.184,53.711,902.832,34.668,117.188,206.055,0
1492488188.188,54.688,890.137,22.949,121.582,196.289,0
1492488188.192,76.660,814.941,36.621,124.023,191.895,0
1492488188.196,96.680,752.441,69.336,127.441,159.668,0
1492488188.200,104.980,743.652,72.266,128.906,135.254,0
1492488188.204,108.887,730.469,59.570,107.910,143.066,0
1492488188.207,104.980,683.105,59.082,119.629,158.691,0
1492488188.211,104.004,712.402,64.941,140.137,178.711,0
1492488188.215,110.840,841.797,60.059,124.023,175.293,0
1492488188.219,94.238,908.691,45.898,96.680,157.227,0
1492488188.223,62.012,896.484,46.875,100.586,165.527,0
1492488188.227,75.684,858.398,58.105,89.844,135.742,0
1492488188.231,91.797,816.406,64.453,80.078,105.957,0
1492488188.235,81.543,752.930,61.035,80.078,128.418,0
1492488188.239,92.773,689.941,60.059,74.707,137.207,0
1492488188.243,112.305,669.434,50.781,62.500,139.648,0
1492488188.246,109.863,671.387,49.805,36.133,119.141,0
1492488188.250,117.188,630.371,68.848,60.059,153.320,0
1492488188.254,122.559,600.098,75.195,103.516,177.246,0
1492488188.258,100.098,612.793,68.359,96.191,133.789,0
1492488188.262,113.770,591.309,60.547,80.078,131.836,0
1492488188.266,138.184,543.945,55.176,80.078,138.672,0
1492488188.270,120.117,518.066,68.359,96.680,134.766,0
1492488188.274,124.512,503.418,67.383,114.258,136.719,0
1492488188.278,125.977,473.145,52.246,101.562,125.488,0
1492488188.282,120.117,440.430,59.570,75.195,109.375,0
1492488188.286,134.277,400.879,71.289,95.215,128.906,0
1492488188.289,117.188,362.793,73.730,144.043,95.215,0
1492488188.293,109.375,342.773,69.336,120.605,82.520,0
1492488188.297,121.094,340.332,55.176,96.680,124.512,0
1492488188.301,104.492,337.402,52.246,124.023,108.887,0
1492488188.305,106.934,313.477,63.965,117.188,122.070,0
1492488188.309,118.652,297.852,64.941,99.609,163.574,0
1492488188.313,104.492,304.688,60.059,103.516,150.391,0
1492488188.317,99.609,278.320,58.594,123.535,132.324,0
1492488188.321,97.168,264.160,55.664,102.539,162.109,0
1492488188.325,88.867,263.672,57.129,103.516,138.184,0
1492488188.329,83.496,254.883,54.688,120.605,132.324,0
1492488188.332,82.520,236.816,45.898,99.609,141.602,0
1492488188.336,85.938,231.934,55.664,88.867,93.262,0
1492488188.340,97.168,237.305,49.805,71.777,98.145,0
1492488188.344,81.543,197.266,46.387,87.891,138.184,0
1492488188.348,85.938,194.336,43.457,103.027,138.184,0
1492488188.352,103.027,185.547,29.297,80.566,85.938,0
1492488188.356,76.172,189.453,35.645,64.941,86.914,0
1492488188.360,49.805,205.566,33.691,52.734,91.797,0
1492488188.364,57.617,123.047,36.621,65.918,78.125,0
1492488188.368,76.172,128.418,37.109,46.875,104.492,0
1492488188.371,51.758,199.219,25.391,16.602,112.305,0
1492488188.375,50.293,193.848,15.137,18.066,51.270,0
1492488188.379,48.828,162.109,19.531,3.906,-3.906,0
1492488188.383,40.527,120.605,25.879,-7.324,19.043,0
1492488188.387,50.293,62.500,36.621,22.461,60.547,0
1492488188.391,41.504,28.320,43.457,14.160,41.504,0
1492488188.395,35.156,33.691,36.621,-12.695,0.488,0
1492488188.399,36.133,72.754,35.645,-36.133,7.812,0
1492488188.403,17.578,89.844,65.918,-70.312,32.227,0
1492488188.407,-35.156,52.246,92.285,-81.543,4.883,0
1492488188.411,-56.152,33.691,163.086,-103.516,-9.277,0
1492488188.414,-41.016,15.137,269.043,-120.117,10.742,0
1492488188.418,-44.922,-69.824,324.219,-123.047,10.254,0
1492488188.422,-66.895,-69.824,339.844,-129.883,-20.996,0
1492488188.426,-72.266,-9.766,371.582,-130.859,-59.570,0
1492488188.430,-83.984,-18.555,395.508,-148.438,-32.715,0
1492488188.434,-83.496,-14.648,400.879,-166.992,-17.578,0
1492488188.438,-84.961,-28.809,409.668,-157.715,-30.762,0
1492488188.442,-104.980,-22.949,410.156,-147.461,-24.414,0
1492488188.446,-59.570,72.266,432.129,-106.934,-20.508,0
1492488188.450,-10.742,77.148,451.660,-63.965,-2.930,0
1492488188.454,-13.184,42.969,462.891,-69.824,2.441,0
1492488188.457,-44.922,61.035,442.383,-102.539,4.395,0
1492488188.461,-113.770,31.738,388.672,-159.180,24.902,0
1492488188.465,-138.672,-11.719,349.121,-194.336,51.270,0
1492488188.469,-124.023,-162.109,335.449,-188.477,46.875,0
1492488188.473,-145.996,-298.828,315.430,-225.098,37.109,0
1492488188.477,-176.758,-233.887,267.578,-251.953,62.988,0
1492488188.481,-199.707,-188.477,263.184,-205.078,112.793,0
1492488188.485,-189.941,-205.078,263.184,-226.562,65.918,0
1492488188.489,-195.801,-248.535,231.445,-272.461,26.855,0
1492488188.493,-184.082,-382.324,212.402,-270.996,77.637,0
1492488188.496,-176.270,-565.430,203.125,-267.090,81.055,0
1492488188.500,-189.941,-652.832,182.617,-253.418,33.203,0
1492488188.504,-217.773,-597.168,152.344,-283.691,37.598,0
1492488188.508,-244.141,-631.348,148.926,-294.922,39.062,0
1492488188.512,-243.652,-690.918,154.785,-273.438,12.207,0
1492488188.516,-235.840,-658.203,171.875,-291.992,18.066,0
1492488188.520,-234.863,-764.648,197.754,-301.270,17.578,0
1492488188.524,-216.309,-940.918,225.098,-314.941,42.480,0
1492488188.528,-180.176,-970.703,225.586,-303.223,17.578,0
1492488188.532,-202.637,-961.914,186.035,-292.969,-18.066,0
1492488188.536,-220.215,-955.078,201.660,-315.430,-2.441,0
1492488188.539,-226.074,-973.145,226.562,-313.965,24.414,0
1492488188.543,-240.234,-812.988,217.285,-310.547,26.855,0
1492488188.547,-231.445,-191.895,219.238,-338.867,41.504,0
1492488188.551,-239.258,211.914,201.660,-371.582,52.246,0
1492488188.555,-211.426,428.223,181.152,-370.605,37.109,0
1492488188.559,-175.293,-929.199,171.875,-349.609,14.160,0
1492488188.563,-166.992,293.945,159.668,-334.473,-0.488,0
1492488188.567,-174.316,-1000.000,153.320,-326.172,-8.789,0
1492488188.571,-188.477,-972.168,144.043,-319.336,29.297,0
1492488188.575,-193.848,189.453,118.652,-319.824,53.711,0
1492488188.579,-174.805,-916.016,102.051,-350.586,36.133,0
1492488188.582,-177.734,957.520,102.051,-366.699,41.992,0
1492488188.586,-209.961,992.188,85.449,-366.211,51.758,0
1492488188.590,-176.270,994.629,72.754,-368.652,50.781,0
1492488188.594,-135.742,981.445,51.270,-381.348,45.410,0
1492488188.598,-166.016,941.895,46.387,-414.062,90.332,0
1492488188.602,-157.227,943.848,111.816,-390.625,96.680,0
1492488188.606,-93.750,-996.094,164.551,-333.008,68.359,0
1492488188.610,-62.012,999.023,162.109,-280.762,66.406,0
1492488188.614,-83.984,998.047,159.668,-284.180,93.750,0
1492488188.618,-134.766,999.512,150.391,-321.289,92.773,0
1492488188.621,-115.723,999.512,133.789,-332.031,93.262,0
1492488188.625,-100.586,999.512,136.230,-353.027,108.398,0
1492488188.629,-114.746,999.512,123.047,-385.742,136.230,0
1492488188.633,-115.723,999.512,97.168,-425.293,133.789,0
1492488188.637,-116.211,999.512,68.848,-441.895,99.121,0
1492488188.641,-114.746,999.512,32.715,-453.613,127.441,0
1492488188.645,-129.883,999.512,4.395,-485.352,130.859,0
1492488188.649,-173.828,999.512,-36.621,-484.375,116.211,0
1492488188.653,-216.797,999.512,-106.445,-487.793,105.957,0
1492488188.657,-226.562,999.512,-138.672,-546.875,104.492,0
1492488188.661,-232.910,999.512,-165.527,-573.730,118.652,0
1492488188.664,-242.188,999.512,-186.523,-564.941,120.605,0
1492488188.668,-235.352,999.512,-187.012,-595.703,119.629,0
1492488188.672,-223.633,999.512,-207.031,-601.074,179.199,0
1492488188.676,-232.910,999.512,-214.355,-587.402,158.203,0
1492488188.680,-231.445,999.512,-219.238,-587.891,152.832,0
1492488188.684,-182.617,999.512,-220.215,-564.453,178.711,0
1492488188.688,-121.094,999.512,-184.082,-539.551,174.805,0
1492488188.692,-76.660,999.512,-143.555,-492.676,166.016,0
1492488188.696,-8.301,999.512,-115.234,-436.035,125.000,0
1492488188.700,10.742,999.512,-107.422,-455.566,151.367,0
1492488188.704,90.820,999.512,-64.941,-432.617,179.199,0
1492488188.707,228.027,999.512,45.898,-298.828,119.141,0
1492488188.711,288.086,999.512,77.148,-256.348,61.035,0
1492488188.715,278.320,999.512,30.762,-292.480,102.051,0
1492488188.719,236.816,999.512,-18.066,-317.871,134.766,0
1492488188.723,251.465,984.375,-73.242,-366.699,128.418,0
1492488188.727,231.934,-953.613,-162.598,-435.059,139.648,0
1492488188.731,107.422,775.391,-303.711,-579.102,145.020,0
1492488188.735,-61.035,682.617,-431.641,-744.629,139.160,0
1492488188.739,-22.949,758.789,-384.277,-679.688,142.090,0
1492488188.743,-2.930,-314.453,-315.918,-668.457,159.180,0
1492488188.746,-387.207,-1000.000,-697.266,-920.410,133.789,0
1492488188.750,-720.703,-904.785,-991.699,-979.492,87.402,0
1492488188.754,-837.891,-797.363,-955.566,-957.520,50.293,0
1492488188.758,-959.961,-660.156,-963.379,-968.750,37.598,0
1492488188.762,-968.262,-433.105,-968.262,-967.285,99.609,0
1492488188.766,-919.434,-647.461,-969.238,-967.773,101.562,0
1492488188.770,-930.664,-998.047,-954.102,-964.355,70.801,0
1492488188.774,-1000.000,-959.473,-981.445,-965.332,86.914,0
1492488188.778,-726.074,-961.426,-903.809,-977.051,119.629,0
1492488188.782,-191.406,-968.262,-521.484,-840.820,139.648,0
1492488188.786,-158.203,-967.285,-507.812,-831.543,137.207,0
1492488188.789,-706.055,-967.285,-900.879,-974.121,96.680,0
1492488188.793,-1000.000,-966.797,-984.375,-967.773,59.570,0
1492488188.797,-947.754,-966.797,-952.637,-963.379,20.508,0
1492488188.801,-965.820,-967.285,-969.727,-968.262,31.738,0
1492488188.805,-967.773,-967.285,-967.285,-967.285,28.320,0
1492488188.809,-966.797,-967.285,-967.285,-967.285,12.695,0
1492488188.813,-966.797,-967.285,-967.285,-967.285,3.418,0
1492488188.817,-966.797,-966.797,-966.797,-966.797,-5.371,0
1492488188.821,-967.285,-967.285,-966.797,-966.797,29.785,0
1492488188.825,-967.285,-967.285,-967.285,-967.285,36.133,0
1492488188.829,-967.285,-967.285,-967.285,-966.797,18.555,0
1492488188.832,-967.285,-967.285,-967.285,-966.797,35.645,0
1492488188.836,-966.797,-967.285,-967.285,-967.285,66.895,0
1492488188.840,-967.285,-967.285,-967.285,-967.285,87.402,0
1492488188.844,-967.285,-967.285,-967.285,-967.285,69.824,0
1492488188.848,-967.285,-966.797,-966.797,-967.285,54.688,0
1492488188.852,-966.797,-966.797,-966.797,-966.797,83.496,0
1492488188.856,-966.797,-966.797,-967.285,-967.285,58.594,0
1492488188.860,-967.285,-966.797,-966.797,-967.285,37.109,0
1492488188.864,-967.285,-966.797,-967.285,-966.797,54.199,0
1492488188.868,-966.797,-966.797,-967.285,-966.797,50.781,0
1492488188.871,-966.797,-966.797,-967.285,-967.285,71.777,0
1492488188.875,-966.797,-967.285,-966.797,-966.797,79.102,0
1492488188.879,-967.285,-967.285,-967.285,-966.797,67.871,0
1492488188.883,-966.797,-966.797,-967.285,-966.797,84.961,0
1492488188.887,-967.285,-967.285,-967.285,-967.285,83.008,0
1492488188.891,-967.285,-966.797,-967.285,-966.797,59.082,0
1492488188.895,-967.285,-966.797,-966.797,-967.285,51.758,0
1492488188.899,-970.215,-967.285,-968.262,-967.285,70.801,0
1492488188.903,-923.828,-967.285,-966.797,-971.191,51.270,0
1492488188.907,-1000.000,-967.285,-922.852,-953.125,24.902,0
1492488188.911,-586.426,-967.285,-1000.000,-989.746,101.074,0
1492488188.914,613.770,-967.285,-313.477,-827.148,175.293,0
1492488188.918,-965.332,-967.285,903.809,-711.914,182.617,0
1492488188.922,964.355,-967.285,-975.586,126.953,177.734,0
1492488188.926,998.535,-967.285,960.449,-939.941,151.855,0
1492488188.930,-999.512,-967.285,-991.699,995.605,140.625,0
1492488188.934,999.512,-974.121,999.512,926.270,126.953,0
1492488188.938,999.512,-937.988,999.512,888.672,112.793,0
1492488188.942,999.512,-957.520,999.512,-996.582,136.230,0
1492488188.946,999.512,-1000.000,999.512,-997.070,155.762,0
1492488188.950,999.512,245.605,999.512,995.117,130.859,0
1492488188.954,999.512,-870.605,999.512,-1000.000,150.391,0
1492488188.957,999.512,938.965,999.512,999.512,228.516,0
1492488188.961,999.512,-1000.000,999.512,999.512,205.078,0
1492488188.965,999.512,-993.164,999.512,999.512,167.480,0
1492488188.969,999.512,968.262,999.512,999.512,159.180,0
1492488188.973,999.512,-998.535,999.512,999.512,149.902,0
1492488188.977,999.512,985.840,999.512,999.512,152.344,0
1492488188.981,999.512,-238.770,999.512,999.512,122.559,0
1492488188.985,999.512,-1000.000,999.512,999.512,79.590,0
1492488188.989,999.512,-915.527,999.512,999.512,79.590,0
1492488188.993,999.512,-964.844,999.512,999.512,80.566,0
1492488188.996,999.512,-968.750,999.512,999.512,33.691,0
1492488189.000,999.512,-966.797,999.512,999.512,68.848,0
1492488189.004,999.512,-966.797,999.512,999.512,113.770,0
1492488189.008,999.512,-967.285,999.512,999.512,60.547,0
1492488189.012,999.512,-967.285,999.512,999.512,81.055,0
1492488189.016,999.512,-967.285,999.512,999.512,147.949,0
1492488189.020,999.512,-967.285,999.512,999.512,153.320,0
1492488189.024,999.512,-967.285,999.512,999.512,145.020,0
1492488189.028,999.512,-967.285,999.512,999.512,96.191,0
1492488189.032,999.512,-967.285,999.512,999.512,10.254,0
1492488189.036,999.512,-967.285,999.512,999.512,0.488,0
1492488189.039,999.512,-967.285,999.512,999.512,23.438,0
1492488189.043,999.512,-967.285,-998.047,999.512,43.945,0
1492488189.047,999.512,-967.285,989.258,999.023,109.375,0
1492488189.051,999.512,-967.285,955.078,999.512,117.188,0
1492488189.055,999.512,-967.285,-862.793,999.512,77.148,0
1492488189.059,999.512,-967.285,99.609,997.070,-7.812,0
1492488189.063,999.512,-967.285,-374.023,998.535,-11.230,0
1492488189.067,999.512,-967.285,920.898,999.512,198.242,0
1492488189.071,999.512,-967.285,-944.336,999.023,398.438,0
1492488189.075,999.512,-967.285,949.707,999.512,510.254,0
1492488189.079,999.512,-967.285,-988.770,-998.535,692.383,0
1492488189.082,-1000.000,-967.285,999.512,987.305,906.250,0
1492488189.086,936.523,-967.285,999.512,955.566,-998.047,0
1492488189.090,-862.305,-967.285,999.512,-883.301,992.676,0
1492488189.094,220.215,-966.797,999.512,16.113,-998.535,0
1492488189.098,-1000.000,-967.285,999.512,-1000.000,974.609,0
1492488189.102,-950.684,-967.285,999.512,-923.828,961.426,0
1492488189.106,-939.941,-966.797,999.512,-955.078,584.961,0
1492488189.110,-973.633,-966.797,999.512,-969.238,434.570,0
1492488189.114,-967.285,-966.797,999.512,-967.285,848.145,0
1492488189.118,-966.797,-966.797,999.512,-967.285,879.883,0
1492488189.121,-966.797,-966.797,999.512,-967.285,985.840,0
1492488189.125,-966.797,-966.797,999.512,-967.285,-993.652,0
1492488189.129,-967.285,-967.285,999.512,-967.285,994.629,0
1492488189.133,-966.797,-967.285,999.512,-967.285,-1000.000,0
1492488189.137,-966.797,-966.797,999.512,-967.285,-998.535,0
1492488189.141,-967.285,-967.285,999.512,-967.285,996.582,0
1492488189.145,-967.285,-967.285,999.512,-967.285,950.195,0
1492488189.149,-967.285,-966.797,999.512,-967.285,-905.762,0
1492488189.153,-967.285,-966.797,999.512,-967.285,249.023,0
1492488189.157,-967.285,-967.285,999.512,-966.797,-960.938,0
1492488189.161,-967.285,-966.797,999.512,-966.797,-967.285,0
1492488189.164,-967.285,-966.797,999.512,-967.285,-936.523,0
1492488189.168,-967.285,-966.797,999.512,-966.797,-974.609,0
1492488189.172,-967.285,-966.797,999.512,-966.797,-966.797,0
1492488189.176,-967.285,-967.285,999.512,-967.285,-966.797,0
1492488189.180,-967.285,-967.285,999.512,-966.797,-967.285,0
1492488189.184,-967.285,-966.797,999.512,-966.797,-966.797,0
1492488189.188,-967.285,-967.285,999.512,-967.285,-966.797,0
1492488189.192,-967.285,-966.797,999.512,-967.285,-966.797,0
1492488189.196,-966.797,-967.285,-985.352,-966.797,-966.797,0
1492488189.200,-966.797,-966.797,929.199,-966.797,-967.285,0
1492488189.204,-967.285,-967.285,-895.508,-967.285,-967.285,0
1492488189.207,-966.797,-967.285,651.855,-967.285,-966.797,0
1492488189.211,-966.797,-967.285,-792.480,-967.285,-966.797,0
1492488189.215,-967.285,-967.285,-1000.000,-966.797,-966.797,0
1492488189.219,-967.285,-967.285,-907.227,-967.285,-968.262,0
1492488189.223,-967.285,-966.797,-982.422,-967.285,-960.938,0
1492488189.227,-966.797,-967.285,-967.285,-966.797,-970.703,0
1492488189.231,-966.797,-967.285,-967.285,-967.285,-974.121,0
1492488189.235,-966.797,-966.797,-966.797,-966.797,-774.414,0
1492488189.239,-967.285,-966.797,-966.797,-966.797,-826.172,0
1492488189.243,-967.285,-967.285,-967.285,-967.285,-1000.000,0
1492488189.246,-967.285,-967.285,-967.285,-967.285,-888.672,0
1492488189.250,-967.285,-967.285,-967.285,-966.797,-830.566,0
1492488189.254,-967.285,-966.797,-966.797,-966.797,-906.738,0
1492488189.258,-966.797,-966.797,-967.285,-967.285,-795.410,0
1492488189.262,-967.285,-967.285,-967.285,-967.285,-632.812,0
1492488189.266,-967.285,-967.285,-967.285,-967.285,-570.312,0
1492488189.270,-966.797,-967.285,-967.285,-967.285,-685.547,0
1492488189.274,-967.285,-967.285,-967.285,-967.285,-754.883,0
1492488189.278,-967.285,-967.285,-966.797,-966.797,-426.270,0
1492488189.282,-967.285,-967.285,-967.285,-967.285,-401.855,0
1492488189.286,-967.285,-966.797,-967.285,-967.285,-696.777,0
1492488189.289,-967.285,-966.797,-966.797,-966.797,-496.582,0
1492488189.293,-967.285,-967.285,-966.797,-966.797,-284.180,0
1492488189.297,-967.285,-966.797,-967.285,-967.285,-413.574,0
1492488189.301,-967.285,-967.285,-967.285,-967.285,-436.035,0
1492488189.305,-966.797,-966.797,-967.285,-967.285,-249.512,0
1492488189.309,-966.797,-966.797,-966.797,-967.285,-104.980,0
1492488189.313,-966.797,-967.285,-967.285,-967.285,-191.895,0
1492488189.317,-967.285,-966.797,-967.285,-967.285,-259.277,0
1492488189.321,-967.285,-966.797,-967.285,-967.285,-166.504,0
1492488189.325,-967.285,-967.285,-967.285,-966.797,-20.508,0
1492488189.329,-967.285,-967.285,-967.285,-966.797,-196.289,0
1492488189.332,-967.285,-967.285,-967.285,-967.285,-242.188,0
1492488189.336,-966.797,-966.797,-967.285,-967.285,51.270,0
1492488189.340,-966.797,-966.797,-967.285,-966.797,-16.113,0
1492488189.344,-966.797,-966.797,-966.797,-966.797,-106.934,0
1492488189.348,-967.285,-966.797,-967.285,-966.797,-77.148,0
1492488189.352,-967.285,-967.285,-967.285,-966.797,39.551,0
1492488189.356,-967.285,-967.285,-966.797,-966.797,47.363,0
1492488189.360,-967.285,-967.285,-966.797,-966.797,-91.309,0
1492488189.364,-967.285,-966.797,-967.285,-967.285,-112.793,0
1492488189.368,-967.285,-967.285,-967.285,-967.285,54.199,0
1492488189.371,-966.797,-967.285,-966.797,-967.285,76.660,0
1492488189.375,-966.797,-966.797,-966.797,-966.797,-223.145,0
1492488189.379,-967.285,-966.797,-967.285,-967.285,-113.281,0
1492488189.383,-967.285,-967.285,-967.285,-967.285,69.824,0
1492488189.387,-967.285,-967.285,-967.285,-966.797,-37.598,0
1492488189.391,-966.797,-967.285,-967.285,-966.797,-123.047,0
1492488189.395,-967.285,-967.285,-967.285,-967.285,116.211,0
1492488189.399,-966.797,-966.797,-967.285,-967.285,99.609,0
1492488189.403,-966.797,-966.797,-966.797,-967.285,-98.145,0
1492488189.407,-967.285,-966.797,-966.797,-966.797,11.719,0
1492488189.411,-966.797,-966.797,-967.285,-966.797,-1.465,0
1492488189.414,-967.285,-967.285,-967.285,-967.285,129.395,0
1492488189.418,-967.285,-967.285,-967.285,-966.797,11.719,0
1492488189.422,-966.797,-966.797,-966.797,-967.285,-166.992,0
1492488189.426,-966.797,-967.285,-966.797,-966.797,74.219,0
1492488189.430,-966.797,-966.797,-966.797,-967.285,68.848,0
1492488189.434,-966.797,-966.797,-966.797,-967.285,-61.035,0
1492488189.438,-967.285,-966.797,-966.797,-967.285,-59.082,0
1492488189.442,-967.285,-966.797,-966.797,-967.285,74.707,0
1492488189.446,-966.797,-966.797,-966.797,-966.797,118.164,0
1492488189.450,-966.797,-966.797,-967.285,-966.797,36.133,0
1492488189.454,-967.285,-967.285,-967.285,-966.797,48.828,0
1492488189.457,-966.797,-966.797,-967.285,-967.285,151.855,0
1492488189.461,-966.797,-966.797,-967.285,-952.148,67.871,0
1492488189.465,-967.285,-967.285,-971.191,-974.609,-150.879,0
1492488189.469,-967.285,-966.797,-948.242,-1000.000,-19.531,0
1492488189.473,-967.285,-966.797,-937.012,-481.934,351.562,0
1492488189.477,-966.797,-966.797,-1000.000,-765.137,737.305,0
1492488189.481,-967.285,-966.797,106.445,-928.711,908.691,0
1492488189.485,-967.285,-967.285,-877.441,511.230,992.676,0
1492488189.489,-967.285,-967.285,948.730,-762.695,923.340,0
1492488189.493,-966.797,-967.285,992.188,133.301,761.719,0
1492488189.496,-966.797,-967.285,-999.023,-1000.000,132.324,0
1492488189.500,-966.797,-967.285,999.512,-947.754,-281.250,0
1492488189.504,-966.797,-966.797,999.512,-941.406,-46.387,0
1492488189.508,-967.285,-966.797,999.512,-973.145,-217.773,0
1492488189.512,-967.285,-966.797,999.512,-967.285,-637.695,0
1492488189.516,-967.285,-967.285,999.512,-967.285,-528.320,0
1492488189.520,-966.797,-967.285,999.512,-967.285,-577.148,0
1492488189.524,-966.797,-967.285,999.512,-966.797,-683.105,0
1492488189.528,-967.285,-966.797,999.512,-967.285,-537.109,0
1492488189.532,-966.797,-966.797,999.512,-967.285,-425.293,0
1492488189.536,-966.797,-967.285,999.512,-966.797,-467.285,0
1492488189.539,-967.285,-966.797,999.512,-966.797,-513.672,0
1492488189.543,-967.285,-967.285,999.512,-967.285,-491.699,0
1492488189.547,-967.285,-967.285,999.512,-967.285,-222.656,0
1492488189.551,-967.285,-967.285,999.512,-970.215,-196.289,0
1492488189.555,-967.285,-966.797,999.512,-925.293,-436.035,0
1492488189.559,-966.797,-967.285,999.512,-1000.000,-252.441,0
1492488189.563,-966.797,-966.797,999.512,-367.188,-85.449,0
1492488189.567,-966.797,-966.797,999.512,-235.840,-151.855,0
1492488189.571,-967.285,-967.285,999.512,-1000.000,-126.465,0
1492488189.575,-967.285,-967.285,999.512,-953.613,-74.219,0
1492488189.579,-967.285,-967.285,999.512,-954.102,-81.543,0
1492488189.582,-967.285,-967.285,999.512,-967.773,-103.027,0
1492488189.586,-966.797,-967.285,999.512,-967.285,-161.133,0
1492488189.590,-967.285,-967.285,999.512,-967.285,-97.656,0
1492488189.594,-967.285,-967.285,999.512,-967.285,-32.715,0
1492488189.598,-966.797,-966.797,999.512,-967.285,-79.590,0
1492488189.602,-967.285,-967.285,999.512,-967.285,-165.039,0
1492488189.606,-967.285,-967.285,999.512,-967.285,-54.688,0
1492488189.610,-967.285,-967.285,999.512,-967.285,73.730,0
1492488189.614,-967.285,-967.285,999.512,-967.285,-238.770,0
1492488189.618,-967.285,-966.797,999.512,-967.285,-278.320,0
1492488189.621,-967.285,-966.797,999.512,-967.285,32.715,0
1492488189.625,-967.285,-966.797,999.512,-966.797,3.906,0
1492488189.629,-966.797,-967.285,999.512,-966.797,-27.344,0
1492488189.633,-967.285,-967.285,999.512,-967.285,84.473,0
1492488189.637,-966.797,-967.285,999.512,-967.285,145.020,0
1492488189.641,-966.797,-967.285,999.512,-966.797,135.742,0
1492488189.645,-967.285,-966.797,999.512,-967.285,-48.828,0
1492488189.649,-966.797,-967.285,999.512,-967.285,-112.305,0
1492488189.653,-966.797,-967.285,999.512,-967.285,52.734,0
1492488189.657,-966.797,-967.285,999.512,-967.285,-149.414,0
1492488189.661,-967.285,-967.285,999.512,-967.285,-563.477,0
1492488189.664,-967.285,-967.285,999.512,-967.285,-234.375,0
1492488189.668,-967.285,-967.285,999.512,-967.285,-321.777,0
1492488189.672,-966.797,-967.285,-989.258,-966.797,-791.992,0
1492488189.676,-967.285,-967.285,953.125,-967.773,-937.012,0
1492488189.680,-967.285,-967.285,-966.797,-966.797,-898.438,0
1492488189.684,-967.285,-967.285,910.156,-960.938,-815.430,0
1492488189.688,-967.285,-966.797,-441.895,-965.332,-291.016,0
1492488189.692,-966.797,-966.797,-1000.000,-968.262,296.875,0
1492488189.696,-967.285,-966.797,-902.832,-966.309,529.297,0
1492488189.700,-967.285,-967.285,-975.098,-967.285,891.113,0
1492488189.704,-967.285,-967.285,-967.285,-966.797,530.273,0
1492488189.707,-972.168,-967.285,-967.285,-968.262,399.414,0
1492488189.711,-946.289,-966.797,-971.191,-961.426,900.879,0
1492488189.715,-944.824,-966.797,-900.391,-914.062,-993.164,0
1492488189.719,-1000.000,-966.797,-1000.000,-1000.000,988.770,0
1492488189.723,127.930,-967.285,-253.418,-91.309,998.535,0
1492488189.727,-891.113,-967.285,-953.613,-909.180,-1000.000,0
1492488189.731,953.125,-966.797,994.141,970.703,999.512,0
1492488189.735,991.211,-966.797,966.797,979.004,999.512,0
1492488189.739,-998.535,-966.797,-992.188,-996.094,999.512,0
1492488189.743,999.512,-967.285,999.512,999.512,999.512,0
1492488189.746,999.512,-967.285,999.512,999.512,999.512,0
1492488189.750,999.512,-967.285,999.512,999.512,999.512,0
1492488189.754,999.512,-967.285,999.512,999.512,999.512,0
1492488189.758,999.512,-967.285,999.512,999.512,999.512,0
1492488189.762,999.512,-967.285,999.512,999.512,999.512,0
1492488189.766,999.512,-967.285,999.512,999.512,999.512,0
1492488189.770,999.512,-967.285,999.512,999.512,999.512,0
1492488189.774,999.512,-967.285,999.512,999.512,999.512,0
1492488189.778,999.512,-967.285,999.512,999.512,999.512,0
1492488189.782,999.512,-967.285,999.512,999.512,999.512,0
1492488189.786,999.512,-967.285,999.512,999.512,999.512,0
1492488189.789,999.512,-967.285,999.512,999.512,999.512,0
1492488189.793,999.512,-967.285,999.512,999.512,999.512,0
1492488189.797,999.512,-967.285,999.512,999.023,999.512,0
1492488189.801,999.512,-967.285,999.512,-1000.000,999.512,0
1492488189.805,999.512,-967.285,999.512,999.023,999.512,0
1492488189.809,999.512,-967.285,999.512,993.164,999.512,0
1492488189.813,999.512,-967.285,999.512,997.559,999.512,0
1492488189.817,999.512,-967.285,999.512,-1000.000,999.512,0
1492488189.821,999.512,-967.285,999.512,999.023,999.512,0
1492488189.825,999.512,-967.285,999.512,999.512,999.512,0
1492488189.829,999.512,-967.285,999.512,999.512,999.512,0
1492488189.832,999.512,-967.285,999.512,999.512,999.512,0
1492488189.836,999.512,-967.285,999.512,999.512,999.512,0
1492488189.840,999.512,-967.285,999.512,999.512,999.512,0
1492488189.844,999.512,-967.285,999.512,999.512,999.512,0
1492488189.848,999.512,-967.285,999.512,999.512,999.512,0
1492488189.852,999.512,-967.285,999.512,999.512,999.512,0
1492488189.856,999.512,-967.285,999.512,999.023,999.512,0
1492488189.860,999.512,-967.285,999.512,999.512,999.512,0
1492488189.864,999.512,-966.797,999.512,999.023,999.512,0
1492488189.868,999.512,-967.285,999.512,996.582,999.512,0
1492488189.871,999.512,-967.285,999.512,998.535,999.512,0
1492488189.875,999.512,-967.285,999.512,999.512,999.512,0
1492488189.879,999.512,-967.285,999.512,999.023,999.512,0
1492488189.883,999.512,-967.285,999.512,999.512,999.512,0
1492488189.887,999.512,-967.285,999.512,999.512,999.512,0
1492488189.891,999.512,-967.773,999.512,999.512,999.512,0
1492488189.895,999.512,-904.297,999.512,999.512,999.512,0
1492488189.899,999.512,-1000.000,999.512,999.512,999.512,0
1492488189.903,999.512,-187.500,999.512,999.512,999.512,0
1492488189.907,999.512,-929.688,999.512,999.512,999.512,0
1492488189.911,999.512,982.910,999.512,999.512,999.512,0
1492488189.914,999.512,972.168,999.512,999.512,999.512,0
1492488189.918,999.512,-994.141,999.512,999.512,999.512,0
1492488189.922,999.512,999.512,999.512,999.512,999.512,0
1492488189.926,999.512,999.512,999.512,999.512,999.512,0
1492488189.930,999.512,999.512,999.512,999.512,999.512,0
1492488189.934,999.512,999.512,999.512,999.512,999.512,0
1492488189.938,999.512,999.512,999.512,999.512,999.512,0
1492488189.942,999.512,999.512,999.512,999.512,999.512,0
1492488189.946,999.512,999.512,999.512,999.512,999.512,0
1492488189.950,999.512,999.512,999.512,999.512,999.512,0
1492488189.954,999.512,999.512,999.512,999.512,999.512,0
1492488189.957,999.512,999.512,999.512,999.512,999.512,0
1492488189.961,999.512,999.512,999.512,999.512,999.512,0
1492488189.965,999.512,999.512,999.512,999.512,999.512,0
1492488189.969,999.512,999.512,999.512,999.512,999.512,0
1492488189.973,999.512,999.512,999.512,999.512,999.512,0
1492488189.977,999.512,999.512,999.512,999.512,999.512,0
1492488189.981,999.512,999.512,999.512,999.512,999.512,0
1492488189.985,999.512,999.512,999.512,999.512,999.512,0
1492488189.989,999.512,999.512,999.512,999.512,999.512,0
1492488189.993,999.512,999.512,999.512,999.512,999.512,0
1492488189.996,999.512,999.512,999.512,999.512,999.512,0
1492488190.000,999.512,-985.840,999.512,999.512,999.512,0
1492488190.004,999.512,937.012,999.512,999.512,999.512,0
1492488190.008,-984.863,-922.852,999.512,999.512,-984.863,0
1492488190.012,931.641,766.602,999.512,999.512,926.270,0
1492488190.016,-905.762,-664.062,999.512,999.512,-887.695,0
1492488190.020,685.059,-1000.000,-989.746,999.512,622.559,0
1492488190.024,-672.363,-902.344,926.758,999.512,-830.078,0
1492488190.028,-1000.000,-981.445,-868.652,999.512,-1000.000,0
1492488190.032,-500.000,-967.285,450.684,999.512,-908.203,0
1492488190.036,866.699,-967.285,-938.965,999.512,-983.398,0
1492488190.039,-947.266,-967.285,-992.188,999.512,-967.285,0
1492488190.043,942.383,-967.285,-921.387,999.512,-967.285,0
1492488190.047,-984.863,-967.285,-979.980,999.512,-967.285,0
1492488190.051,999.512,-967.285,-967.285,999.512,-967.285,0
1492488190.055,999.512,-967.285,-967.285,999.512,-967.285,0
1492488190.059,999.512,-967.285,-967.285,999.512,-967.285,0
1492488190.063,999.512,-967.285,-967.285,-990.234,-967.285,0
1492488190.067,999.512,-967.285,-967.285,958.008,-967.285,0
1492488190.071,999.512,-967.285,-967.285,-982.910,-967.285,0
1492488190.075,999.512,-967.285,-967.285,973.145,-967.285,0
1492488190.079,999.512,-967.285,-967.285,-370.117,-967.285,0
1492488190.082,999.512,-966.797,-967.285,-1000.000,-967.285,0
1492488190.086,999.512,-966.797,-966.797,-899.902,-966.797,0
1492488190.090,999.512,-966.797,-966.797,-974.609,-966.797,0
1492488190.094,999.512,-966.797,-966.797,-967.285,-966.797,0
1492488190.098,999.512,-967.285,-966.797,-966.797,-966.797,0
1492488190.102,999.512,-967.285,-967.285,-966.797,-966.797,0
1492488190.106,999.512,-966.797,-967.285,-967.285,-966.797,0
1492488190.110,999.512,-966.797,-967.285,-966.797,-966.797,0
1492488190.114,999.512,-967.285,-966.797,-967.285,-966.797,0
1492488190.118,999.512,-967.285,-966.797,-967.285,-967.285,0
1492488190.121,999.512,-967.285,-967.285,-967.285,-967.285,0
1492488190.125,999.512,-967.285,-966.797,-967.285,-966.797,0
1492488190.129,999.512,-967.285,-966.797,-966.797,-966.797,0
1492488190.133,999.512,-966.797,-967.285,-967.285,-966.797,0
1492488190.137,999.512,-966.797,-967.285,-966.797,-966.797,0
1492488190.141,999.512,-967.285,-967.285,-966.797,-966.797,0
1492488190.145,999.512,-966.797,-967.285,-967.285,-967.285,0
1492488190.149,999.512,-966.797,-966.797,-967.285,-967.285,0
1492488190.153,999.512,-967.285,-967.285,-967.285,-966.797,0
1492488190.157,999.512,-967.285,-967.285,-966.797,-966.797,0
1492488190.161,999.512,-967.285,-967.285,-967.285,-967.285,0
1492488190.164,999.512,-967.285,-967.285,-967.285,-967.285,0
1492488190.168,999.512,-967.285,-967.285,-967.285,-967.285,0
1492488190.172,999.512,-967.285,-967.285,-967.285,-967.285,0
1492488190.176,999.512,-967.285,-967.285,-966.797,-966.797,0
1492488190.180,999.512,-966.797,-967.285,-966.797,-966.797,0
1492488190.184,999.512,-966.797,-967.285,-967.285,-967.285,0
1492488190.188,999.512,-967.285,-967.285,-967.285,-967.285,0
1492488190.192,999.512,-967.285,-966.797,-967.285,-966.797,0
1492488190.196,999.512,-967.285,-967.285,-966.797,-967.285,0
1492488190.200,999.512,-967.285,-967.285,-967.285,-967.285,0
1492488190.204,999.512,-967.285,-966.797,-966.797,-966.797,0
1492488190.207,999.512,-967.285,-967.285,-966.797,-966.797,0
1492488190.211,999.512,-966.797,-967.285,-966.797,-966.797,0
1492488190.215,999.512,-966.797,-966.797,-967.285,-966.797,0
1492488190.219,999.512,-967.285,-967.285,-967.285,-966.797,0
1492488190.223,999.512,-967.285,-967.285,-966.797,-966.797,0
1492488190.227,999.512,-967.285,-967.285,-966.797,-966.797,0
1492488190.231,999.512,-967.285,-967.285,-966.797,-966.797,0
