timestamps,TP9,AF7,AF8,TP10,Right AUX,Marker0
1492418502.224,33.203,25.391,23.438,16.602,16.602,0
1492418502.228,44.922,28.809,22.461,16.602,14.648,0
1492418502.232,58.594,35.645,26.855,32.715,42.969,0
1492418502.236,58.594,35.156,33.691,33.691,31.250,0
1492418502.239,59.570,31.738,39.062,42.969,4.395,0
1492418502.243,56.152,39.551,48.828,60.547,5.859,0
1492418502.247,38.574,33.203,45.898,62.012,21.484,0
1492418502.251,34.668,23.926,39.062,59.082,32.227,0
1492418502.255,40.039,33.203,44.922,63.477,36.621,0
1492418502.259,30.762,32.227,48.828,63.477,25.391,0
1492418502.263,26.855,29.297,43.457,54.199,-4.395,0
1492418502.267,30.273,28.320,38.086,55.176,22.949,0
1492418502.271,30.762,21.484,34.668,59.570,13.672,0
1492418502.275,25.391,21.484,28.320,55.664,0.977,0
1492418502.279,27.344,22.949,29.785,54.688,0.000,0
1492418502.282,23.926,15.625,29.297,49.805,15.137,0
1492418502.286,19.531,12.207,26.367,44.922,42.969,0
1492418502.290,16.113,12.207,21.484,40.527,8.301,0
1492418502.294,10.254,10.742,19.531,32.227,-10.254,0
1492418502.298,13.672,8.789,18.555,31.250,22.949,0
1492418502.302,13.672,6.348,16.113,28.809,40.527,0
1492418502.306,12.207,8.789,18.066,20.996,22.461,0
1492418502.310,11.719,13.184,21.484,24.414,3.906,0
1492418502.314,3.418,12.207,20.508,24.414,26.367,0
1492418502.318,0.000,13.184,20.020,17.090,33.691,0
1492418502.321,0.977,14.160,21.484,20.996,0.488,0
1492418502.325,-0.977,9.277,21.973,17.090,-12.695,0
1492418502.329,7.324,11.230,23.438,23.438,-0.977,0
1492418502.333,16.113,13.184,21.973,30.762,9.277,0
1492418502.337,16.113,15.137,20.996,30.273,-6.836,0
1492418502.341,16.602,17.578,20.996,34.180,-2.441,0
1492418502.345,19.531,17.090,22.949,39.062,7.324,0
1492418502.349,26.367,20.508,22.461,42.969,-0.977,0
1492418502.353,28.320,20.996,21.973,45.898,-12.695,0
1492418502.357,29.297,18.066,17.578,39.551,-14.160,0
1492418502.361,26.367,14.648,16.602,30.762,23.926,1
1492418502.364,20.020,8.301,17.090,26.367,50.293,0
1492418502.368,19.531,4.883,15.625,21.973,38.574,0
1492418502.372,18.555,6.348,15.137,22.949,24.414,0
1492418502.376,24.902,11.230,20.996,28.809,31.250,0
1492418502.380,29.785,17.090,29.785,33.691,10.254,0
1492418502.384,28.809,22.949,28.320,36.133,20.996,0
1492418502.388,32.715,24.414,26.367,33.203,50.293,0
1492418502.392,35.645,19.043,25.879,24.414,26.855,0
1492418502.396,37.598,19.043,29.785,25.879,-2.930,0
1492418502.400,27.832,20.508,30.762,28.320,19.043,0
1492418502.404,20.996,14.648,21.484,20.996,38.574,0
1492418502.407,21.973,11.230,18.066,18.066,21.973,0
1492418502.411,21.973,8.301,19.043,17.578,11.230,0
1492418502.415,24.902,6.836,20.508,13.672,25.391,0
1492418502.419,21.484,11.719,25.879,18.066,24.414,0
1492418502.423,24.414,13.184,24.414,22.461,20.508,0
1492418502.427,24.414,13.184,20.996,20.508,24.414,0
1492418502.431,18.555,6.348,17.090,18.066,19.531,0
1492418502.435,17.578,5.859,16.113,16.602,23.926,0
1492418502.439,16.602,15.137,17.578,17.090,9.766,0
1492418502.443,12.207,13.184,12.695,18.066,-13.672,0
1492418502.446,17.578,10.742,16.602,20.996,37.109,0
1492418502.450,28.320,16.602,23.438,25.391,50.293,0
1492418502.454,25.879,24.414,23.438,29.297,2.441,0
1492418502.458,31.250,26.855,28.809,40.527,10.254,0
1492418502.462,40.039,34.180,37.598,51.758,24.902,0
1492418502.466,34.180,36.621,40.039,48.340,23.438,0
1492418502.470,33.691,30.762,36.621,37.598,39.062,0
1492418502.474,43.945,29.785,33.691,42.480,36.133,0
1492418502.478,38.086,32.227,34.180,48.340,44.434,0
1492418502.482,33.203,25.391,29.297,43.945,33.203,0
1492418502.486,34.180,17.090,27.832,37.598,2.441,0
1492418502.489,34.668,19.531,28.320,33.203,15.625,0
1492418502.493,42.969,25.391,28.809,35.156,38.574,0
1492418502.497,45.898,28.809,30.273,39.551,19.043,0
1492418502.501,44.434,25.391,29.785,42.969,-2.930,0
1492418502.505,37.109,20.020,27.832,40.527,9.277,0
1492418502.509,36.133,23.926,30.762,42.480,31.250,0
1492418502.513,42.480,28.809,35.645,46.387,8.789,0
1492418502.517,41.992,29.785,32.715,40.039,33.691,0
1492418502.521,40.039,34.180,34.180,46.387,45.898,0
1492418502.525,49.316,41.992,38.086,52.246,42.480,0
1492418502.529,50.781,41.992,43.457,49.805,24.902,0
1492418502.532,42.480,38.574,47.363,50.781,0.000,0
1492418502.536,42.480,36.621,44.922,48.828,33.691,0
1492418502.540,44.922,36.621,47.852,48.828,34.180,0
1492418502.544,42.969,42.480,50.781,46.875,28.809,0
1492418502.548,41.504,40.039,46.875,38.574,36.621,0
1492418502.552,41.504,38.574,47.363,42.480,16.602,0
1492418502.556,44.434,45.898,50.293,55.664,12.695,0
1492418502.560,45.410,41.504,44.922,51.758,11.719,0
1492418502.564,36.621,27.832,37.598,44.922,39.551,0
1492418502.568,36.621,31.250,35.156,46.875,47.363,0
1492418502.571,45.410,39.551,41.992,55.176,10.254,0
1492418502.575,39.062,29.785,43.945,61.523,-17.578,0
1492418502.579,34.668,20.996,42.969,61.523,-17.090,0
1492418502.583,38.574,23.438,42.969,57.129,33.203,0
1492418502.587,40.039,42.969,47.852,57.617,39.551,0
1492418502.591,44.922,50.781,50.781,59.082,-4.883,0
1492418502.595,41.992,37.598,38.574,49.805,17.090,0
1492418502.599,39.551,33.691,30.762,43.945,47.363,0
1492418502.603,44.922,35.645,38.574,56.641,16.113,0
1492418502.607,50.781,37.598,42.969,68.848,-4.883,0
1492418502.611,49.805,32.227,40.039,61.523,30.273,0
1492418502.614,49.805,23.438,42.969,56.152,38.574,0
1492418502.618,57.617,27.832,45.410,57.617,11.230,0
1492418502.622,64.453,31.250,47.852,57.617,7.324,0
1492418502.626,57.617,33.203,48.340,62.012,36.621,0
1492418502.630,53.223,38.086,46.387,65.918,29.785,0
1492418502.634,50.293,37.109,45.898,70.801,-5.859,0
1492418502.638,41.504,36.133,38.086,63.965,-10.254,0
1492418502.642,51.758,35.156,33.691,50.293,20.508,0
1492418502.646,59.082,33.691,36.621,49.805,23.926,0
1492418502.650,53.711,25.879,31.250,44.922,15.625,0
1492418502.654,42.969,15.625,23.438,39.062,46.387,0
1492418502.657,44.434,22.461,32.227,49.805,59.570,0
1492418502.661,49.316,31.250,40.039,52.734,33.203,0
1492418502.665,44.922,26.367,36.621,49.805,16.113,0
1492418502.669,44.434,25.879,41.504,52.246,20.508,0
1492418502.673,48.828,31.738,45.898,53.711,31.738,0
1492418502.677,46.387,32.227,40.527,42.969,45.898,0
1492418502.681,36.621,30.273,40.527,41.016,23.926,0
1492418502.685,28.809,21.484,36.133,43.457,13.184,0
1492418502.689,19.043,18.066,29.297,40.527,46.387,0
1492418502.693,10.742,9.766,28.809,35.156,53.711,0
1492418502.696,8.789,3.906,28.809,31.738,21.484,0
1492418502.700,11.719,11.230,31.250,44.434,24.414,0
1492418502.704,13.184,7.324,29.297,44.922,44.922,0
1492418502.708,17.578,8.789,30.762,42.969,42.969,0
1492418502.712,20.508,17.090,32.227,47.363,28.320,0
1492418502.716,18.555,11.719,31.250,43.945,10.742,0
1492418502.720,16.602,6.348,26.855,40.039,40.039,0
1492418502.724,19.531,11.719,26.855,41.016,63.965,0
1492418502.728,24.414,17.090,30.762,43.945,41.504,0
1492418502.732,25.391,20.996,25.391,43.457,45.410,0
1492418502.736,34.668,29.785,29.785,54.688,33.691,0
1492418502.739,37.598,36.133,38.086,63.477,5.859,0
1492418502.743,41.016,25.391,39.551,63.477,30.273,0
1492418502.747,42.969,16.113,33.691,61.523,41.016,0
1492418502.751,42.969,17.090,32.227,55.176,-11.230,0
1492418502.755,40.039,9.766,33.691,53.711,-20.020,0
1492418502.759,31.250,14.648,29.297,48.340,-9.766,0
1492418502.763,24.902,24.902,27.832,44.434,-19.531,0
1492418502.767,30.762,21.973,26.855,44.434,2.930,0
1492418502.771,38.574,21.973,28.809,43.457,-11.230,0
1492418502.775,39.062,16.113,25.391,40.039,1.465,0
1492418502.779,39.062,12.695,22.461,38.086,39.062,0
1492418502.782,52.734,29.297,36.133,56.152,12.207,0
1492418502.786,67.871,37.109,45.410,71.777,-1.465,0
1492418502.790,57.617,31.738,47.363,65.430,17.578,0
1492418502.794,49.805,37.598,50.781,62.988,21.484,0
1492418502.798,63.477,41.504,49.805,69.336,42.480,0
1492418502.802,76.660,39.551,52.246,78.613,30.762,0
1492418502.806,72.754,38.086,55.176,85.449,-2.930,0
1492418502.810,80.566,39.062,59.570,93.750,5.371,0
1492418502.814,93.262,48.340,67.383,103.027,1.953,0
1492418502.818,83.496,43.945,68.848,104.004,0.000,0
1492418502.821,68.848,35.156,64.941,95.703,24.902,0
1492418502.825,72.266,42.969,60.547,93.750,51.758,0
1492418502.829,81.055,46.387,59.570,100.098,34.668,0
1492418502.833,81.543,47.363,61.035,103.516,40.527,0
1492418502.837,74.219,37.109,57.129,91.797,42.480,0
1492418502.841,73.730,29.297,54.199,84.473,0.488,0
1492418502.845,68.359,39.062,49.316,80.078,-5.859,0
1492418502.849,62.988,33.203,42.480,73.730,31.250,0
1492418502.853,60.547,22.949,41.016,71.777,21.484,0
1492418502.857,52.246,21.973,40.527,74.219,21.973,0
1492418502.861,66.406,22.461,40.039,81.543,-2.441,0
1492418502.864,81.055,30.762,41.016,83.008,-23.438,0
1492418502.868,78.613,32.227,41.016,81.543,16.602,0
1492418502.872,76.172,31.738,46.875,87.891,23.926,0
1492418502.876,83.496,40.527,52.734,97.656,18.066,0
1492418502.880,92.773,40.039,52.246,96.191,18.555,0
1492418502.884,89.844,41.992,57.129,101.074,12.695,0
1492418502.888,75.195,41.504,57.617,100.098,10.742,0
1492418502.892,82.520,34.180,54.199,93.262,18.066,0
1492418502.896,95.703,38.086,54.199,93.750,20.508,0
1492418502.900,90.332,44.922,58.594,99.121,-4.883,0
1492418502.904,85.938,49.316,61.523,99.121,4.395,0
1492418502.907,86.914,52.246,62.500,96.191,9.277,0
1492418502.911,94.727,54.688,64.453,90.820,2.930,0
1492418502.915,98.145,49.805,62.988,79.102,34.668,0
1492418502.919,99.121,43.945,60.059,72.754,17.090,0
1492418502.923,99.609,39.062,56.152,75.195,8.301,0
1492418502.927,92.773,33.203,57.129,82.520,59.570,0
1492418502.931,91.797,39.062,55.176,83.984,59.570,0
1492418502.935,87.891,45.410,55.664,92.773,34.180,0
1492418502.939,73.730,41.016,58.594,101.562,40.039,0
1492418502.943,62.988,32.227,57.129,95.703,36.133,0
1492418502.946,56.641,17.578,54.688,91.309,13.184,0
1492418502.950,41.504,16.602,55.664,94.238,1.953,0
1492418502.954,38.574,27.832,57.617,97.168,11.719,0
1492418502.958,37.109,20.996,53.711,92.285,41.504,0
1492418502.962,34.180,19.531,60.059,99.121,35.645,0
1492418502.966,33.203,26.367,64.941,101.562,5.371,0
1492418502.970,38.574,28.809,64.941,99.609,12.695,0
1492418502.974,47.852,23.438,70.312,104.980,29.785,0
1492418502.978,46.875,20.508,67.383,99.121,0.977,0
1492418502.982,56.641,25.879,63.477,90.820,-5.371,0
1492418502.986,60.547,26.367,66.895,89.355,14.160,0
1492418502.989,54.199,26.367,66.895,89.844,11.719,0
1492418502.993,55.664,29.297,64.453,86.426,-6.836,0
1492418502.997,61.523,32.227,62.012,77.637,12.207,0
1492418503.001,66.895,31.250,62.500,79.590,38.086,0
1492418503.005,63.965,31.250,66.895,84.961,32.715,0
1492418503.009,62.988,34.180,64.941,81.543,5.371,0
1492418503.013,69.824,38.574,62.988,78.613,15.137,0
1492418503.017,73.730,40.039,62.500,79.102,15.137,0
1492418503.021,64.453,37.598,64.453,84.473,5.859,0
1492418503.025,62.988,38.574,61.523,80.566,13.672,0
1492418503.029,72.266,42.969,58.105,81.543,5.371,0
1492418503.032,77.148,40.039,54.199,85.449,19.531,0
1492418503.036,70.312,28.809,52.734,80.566,31.738,0
1492418503.040,63.477,27.344,55.664,82.031,3.906,0
1492418503.044,65.430,31.250,51.758,82.520,-4.883,0
1492418503.048,66.406,27.832,48.828,79.102,-10.742,0
1492418503.052,69.336,29.297,46.875,67.871,-14.648,0
1492418503.056,64.453,34.668,49.805,61.035,-18.066,0
1492418503.060,61.035,32.715,50.293,64.941,-12.695,0
1492418503.064,63.965,38.574,48.340,68.359,25.391,0
1492418503.068,55.176,38.574,45.898,64.941,34.668,0
1492418503.071,47.852,27.832,44.434,68.359,9.277,0
1492418503.075,46.875,30.273,45.410,69.336,16.602,0
1492418503.079,46.387,36.133,43.457,59.570,36.621,0
1492418503.083,47.363,41.016,43.457,62.988,8.301,0
1492418503.087,44.434,49.316,42.969,66.895,-3.418,0
1492418503.091,38.574,43.945,35.645,58.594,3.906,0
1492418503.095,30.273,35.645,34.180,56.152,0.977,0
1492418503.099,32.227,37.598,40.527,58.105,20.020,0
1492418503.103,41.992,41.016,43.945,53.223,38.574,0
1492418503.107,36.621,48.340,45.898,51.758,19.043,0
1492418503.111,22.461,45.410,44.922,50.293,5.859,0
1492418503.114,26.855,45.410,44.434,48.828,25.391,0
1492418503.118,42.969,48.828,48.340,53.711,17.090,0
1492418503.122,46.387,48.340,53.223,55.176,27.832,0
1492418503.126,38.086,49.316,52.734,53.223,25.391,0
1492418503.130,26.855,53.223,48.828,49.805,2.930,0
1492418503.134,23.926,48.340,48.828,47.363,-3.418,0
1492418503.138,21.973,39.551,45.410,42.969,-19.531,0
1492418503.142,21.973,39.551,41.016,36.621,-9.766,0
1492418503.146,21.484,37.598,41.016,35.645,-6.348,0
1492418503.150,10.742,39.062,43.945,40.039,7.324,0
1492418503.154,6.836,35.645,43.945,42.480,18.066,0
1492418503.157,6.836,25.391,34.668,39.062,6.836,0
1492418503.161,1.953,20.020,29.297,30.762,9.766,0
1492418503.165,-2.930,18.066,27.832,22.461,20.508,0
1492418503.169,2.930,22.461,26.855,16.602,27.832,0
1492418503.173,10.742,27.832,26.855,20.020,10.742,0
1492418503.177,7.324,32.227,22.949,18.066,-7.812,0
1492418503.181,8.301,33.691,18.555,8.301,-5.859,0
1492418503.185,1.465,21.484,10.254,-0.977,1.465,0
1492418503.189,-2.441,10.742,9.766,1.465,-7.324,0
1492418503.193,-5.371,17.090,19.531,11.230,-18.555,0
1492418503.196,-1.953,27.344,23.926,10.742,17.578,0
1492418503.200,5.371,25.391,20.020,6.348,22.949,0
1492418503.204,7.812,19.531,19.043,8.789,-3.418,0
1492418503.208,18.066,15.625,18.555,15.137,3.418,0
1492418503.212,15.625,15.625,18.066,12.695,29.297,0
1492418503.216,13.672,21.484,21.484,13.184,20.996,0
1492418503.220,11.719,15.625,16.602,11.719,-2.441,0
1492418503.224,-2.441,2.441,8.789,8.301,18.066,0
1492418503.228,-2.441,-1.465,6.836,10.254,32.227,0
1492418503.232,5.371,-2.930,5.859,10.254,34.180,0
1492418503.236,9.277,-3.418,10.254,15.625,16.602,0
1492418503.239,9.277,-2.930,14.160,20.996,0.488,0
1492418503.243,13.184,-1.953,13.672,19.043,20.020,0
1492418503.247,20.996,-0.488,14.160,19.043,4.395,0
1492418503.251,24.902,10.742,21.973,23.926,20.996,0
1492418503.255,10.254,18.555,23.438,27.832,46.875,0
1492418503.259,1.953,20.020,18.066,22.461,25.391,0
1492418503.263,11.719,20.996,20.020,25.391,2.930,0
1492418503.267,17.090,17.090,19.531,23.438,-3.906,0
1492418503.271,18.555,18.066,22.949,28.809,7.812,0
1492418503.275,12.695,20.508,28.320,33.691,8.789,0
1492418503.279,20.996,19.531,25.879,20.996,-12.207,0
1492418503.282,26.367,17.090,23.926,20.020,-19.531,0
1492418503.286,18.555,17.090,25.879,28.809,7.324,0
1492418503.290,15.625,21.484,28.320,33.203,23.926,0
1492418503.294,9.766,25.879,27.344,30.273,31.738,0
1492418503.298,12.695,32.715,30.273,37.598,28.320,0
1492418503.302,26.367,39.551,36.621,49.316,54.199,0
1492418503.306,37.109,40.039,38.086,51.270,54.688,0
1492418503.310,41.016,36.133,40.039,47.363,23.926,0
1492418503.314,45.898,36.133,41.504,49.316,18.066,0
1492418503.318,40.039,31.250,35.156,51.270,20.508,0
1492418503.321,26.367,22.461,28.809,44.434,2.930,0
1492418503.325,24.414,29.297,32.715,46.387,-13.672,0
1492418503.329,26.367,33.691,31.738,54.199,4.395,0
1492418503.333,25.391,23.438,25.391,48.828,47.363,0
1492418503.337,28.320,15.625,23.438,41.992,58.105,0
1492418503.341,38.574,18.066,24.902,49.316,14.160,0
1492418503.345,43.945,31.738,26.367,55.176,24.414,0
1492418503.349,41.992,29.785,27.832,56.152,60.059,0
1492418503.353,31.738,18.555,27.832,53.711,27.344,0
1492418503.357,29.297,17.578,21.484,44.922,26.855,0
1492418503.361,36.133,18.555,19.531,48.340,46.875,0
1492418503.364,33.691,16.602,20.508,47.852,47.363,0
1492418503.368,37.109,19.531,21.973,41.016,28.320,0
1492418503.372,34.668,22.949,25.391,40.039,17.090,0
1492418503.376,31.738,20.996,24.414,34.180,40.039,0
1492418503.380,42.969,27.344,27.344,41.016,42.480,0
1492418503.384,39.062,32.227,34.668,50.781,-5.371,0
1492418503.388,28.809,31.250,37.598,49.316,-20.508,0
1492418503.392,40.039,32.227,38.574,51.758,43.457,0
1492418503.396,49.316,37.109,41.016,54.199,54.688,0
1492418503.400,40.039,44.434,43.945,51.758,31.250,0
1492418503.404,29.785,42.969,45.898,46.387,54.688,0
1492418503.407,27.344,37.598,41.992,43.457,79.102,0
1492418503.411,15.137,37.109,39.551,40.039,45.410,0
1492418503.415,12.695,37.109,41.992,30.762,25.879,0
1492418503.419,18.066,40.039,44.434,35.645,16.113,0
1492418503.423,14.160,39.551,45.898,44.922,23.438,0
1492418503.427,6.836,39.551,43.945,48.340,47.363,0
1492418503.431,7.812,39.062,43.945,50.293,26.855,0
1492418503.435,19.043,35.645,42.969,49.316,6.348,0
1492418503.439,28.809,37.109,41.504,54.688,52.246,0
1492418503.443,32.227,37.598,43.945,50.781,54.199,0
1492418503.446,22.949,31.738,39.062,44.434,10.254,0
1492418503.450,15.625,23.438,34.180,45.410,46.387,0
1492418503.454,15.137,26.367,38.574,44.922,56.152,0
1492418503.458,18.066,34.180,39.062,45.898,41.504,0
1492418503.462,24.902,34.180,37.598,48.828,25.391,0
1492418503.466,30.762,39.062,37.598,49.805,34.668,0
1492418503.470,31.250,41.992,38.574,55.176,49.316,0
1492418503.474,26.367,39.062,40.527,57.617,-1.953,0
1492418503.478,20.996,34.180,41.992,52.246,-15.625,0
1492418503.482,15.625,35.645,46.875,58.594,32.227,0
1492418503.486,20.020,42.969,45.410,55.176,41.016,0
1492418503.489,25.879,41.992,39.062,42.969,27.344,0
1492418503.493,23.926,40.527,40.527,42.969,17.090,0
1492418503.497,23.438,45.410,43.945,48.828,2.930,0
1492418503.501,22.461,42.480,41.992,45.898,13.672,0
1492418503.505,17.090,38.086,41.016,43.457,15.625,0
1492418503.509,19.043,39.551,41.504,44.434,25.391,0
1492418503.513,27.832,40.527,45.898,49.805,22.949,0
1492418503.517,32.715,41.504,47.852,52.246,14.160,0
1492418503.521,28.809,36.133,49.316,52.246,2.930,0
1492418503.525,30.273,35.645,48.828,51.270,10.254,0
1492418503.529,27.832,38.086,47.363,49.805,69.336,0
1492418503.532,23.438,39.062,46.875,47.852,47.852,0
1492418503.536,27.832,44.434,45.898,43.945,9.766,0
1492418503.540,27.832,39.551,42.480,38.574,41.504,0
1492418503.544,27.832,30.762,41.504,41.504,41.504,0
1492418503.548,20.508,24.902,36.621,41.016,11.719,0
1492418503.552,13.184,31.250,31.250,33.203,10.742,0
1492418503.556,13.672,32.715,31.738,32.227,4.883,0
1492418503.560,7.812,25.391,26.855,32.715,22.461,0
1492418503.564,9.277,26.855,25.391,32.715,45.898,0
1492418503.568,19.043,23.438,26.367,29.785,18.066,0
1492418503.571,29.297,24.414,29.785,25.879,26.367,0
1492418503.575,32.715,34.668,36.133,38.574,60.547,0
1492418503.579,35.645,42.969,41.992,47.363,14.160,0
1492418503.583,52.246,50.293,46.387,46.387,-6.836,0
1492418503.587,58.594,50.293,43.457,42.480,28.320,0
1492418503.591,59.570,40.527,36.133,40.039,18.555,0
1492418503.595,68.848,36.621,34.180,36.133,26.367,0
1492418503.599,70.312,35.645,33.203,34.180,34.668,0
1492418503.603,59.082,31.738,35.156,41.992,14.160,0
1492418503.607,55.664,28.809,37.109,39.062,30.762,0
1492418503.611,54.688,25.391,34.668,40.527,14.160,0
1492418503.614,42.480,23.438,35.645,50.293,11.230,0
1492418503.618,28.320,26.367,38.574,63.477,20.508,0
1492418503.622,16.113,29.785,37.598,68.848,0.000,0
1492418503.626,18.555,32.715,40.039,60.547,4.395,0
1492418503.630,23.438,33.203,41.016,49.805,33.691,0
1492418503.634,16.602,36.621,38.574,56.152,44.434,2
1492418503.638,2.441,41.504,39.551,66.406,23.438,0
1492418503.642,1.465,43.457,37.598,59.082,28.809,0
1492418503.646,15.137,48.340,40.039,56.152,60.547,0
1492418503.650,20.508,57.129,46.875,60.059,53.223,0
1492418503.654,21.484,60.547,47.363,65.430,-2.930,0
1492418503.657,18.066,52.734,37.598,54.199,-2.930,0
1492418503.661,18.555,59.570,37.598,42.969,53.223,0
1492418503.665,19.043,55.664,40.527,46.875,63.965,0
1492418503.669,23.438,45.410,38.574,45.410,60.059,0
1492418503.673,38.086,56.641,41.504,51.270,58.594,0
1492418503.677,40.527,59.082,42.969,52.246,41.016,0
1492418503.681,34.668,48.828,37.109,45.410,28.320,0
1492418503.685,30.762,48.340,35.645,42.480,-5.859,0
1492418503.689,27.832,48.828,34.668,42.480,-14.160,0
1492418503.693,23.926,51.270,37.109,50.781,24.414,0
1492418503.696,20.020,53.711,39.062,50.781,24.414,0
1492418503.700,20.508,46.387,36.133,50.781,-4.395,0
1492418503.704,25.879,38.574,35.156,56.152,-23.926,0
1492418503.708,26.367,32.227,33.203,46.875,-8.301,0
1492418503.712,25.879,37.109,35.645,41.504,-5.859,0
1492418503.716,29.297,41.504,34.668,42.969,-3.418,0
1492418503.720,23.926,33.691,27.832,41.504,18.066,0
1492418503.724,23.926,33.691,25.879,39.062,23.926,0
1492418503.728,30.273,41.992,31.738,42.480,17.090,0
1492418503.732,32.227,41.504,38.086,48.340,33.691,0
1492418503.736,31.250,35.156,40.039,52.246,8.301,0
1492418503.739,39.062,41.016,42.480,56.641,-1.465,0
1492418503.743,38.086,40.039,43.457,56.641,14.648,0
1492418503.747,33.691,32.227,35.645,50.781,-19.531,0
1492418503.751,38.086,34.668,35.156,46.875,0.977,0
1492418503.755,45.898,39.062,43.945,53.223,49.316,0
1492418503.759,54.199,47.852,49.316,61.523,31.250,0
1492418503.763,48.340,51.270,45.410,53.223,14.648,0
1492418503.767,47.363,50.781,45.410,52.734,37.109,0
1492418503.771,47.363,45.898,52.734,59.082,65.918,0
1492418503.775,37.109,33.203,47.363,49.805,48.828,0
1492418503.779,31.738,31.738,38.574,43.457,42.969,0
1492418503.782,30.762,39.062,41.016,45.898,65.918,0
1492418503.786,32.715,42.480,42.480,49.805,41.016,0
1492418503.790,42.480,45.898,41.504,48.828,8.301,0
1492418503.794,35.645,40.527,33.691,40.527,-5.859,0
1492418503.798,22.949,31.250,28.320,36.621,10.254,0
1492418503.802,29.297,36.621,35.156,44.922,34.180,0
1492418503.806,31.250,41.016,38.086,56.152,23.438,0
1492418503.810,28.320,40.527,33.203,49.805,12.207,0
1492418503.814,19.531,33.691,25.879,42.969,28.809,0
1492418503.818,19.531,30.762,27.832,47.363,15.625,0
1492418503.821,21.973,29.297,30.273,40.039,-4.883,0
1492418503.825,16.602,25.879,29.297,39.551,22.461,0
1492418503.829,22.949,34.180,34.668,41.016,22.461,0
1492418503.833,26.367,40.527,36.133,36.621,9.277,0
1492418503.837,31.250,42.480,37.109,48.828,-0.488,0
1492418503.841,32.227,39.062,41.992,53.223,-1.953,0
1492418503.845,42.480,44.434,49.805,60.059,30.762,0
1492418503.849,53.223,56.641,57.617,68.848,29.785,0
1492418503.853,58.594,56.641,57.617,53.711,-7.812,0
1492418503.857,51.270,44.434,57.617,55.176,6.836,0
1492418503.861,45.410,42.480,52.246,66.895,36.133,0
1492418503.864,56.641,45.410,47.363,62.988,27.832,0
1492418503.868,65.430,44.922,45.898,56.641,-2.930,0
1492418503.872,55.664,43.457,39.062,59.082,11.230,0
1492418503.876,18.555,20.508,20.996,46.387,21.973,0
1492418503.880,-3.418,-5.859,-2.930,19.531,-4.395,0
1492418503.884,6.836,-12.695,-13.184,6.348,21.973,0
1492418503.888,-7.324,-22.461,-22.949,-5.371,38.086,0
1492418503.892,-17.090,-22.949,-26.855,-10.254,22.461,0
1492418503.896,-24.414,-19.043,-19.531,-7.812,-1.465,0
1492418503.900,-25.879,-21.484,-19.043,-4.883,3.906,0
1492418503.904,-7.324,-13.672,-16.602,2.930,50.781,0
1492418503.907,-1.465,-8.789,-10.742,4.395,42.969,0
1492418503.911,-8.789,-10.742,-11.230,-3.906,28.320,0
1492418503.915,-20.996,-12.207,-6.348,0.977,43.457,0
1492418503.919,-28.320,-7.812,-0.977,8.301,42.480,0
1492418503.923,-22.949,-1.953,-3.418,4.395,16.602,0
1492418503.927,-14.648,2.930,2.441,10.254,21.484,0
1492418503.931,-6.348,9.766,12.207,14.648,20.020,0
1492418503.935,0.000,13.184,12.695,14.648,5.371,0
1492418503.939,-1.953,14.648,14.160,17.578,13.672,0
1492418503.943,-10.742,13.672,15.137,19.043,7.324,0
1492418503.946,-11.719,15.137,13.184,17.090,17.090,0
1492418503.950,-12.207,15.625,17.090,21.484,12.695,0
1492418503.954,-8.301,20.508,21.484,23.926,2.441,0
1492418503.958,-4.883,15.625,22.461,21.484,17.090,0
1492418503.962,-6.348,10.742,23.438,26.367,37.109,0
1492418503.966,11.230,16.602,24.902,33.691,16.113,0
1492418503.970,10.742,11.230,25.391,29.297,-4.395,0
1492418503.974,-5.371,7.812,24.414,20.508,6.836,0
1492418503.978,-4.395,11.230,23.438,24.414,10.742,0
1492418503.982,-5.371,6.348,20.020,29.297,0.000,0
1492418503.986,2.930,10.254,20.020,33.203,-12.207,0
1492418503.989,14.160,15.137,20.996,38.086,-1.465,0
1492418503.993,16.602,20.508,20.508,38.086,36.133,0
1492418503.997,20.508,26.855,24.902,40.527,40.527,0
1492418504.001,28.320,24.414,25.391,37.598,21.973,0
1492418504.005,15.625,21.973,18.555,26.855,0.977,0
1492418504.009,9.277,19.531,15.625,31.250,14.648,0
1492418504.013,8.301,19.531,20.508,34.180,30.273,0
1492418504.017,7.324,18.066,24.414,32.715,15.625,0
1492418504.021,22.949,23.926,30.762,41.504,34.668,0
1492418504.025,27.832,32.227,35.156,42.969,40.039,0
1492418504.029,33.203,38.574,34.668,41.504,14.648,0
1492418504.032,30.273,33.203,31.738,40.039,-2.930,0
1492418504.036,24.902,30.762,33.203,39.551,24.902,0
1492418504.040,27.344,34.668,36.133,32.715,54.688,0
1492418504.044,15.625,21.973,30.273,23.926,17.578,0
1492418504.048,9.277,18.066,27.344,26.367,1.953,0
1492418504.052,20.508,24.902,31.738,30.762,45.898,0
1492418504.056,25.879,26.855,37.598,35.645,43.945,0
1492418504.060,22.949,28.320,34.668,33.203,19.531,0
1492418504.064,25.879,29.785,32.227,30.762,27.344,0
1492418504.068,26.367,30.273,31.250,32.715,42.969,0
1492418504.071,23.926,30.273,28.320,33.203,44.434,0
1492418504.075,30.762,22.949,27.344,36.133,16.602,0
1492418504.079,31.738,21.973,24.902,39.551,8.789,0
1492418504.083,31.738,30.762,29.785,43.457,44.922,0
1492418504.087,34.180,37.109,34.668,45.898,25.391,0
1492418504.091,36.621,36.133,38.086,47.852,-9.277,0
1492418504.095,42.969,34.668,44.434,51.758,0.000,0
1492418504.099,57.129,40.039,50.293,59.570,21.973,0
1492418504.103,64.453,40.527,54.199,65.430,11.230,0
1492418504.107,65.918,40.527,54.688,70.801,10.254,0
1492418504.111,63.477,41.016,54.688,70.801,15.137,0
1492418504.114,55.664,40.039,52.246,66.895,20.020,0
1492418504.118,51.758,41.992,52.246,66.406,25.879,0
1492418504.122,48.828,33.691,46.875,61.035,2.441,0
1492418504.126,37.109,20.508,35.645,52.734,5.859,0
1492418504.130,34.180,14.160,28.320,45.410,40.527,0
1492418504.134,33.203,14.648,28.320,44.922,33.691,3
1492418504.138,24.902,7.324,27.344,44.922,19.043,0
1492418504.142,24.414,1.953,29.785,43.457,27.344,0
1492418504.146,38.086,14.648,36.133,47.363,25.879,0
1492418504.150,48.828,24.902,35.645,46.387,28.809,0
1492418504.154,35.645,21.973,30.273,36.621,28.809,0
1492418504.157,17.090,16.113,26.855,33.691,36.621,0
1492418504.161,11.230,15.137,31.738,44.434,43.945,0
1492418504.165,16.113,20.020,36.133,48.340,42.480,0
1492418504.169,16.602,26.855,30.762,35.156,53.223,0
1492418504.173,4.395,19.043,25.391,25.879,54.199,0
1492418504.177,7.324,13.184,27.832,34.180,57.129,0
1492418504.181,12.207,15.625,27.344,38.574,25.391,0
1492418504.185,10.742,11.719,27.832,41.016,-6.836,0
1492418504.189,24.414,21.484,31.738,46.387,44.922,0
1492418504.193,32.227,32.227,31.250,46.875,52.734,0
1492418504.196,25.879,20.508,26.855,45.410,14.648,0
1492418504.200,20.020,13.672,24.902,40.039,26.855,0
1492418504.204,19.043,20.020,31.738,39.551,31.738,0
1492418504.208,17.578,21.973,31.250,36.621,4.883,0
1492418504.212,13.184,11.230,24.902,30.762,13.184,0
1492418504.216,16.602,2.441,24.902,28.320,32.715,0
1492418504.220,14.648,3.418,25.391,29.297,53.711,0
1492418504.224,12.207,8.789,27.832,41.992,20.020,0
1492418504.228,5.859,2.930,25.391,38.574,-7.812,0
1492418504.232,2.930,-3.418,24.414,31.738,32.715,0
1492418504.236,8.301,-0.488,27.832,38.086,26.367,0
1492418504.239,1.953,-5.371,23.926,40.039,19.531,0
1492418504.243,4.395,1.953,26.855,37.598,20.996,0
1492418504.247,10.742,12.695,33.203,35.645,20.996,0
1492418504.251,12.695,7.812,33.203,35.156,22.461,0
1492418504.255,21.973,6.348,28.320,32.227,6.836,0
1492418504.259,22.949,0.977,19.043,27.344,12.207,0
1492418504.263,18.066,-9.766,13.672,22.461,32.227,0
1492418504.267,21.973,-7.324,13.672,15.137,25.879,0
1492418504.271,26.367,2.930,7.324,6.348,1.465,0
1492418504.275,15.625,11.719,5.371,2.441,-1.953,0
1492418504.279,15.137,21.484,11.230,14.648,26.367,0
1492418504.282,16.113,24.902,17.090,33.203,32.227,0
1492418504.286,1.953,18.555,11.719,40.527,8.301,0
1492418504.290,-7.812,12.207,7.812,35.645,-4.395,0
1492418504.294,-2.930,14.160,9.766,30.762,10.254,0
1492418504.298,3.906,9.277,18.555,43.457,19.531,0
1492418504.302,-3.906,6.836,22.949,53.711,1.953,0
1492418504.306,-9.766,8.301,20.508,51.758,19.531,0
1492418504.310,-12.695,3.906,14.648,44.434,46.875,0
1492418504.314,-7.324,0.488,9.277,40.527,41.504,0
1492418504.318,-0.488,2.441,5.859,33.203,42.480,0
1492418504.321,5.859,6.348,3.906,26.367,45.898,0
1492418504.325,9.277,6.348,4.395,30.273,25.879,0
1492418504.329,14.648,6.836,5.859,34.668,0.977,0
1492418504.333,17.090,16.602,7.812,30.762,20.020,0
1492418504.337,20.020,24.902,12.207,28.320,63.477,0
1492418504.341,28.809,25.391,16.602,35.156,41.504,0
1492418504.345,26.855,24.414,12.695,30.762,21.484,0
1492418504.349,21.973,25.391,11.719,26.855,11.230,0
1492418504.353,17.090,24.902,12.695,37.598,17.578,0
1492418504.357,14.160,17.090,6.348,26.367,38.574,0
1492418504.361,16.602,13.672,4.395,21.973,0.977,0
1492418504.364,13.184,5.371,5.371,24.414,-2.441,0
1492418504.368,11.230,0.488,3.906,23.438,25.391,0
1492418504.372,22.949,10.254,10.742,35.156,-1.465,0
1492418504.376,24.902,14.648,17.090,39.062,20.020,0
1492418504.380,12.207,12.207,10.742,32.715,22.949,0
1492418504.384,11.230,11.230,9.766,29.785,13.672,0
1492418504.388,21.484,17.090,20.508,37.598,34.668,0
1492418504.392,22.949,19.043,22.461,38.574,42.969,0
1492418504.396,15.625,10.254,20.020,36.621,48.828,0
1492418504.400,16.113,9.277,23.438,40.039,32.227,0
1492418504.404,14.648,16.602,22.461,41.504,16.113,0
1492418504.407,10.742,14.648,13.672,35.156,16.113,0
1492418504.411,12.695,7.812,10.254,32.227,23.926,0
1492418504.415,16.113,8.301,11.719,37.109,24.414,0
1492418504.419,16.602,12.695,14.160,37.109,23.438,0
1492418504.423,21.484,4.883,9.277,32.227,10.254,0
1492418504.427,33.203,-0.488,13.184,35.645,48.828,0
1492418504.431,37.598,-0.488,21.484,43.945,46.387,0
1492418504.435,33.203,5.371,19.043,48.340,27.832,0
1492418504.439,45.898,17.578,21.973,50.781,15.625,0
1492418504.443,51.270,13.184,21.484,47.852,12.207,0
1492418504.446,43.945,11.230,24.414,50.781,33.203,0
1492418504.450,45.410,14.648,24.414,56.152,-2.441,0
1492418504.454,52.734,9.277,21.484,54.688,-1.465,0
1492418504.458,61.035,11.230,25.879,49.316,21.484,0
1492418504.462,61.035,17.578,30.273,50.293,8.301,0
1492418504.466,52.734,20.020,30.762,52.246,9.277,0
1492418504.470,46.875,23.926,27.832,49.316,19.531,0
1492418504.474,48.340,29.785,28.320,49.805,20.020,0
1492418504.478,45.410,27.832,28.809,52.734,24.414,0
1492418504.482,37.598,22.461,27.832,52.246,10.742,0
1492418504.486,39.551,27.344,33.691,56.152,15.625,0
1492418504.489,41.504,19.531,39.062,60.059,23.926,0
1492418504.493,41.504,13.184,41.504,55.176,11.230,0
1492418504.497,40.039,12.695,42.480,49.316,9.766,0
1492418504.501,31.250,10.254,43.945,51.758,22.461,0
1492418504.505,32.715,8.301,44.922,50.781,24.414,0
1492418504.509,37.109,7.812,50.781,50.781,22.949,0
1492418504.513,36.621,14.648,52.246,50.781,36.133,0
1492418504.517,34.668,15.625,47.852,48.340,31.250,0
1492418504.521,33.691,13.184,51.758,50.781,28.320,0
1492418504.525,33.203,16.602,54.199,50.293,48.828,0
1492418504.529,34.180,13.184,50.293,50.781,4.395,0
1492418504.532,42.969,7.812,50.781,54.199,-23.926,0
1492418504.536,44.922,6.836,49.805,47.852,8.301,0
1492418504.540,32.715,4.395,42.969,43.457,22.949,0
1492418504.544,16.602,-3.906,29.785,39.062,16.602,0
1492418504.548,17.090,-2.930,26.855,39.062,38.574,0
1492418504.552,32.227,8.789,36.133,45.410,53.711,0
1492418504.556,35.645,19.043,36.621,43.457,9.277,0
1492418504.560,38.574,23.438,33.691,47.852,-11.719,0
1492418504.564,41.992,16.602,28.809,47.852,23.438,0
1492418504.568,44.434,15.625,31.738,53.223,26.855,0
1492418504.571,44.434,18.555,32.715,58.105,18.555,0
1492418504.575,43.457,21.484,31.738,52.734,36.133,0
1492418504.579,44.922,24.414,38.086,56.152,48.828,0
1492418504.583,43.945,17.578,35.156,51.758,30.762,0
1492418504.587,51.270,10.742,31.738,47.852,9.277,0
1492418504.591,52.734,17.090,37.109,55.176,10.254,0
1492418504.595,53.711,22.949,41.504,61.523,17.090,0
1492418504.599,46.387,21.973,42.480,59.082,19.531,0
1492418504.603,35.156,17.090,39.551,51.758,-4.395,0
1492418504.607,32.715,15.137,37.109,49.805,3.906,0
1492418504.611,34.180,18.066,36.133,55.176,25.391,0
1492418504.614,31.738,16.113,29.297,55.664,30.273,0
1492418504.618,27.344,17.578,26.367,49.316,19.043,0
1492418504.622,27.832,17.090,32.715,49.805,27.832,0
1492418504.626,19.531,11.719,31.738,51.270,39.551,0
1492418504.630,17.090,13.672,28.809,52.246,9.277,0
1492418504.634,26.367,19.043,35.645,49.316,-4.883,0
1492418504.638,32.715,18.066,38.086,42.969,9.766,4
1492418504.642,32.715,15.137,34.668,41.504,18.066,0
1492418504.646,24.902,17.090,33.203,41.992,-7.812,0
1492418504.650,14.648,11.719,24.902,40.039,-2.930,0
1492418504.654,20.020,10.742,26.367,42.969,20.020,0
1492418504.657,21.484,12.207,27.832,42.480,1.465,0
1492418504.661,13.672,6.836,16.602,33.691,28.320,0
1492418504.665,3.906,-0.977,17.090,30.762,49.805,0
1492418504.669,3.418,-1.953,18.555,32.715,52.734,0
1492418504.673,15.137,0.977,20.508,40.039,42.969,0
1492418504.677,19.531,1.953,24.902,43.945,5.859,0
1492418504.681,27.832,9.277,32.227,51.270,-4.883,0
1492418504.685,26.855,4.883,28.809,48.828,8.789,0
1492418504.689,15.625,-4.395,20.508,41.504,-4.395,0
1492418504.693,22.949,-3.418,25.879,47.852,-22.461,0
1492418504.696,16.113,-3.418,23.438,45.898,14.648,0
1492418504.700,5.859,-0.977,24.902,43.457,42.480,0
1492418504.704,7.324,-2.441,29.785,46.387,35.156,0
1492418504.708,7.812,-6.348,24.902,40.527,18.555,0
1492418504.712,17.578,0.000,23.438,33.203,52.734,0
1492418504.716,20.020,-2.441,20.996,31.738,60.547,0
1492418504.720,14.648,-6.348,19.043,32.227,14.648,0
1492418504.724,19.531,-1.953,24.902,36.621,-0.977,0
1492418504.728,29.297,0.000,28.320,39.551,17.090,0
1492418504.732,28.809,0.000,27.832,45.898,25.391,0
1492418504.736,21.484,5.859,33.203,50.293,-33.691,0
1492418504.739,21.484,10.254,26.855,33.691,-32.715,0
1492418504.743,28.809,10.254,25.879,33.691,24.902,0
1492418504.747,26.855,7.812,34.180,46.875,30.762,0
1492418504.751,23.438,15.137,36.133,41.992,25.879,0
1492418504.755,26.855,15.625,35.156,38.574,36.133,0
1492418504.759,24.902,5.371,31.250,34.668,57.129,0
1492418504.763,28.320,5.371,31.738,35.156,39.062,0
1492418504.767,29.297,5.859,32.715,39.062,19.043,0
1492418504.771,32.715,3.906,29.297,35.645,24.902,0
1492418504.775,33.203,6.348,26.855,37.109,37.109,0
1492418504.779,28.809,10.742,27.344,41.992,-6.836,0
1492418504.782,28.320,10.742,22.461,42.480,-35.156,0
1492418504.786,28.320,17.578,20.508,38.086,4.395,0
1492418504.790,30.762,20.020,24.414,40.527,33.691,0
1492418504.794,30.762,8.789,22.461,41.016,-4.395,0
1492418504.798,24.414,4.395,16.113,35.645,-26.367,0
1492418504.802,17.090,1.465,14.648,34.180,29.785,0
1492418504.806,24.902,5.859,18.066,39.062,26.855,0
1492418504.810,23.926,12.207,12.207,34.180,9.277,0
1492418504.814,18.555,12.695,9.277,25.879,27.832,0
1492418504.818,16.602,18.555,12.695,32.227,47.363,0
1492418504.821,20.508,24.414,15.625,39.062,14.648,0
1492418504.825,29.297,28.320,20.508,41.992,-0.977,0
1492418504.829,20.508,23.926,20.996,39.062,19.531,0
1492418504.833,11.719,20.508,19.531,36.133,21.484,0
1492418504.837,23.438,32.227,30.273,47.363,51.270,0
1492418504.841,38.086,35.156,39.062,50.293,19.043,0
1492418504.845,39.551,34.180,38.086,45.410,2.441,0
1492418504.849,34.668,38.574,36.621,48.340,45.410,0
1492418504.853,28.320,33.203,35.645,44.434,6.836,0
1492418504.857,33.691,36.133,36.621,39.062,-4.883,0
1492418504.861,28.809,36.621,33.203,39.551,12.207,0
1492418504.864,23.926,38.086,35.645,43.945,17.578,0
1492418504.868,21.484,43.457,36.621,45.898,30.762,0
1492418504.872,16.602,33.691,25.879,37.109,19.043,0
1492418504.876,10.742,20.996,20.508,31.250,3.418,0
1492418504.880,7.324,19.043,29.785,38.574,32.227,0
1492418504.884,10.742,18.555,32.715,42.969,35.645,0
1492418504.888,17.578,24.902,31.250,42.969,24.414,0
1492418504.892,20.996,28.809,34.668,44.434,31.738,0
1492418504.896,20.996,20.508,31.738,45.410,2.930,0
1492418504.900,27.344,18.555,31.738,45.898,-4.883,0
1492418504.904,32.715,20.508,34.668,52.246,24.414,0
1492418504.907,37.598,30.273,35.645,51.270,20.996,0
1492418504.911,36.621,38.086,33.203,53.223,35.156,0
1492418504.915,37.598,44.434,31.250,59.570,24.902,0
1492418504.919,41.016,39.062,29.297,57.129,-10.742,0
1492418504.923,40.039,29.785,29.297,56.152,19.043,0
1492418504.927,37.598,26.855,32.227,55.664,14.160,0
1492418504.931,47.852,23.926,30.762,46.875,8.301,0
1492418504.935,59.082,25.879,27.344,40.039,57.129,0
1492418504.939,67.871,25.391,27.344,40.039,46.875,0
1492418504.943,56.152,20.996,27.344,40.527,10.254,0
1492418504.946,47.852,17.578,21.973,34.180,48.828,0
1492418504.950,64.453,20.020,22.461,32.227,64.941,0
1492418504.954,60.547,22.461,25.391,35.645,56.641,0
1492418504.958,56.641,25.879,23.438,38.086,43.457,0
1492418504.962,48.828,30.273,26.855,45.898,15.625,0
1492418504.966,19.043,26.367,24.902,48.340,25.391,0
1492418504.970,7.812,19.043,18.066,45.410,30.273,0
1492418504.974,9.277,20.508,20.508,46.387,9.766,0
1492418504.978,1.465,21.973,19.043,39.551,-15.137,0
1492418504.982,-4.395,17.578,17.578,30.762,5.371,0
1492418504.986,-0.488,20.508,22.949,32.715,38.574,0
1492418504.989,3.906,15.137,27.344,32.227,32.715,0
1492418504.993,-2.441,9.277,23.438,25.391,23.926,0
1492418504.997,-18.555,14.160,19.043,18.066,29.785,0
1492418505.001,-25.391,20.020,20.996,11.719,19.531,0
1492418505.005,-27.832,16.113,24.414,12.695,22.949,0
1492418505.009,-23.438,7.812,28.320,17.578,24.414,0
1492418505.013,-20.508,15.137,24.414,17.578,30.762,0
1492418505.017,-13.672,26.855,22.949,15.625,37.109,0
1492418505.021,-7.812,29.785,27.832,11.719,-6.836,0
1492418505.025,-6.836,26.855,26.855,9.766,-16.602,0
1492418505.029,-7.812,16.602,21.973,3.906,31.250,0
1492418505.032,-4.395,14.648,21.484,1.953,15.137,0
1492418505.036,0.000,16.602,21.484,6.836,3.906,0
1492418505.040,-3.418,19.043,18.555,8.789,-8.789,0
1492418505.044,6.348,26.855,25.879,10.254,-9.277,0
1492418505.048,14.648,35.645,32.715,17.090,30.762,0
1492418505.052,11.230,38.574,36.133,25.879,22.949,0
1492418505.056,9.766,26.367,32.715,18.555,-4.395,0
1492418505.060,18.555,26.855,30.762,19.043,9.277,0
1492418505.064,27.832,37.598,37.598,30.762,-13.672,0
1492418505.068,19.531,37.109,33.203,24.414,-27.344,0
1492418505.071,15.625,28.320,24.414,10.254,42.969,0
1492418505.075,22.461,25.391,30.762,20.020,46.875,0
1492418505.079,12.695,27.344,35.156,26.367,-1.953,0
1492418505.083,2.930,16.602,26.855,14.648,25.391,0
1492418505.087,5.371,16.113,19.531,9.766,45.898,0
1492418505.091,9.766,25.879,25.391,17.090,19.043,0
1492418505.095,14.648,24.414,34.180,26.367,16.602,0
1492418505.099,20.996,28.320,38.086,29.785,33.203,0
1492418505.103,22.949,27.344,37.109,33.203,28.320,0
1492418505.107,25.391,25.391,38.574,32.227,23.438,0
1492418505.111,31.738,34.180,44.922,30.762,0.977,0
1492418505.114,22.461,36.133,46.875,28.809,36.621,0
1492418505.118,17.578,42.969,47.852,22.461,65.918,0
1492418505.122,20.996,42.480,49.805,25.879,20.020,0
1492418505.126,10.742,39.062,50.293,33.203,22.949,0
1492418505.130,-0.977,36.133,43.457,20.996,51.270,0
1492418505.134,-0.977,24.902,37.598,9.277,44.434,0
1492418505.138,-2.930,22.461,36.133,15.137,19.043,5
1492418505.142,-2.441,22.949,35.645,17.090,27.832,0
1492418505.146,0.977,26.855,40.527,16.113,41.504,0
1492418505.150,3.906,29.297,39.551,12.207,39.062,0
1492418505.154,4.883,29.297,29.785,3.418,13.672,0
1492418505.157,-4.883,25.391,24.902,3.906,-11.230,0
1492418505.161,-9.766,26.367,24.902,6.348,9.277,0
1492418505.165,-6.348,28.320,22.461,5.371,39.062,0
1492418505.169,2.930,24.414,20.020,1.953,16.602,0
1492418505.173,2.930,22.461,24.414,2.930,-8.301,0
1492418505.177,-3.418,23.926,29.785,10.742,29.785,0
1492418505.181,8.301,33.691,38.086,17.090,30.273,0
1492418505.185,16.113,43.457,41.992,18.555,8.301,0
1492418505.189,15.137,42.480,37.109,21.484,17.090,0
1492418505.193,11.230,36.621,41.016,26.367,37.109,0
1492418505.196,10.254,39.551,44.434,36.133,27.344,0
1492418505.200,12.695,44.434,43.457,40.527,-18.066,0
1492418505.204,16.602,41.992,43.457,35.156,10.742,0
1492418505.208,30.273,43.945,47.363,35.156,36.133,0
1492418505.212,28.320,40.039,47.852,29.297,2.441,0
1492418505.216,25.391,34.180,39.062,25.391,20.996,0
1492418505.220,27.344,33.203,35.645,27.344,61.035,0
1492418505.224,21.484,28.320,36.621,23.926,61.523,0
1492418505.228,15.137,22.949,36.133,24.414,38.086,0
1492418505.232,16.602,23.926,33.203,27.832,13.184,0
1492418505.236,28.809,29.785,35.156,30.762,17.578,0
1492418505.239,21.973,24.902,37.598,32.715,7.812,0
1492418505.243,16.602,24.414,32.715,32.227,2.441,0
1492418505.247,14.648,23.926,27.344,30.273,-0.977,0
1492418505.251,2.930,19.531,24.902,26.367,-1.953,0
1492418505.255,8.789,24.902,26.367,29.785,38.086,0
1492418505.259,18.066,31.250,30.273,33.203,20.996,0
1492418505.263,18.555,34.180,30.762,33.691,8.301,0
1492418505.267,20.020,39.062,32.715,41.504,23.438,0
1492418505.271,26.367,36.133,38.086,46.387,9.766,0
1492418505.275,26.855,27.344,40.527,44.434,21.484,0
1492418505.279,18.555,27.344,42.480,41.016,22.949,0
1492418505.282,15.625,29.785,41.992,39.062,53.711,0
1492418505.286,17.090,26.367,38.574,37.598,53.223,0
1492418505.290,20.508,26.855,39.551,36.621,6.836,0
1492418505.294,19.531,27.832,38.086,32.227,-1.953,0
1492418505.298,15.137,24.414,35.156,27.344,38.574,0
1492418505.302,18.066,30.762,33.691,24.902,41.504,0
1492418505.306,20.020,37.598,31.250,27.344,-17.578,0
1492418505.310,12.695,28.320,28.320,32.715,-25.391,0
1492418505.314,7.324,14.648,28.809,40.527,11.719,0
1492418505.318,13.672,17.090,28.809,38.574,-3.418,0
1492418505.321,23.438,18.066,32.715,35.156,19.531,0
1492418505.325,36.133,15.625,35.156,38.086,29.785,0
1492418505.329,32.227,14.160,25.879,33.203,31.250,0
1492418505.333,20.996,9.766,26.367,33.203,35.156,0
1492418505.337,32.715,13.672,31.250,41.016,8.301,0
1492418505.341,32.715,11.230,30.273,47.363,12.207,0
1492418505.345,29.297,13.184,36.133,54.199,45.898,0
1492418505.349,38.574,20.996,43.945,55.664,32.227,0
1492418505.353,41.504,17.578,41.016,50.781,7.812,0
1492418505.357,32.715,21.484,33.203,49.316,41.992,0
1492418505.361,34.668,23.438,32.715,49.805,22.949,0
1492418505.364,42.480,23.438,30.273,48.340,23.438,0
1492418505.368,42.480,25.879,28.809,48.340,37.598,0
1492418505.372,46.875,25.391,33.203,48.340,34.668,0
1492418505.376,48.828,30.762,37.598,49.316,46.387,0
1492418505.380,41.016,24.902,41.016,51.270,15.625,0
1492418505.384,41.504,18.066,40.527,48.340,15.625,0
1492418505.388,43.457,21.973,35.156,48.828,38.574,0
1492418505.392,35.156,16.113,33.203,47.852,13.184,0
1492418505.396,33.203,10.254,30.273,44.434,21.484,0
1492418505.400,42.969,15.625,26.855,44.434,43.945,0
1492418505.404,41.992,18.066,28.320,41.504,64.453,0
1492418505.407,44.434,30.273,39.062,51.270,55.664,0
1492418505.411,51.758,38.086,46.387,60.059,1.465,0
1492418505.415,59.570,36.133,42.969,57.617,12.695,0
1492418505.419,69.824,39.551,45.410,56.641,54.199,0
1492418505.423,78.125,34.180,44.434,54.199,14.160,0
1492418505.427,76.172,30.273,41.992,49.316,-8.301,0
1492418505.431,59.570,32.715,39.551,47.363,44.434,0
1492418505.435,63.477,31.250,35.645,46.875,35.645,0
1492418505.439,68.359,28.809,35.156,45.410,38.086,0
1492418505.443,63.477,32.227,34.668,46.875,16.113,0
1492418505.446,62.012,35.156,36.621,53.223,11.719,0
1492418505.450,59.082,36.133,37.109,59.082,41.016,0
1492418505.454,62.500,39.551,35.645,55.176,14.648,0
1492418505.458,62.988,40.527,36.621,51.270,-9.766,0
1492418505.462,57.129,34.180,35.645,49.805,14.160,0
1492418505.466,55.176,33.203,34.180,54.688,38.086,0
1492418505.470,56.641,36.133,32.715,61.523,54.688,0
1492418505.474,51.270,30.273,30.273,56.152,45.898,0
1492418505.478,41.504,20.996,21.484,50.293,15.137,0
1492418505.482,42.480,23.438,19.043,46.875,17.090,0
1492418505.486,48.828,31.250,23.438,50.293,3.906,0
1492418505.489,53.711,38.086,29.785,54.688,9.277,0
1492418505.493,62.988,42.969,32.227,57.129,31.738,0
1492418505.497,60.059,41.016,28.809,54.199,39.551,0
1492418505.501,49.316,33.691,23.438,48.828,28.809,0
1492418505.505,47.852,30.273,18.555,50.293,12.207,0
1492418505.509,46.387,33.203,22.949,51.758,30.762,0
1492418505.513,52.246,39.551,35.645,58.594,6.348,0
1492418505.517,56.152,39.062,39.062,64.941,23.438,0
1492418505.521,62.012,41.992,40.039,71.289,45.410,0
1492418505.525,64.453,56.152,43.457,80.078,19.531,0
1492418505.529,56.641,57.129,38.574,79.590,18.066,0
1492418505.532,55.176,48.828,38.086,72.266,7.324,0
1492418505.536,61.035,45.898,40.527,65.918,31.738,0
1492418505.540,66.406,46.875,43.457,72.754,34.668,0
1492418505.544,67.871,45.410,51.270,84.473,9.766,0
1492418505.548,69.824,46.387,54.688,81.055,0.488,0
1492418505.552,64.941,38.086,47.852,70.801,1.465,0
1492418505.556,65.918,34.668,49.316,75.195,26.855,0
1492418505.560,69.336,45.410,54.199,75.684,40.039,0
1492418505.564,65.430,51.270,52.734,68.359,46.387,0
1492418505.568,55.664,41.016,48.340,60.059,21.484,0
1492418505.571,52.246,32.227,40.527,55.664,5.371,0
1492418505.575,51.270,33.691,38.086,55.664,-10.254,0
1492418505.579,46.387,32.227,29.785,52.734,-1.465,0
1492418505.583,42.969,30.762,28.320,53.711,28.809,0
1492418505.587,42.480,29.297,34.668,57.129,28.320,0
1492418505.591,37.598,19.531,31.250,59.570,17.090,0
1492418505.595,30.762,11.230,28.809,53.711,16.113,0
1492418505.599,23.438,5.859,18.066,35.645,25.391,0
1492418505.603,17.090,8.301,10.254,30.762,23.438,0
1492418505.607,9.766,6.836,8.301,27.344,12.207,0
1492418505.611,4.883,0.488,-3.418,18.555,30.273,0
1492418505.614,0.977,1.953,-5.859,12.695,33.691,0
1492418505.618,-3.906,4.395,-3.906,1.953,14.648,0
1492418505.622,-5.859,5.859,-11.719,-4.395,19.531,0
1492418505.626,-2.441,4.883,-9.766,2.441,21.973,0
1492418505.630,12.207,-0.977,-4.395,0.000,51.270,0
1492418505.634,24.414,-2.441,-1.465,-4.883,33.203,0
1492418505.638,27.832,7.324,8.789,3.418,9.277,0
1492418505.642,25.391,16.113,12.207,11.230,34.180,0
1492418505.646,29.297,20.996,14.160,22.461,14.160,0
1492418505.650,24.902,22.949,19.531,33.203,-1.465,0
1492418505.654,14.648,26.367,23.438,41.504,2.930,0
1492418505.657,8.789,28.320,27.832,51.758,42.480,0
1492418505.661,13.672,29.297,29.297,55.176,20.996,0
1492418505.665,23.926,24.414,29.785,52.734,-0.488,0
1492418505.669,30.273,20.996,31.738,52.734,30.762,0
1492418505.673,24.414,29.297,31.250,59.570,25.391,0
1492418505.677,13.672,31.738,26.367,57.129,45.410,0
1492418505.681,11.719,27.344,20.508,49.805,24.414,0
1492418505.685,10.742,24.414,13.672,44.922,-2.930,0
1492418505.689,14.160,27.344,18.066,45.898,10.254,0
1492418505.693,22.461,24.414,24.414,47.363,4.395,0
1492418505.696,33.691,20.020,23.438,46.875,3.418,0
1492418505.700,39.062,18.555,20.020,42.480,27.832,0
1492418505.704,38.574,11.719,12.695,31.738,36.621,0
1492418505.708,37.598,17.090,13.184,26.367,11.230,0
1492418505.712,38.574,20.996,20.508,30.273,12.695,0
1492418505.716,32.227,19.531,20.020,33.691,17.090,0
1492418505.720,20.020,15.137,12.695,26.367,20.020,0
1492418505.724,21.484,8.789,10.254,18.066,-10.254,0
1492418505.728,17.578,0.488,9.277,18.555,-39.062,0
1492418505.732,5.371,-8.301,3.906,12.695,16.602,0
1492418505.736,10.254,-8.301,4.883,11.230,29.785,0
1492418505.739,14.160,-3.418,6.836,8.301,34.180,0
1492418505.743,0.488,0.000,5.371,0.488,39.062,0
1492418505.747,-4.883,-0.977,7.812,3.906,23.926,0
1492418505.751,-2.930,-4.395,11.719,4.883,9.766,0
1492418505.755,-13.672,-4.883,8.301,-2.441,-15.137,0
1492418505.759,-22.461,-6.836,2.930,-0.977,-15.137,0
1492418505.763,-19.531,-7.812,4.395,2.441,-9.766,0
1492418505.767,-12.207,0.488,7.812,5.859,-0.488,0
1492418505.771,-8.789,2.930,9.766,14.160,-11.230,0
1492418505.775,-7.812,5.859,11.719,13.184,19.531,0
1492418505.779,-6.836,20.996,11.719,15.137,41.504,0
1492418505.782,0.000,25.391,8.301,14.160,-6.348,0
1492418505.786,11.230,24.902,14.160,21.484,-21.973,0
1492418505.790,14.648,25.391,17.578,25.879,9.277,0
1492418505.794,7.812,26.367,15.137,17.090,33.203,0
1492418505.798,2.930,28.320,22.949,28.320,23.438,0
1492418505.802,12.695,28.809,27.832,32.715,5.371,0
1492418505.806,25.391,28.809,25.391,31.250,-6.836,0
1492418505.810,25.391,27.832,21.973,27.344,3.418,0
1492418505.814,17.578,21.973,18.066,23.438,8.301,0
1492418505.818,20.508,23.926,20.508,29.297,-24.902,0
1492418505.821,26.367,24.414,18.066,29.785,25.391,0
1492418505.825,26.367,24.414,16.602,27.344,42.480,0
1492418505.829,31.738,24.902,23.926,29.297,-10.254,0
1492418505.833,38.574,20.508,27.344,33.691,-0.488,0
1492418505.837,33.691,21.484,25.391,35.645,7.812,0
1492418505.841,28.320,23.438,15.137,30.762,12.207,0
1492418505.845,27.832,14.160,9.766,27.832,13.184,0
1492418505.849,24.902,8.789,15.137,24.414,-0.977,0
1492418505.853,27.344,14.160,20.020,22.949,7.812,0
1492418505.857,30.273,17.090,20.508,26.855,25.391,0
1492418505.861,32.715,21.484,23.438,34.668,-9.766,0
1492418505.864,38.574,25.879,22.949,38.574,2.441,0
1492418505.868,44.922,28.809,26.367,40.527,39.551,0
1492418505.872,46.387,35.156,36.133,54.199,21.484,0
1492418505.876,44.434,40.039,34.180,58.594,29.297,0
1492418505.880,44.922,40.527,32.227,52.734,23.438,0
1492418505.884,52.246,43.945,37.598,53.711,34.180,0
1492418505.888,49.805,44.922,39.062,57.129,35.645,0
1492418505.892,41.992,39.062,34.668,45.898,32.227,0
1492418505.896,47.852,39.062,36.133,38.086,38.086,0
1492418505.900,41.992,36.621,40.039,46.875,20.020,0
1492418505.904,43.457,39.551,40.039,50.293,17.578,0
1492418505.907,41.992,41.992,40.039,46.875,-5.371,0
1492418505.911,29.297,34.180,36.133,40.527,-3.906,0
1492418505.915,34.668,38.574,43.457,46.875,31.738,0
1492418505.919,35.156,46.387,47.852,52.734,0.000,0
1492418505.923,29.297,50.293,42.480,41.992,-28.320,0
1492418505.927,28.809,46.387,42.480,36.133,-0.977,0
1492418505.931,25.879,37.598,38.574,34.668,14.648,0
1492418505.935,18.066,31.250,34.668,33.203,5.371,0
1492418505.939,19.531,33.203,34.668,33.203,5.859,0
1492418505.943,32.227,37.598,38.086,38.574,20.996,0
1492418505.946,33.691,41.504,45.410,51.270,24.902,0
1492418505.950,41.504,46.387,47.852,61.523,24.414,0
1492418505.954,43.457,50.781,42.480,59.082,6.348,0
1492418505.958,37.109,49.805,39.062,53.711,17.090,0
1492418505.962,44.434,46.387,41.504,58.594,41.504,0
1492418505.966,55.664,51.758,42.969,62.012,32.715,0
1492418505.970,55.176,52.734,40.527,60.059,46.875,0
1492418505.974,49.316,44.922,41.504,66.406,38.086,0
1492418505.978,42.480,45.410,37.598,70.801,32.715,0
1492418505.982,41.016,43.457,30.273,64.453,37.109,0
1492418505.986,43.457,41.016,34.180,61.035,34.180,0
1492418505.989,51.758,52.734,39.062,63.965,53.223,0
1492418505.993,57.617,59.570,36.133,64.453,39.551,0
1492418505.997,59.082,52.734,30.762,53.711,25.391,0
1492418506.001,58.594,50.781,30.762,47.852,47.363,0
1492418506.005,56.641,52.246,32.227,49.805,40.527,0
1492418506.009,59.082,56.152,38.574,52.734,17.578,0
1492418506.013,57.617,58.105,39.551,53.223,30.273,0
1492418506.017,50.293,52.734,36.621,49.805,51.758,0
1492418506.021,44.922,49.316,36.133,51.270,49.805,0
1492418506.025,40.527,48.340,32.227,51.758,17.090,0
1492418506.029,43.457,46.387,35.156,49.316,12.695,0
1492418506.032,47.852,46.875,42.480,50.293,57.129,0
1492418506.036,46.387,48.828,42.480,55.176,50.293,0
1492418506.040,53.223,52.246,42.969,61.523,-0.488,0
1492418506.044,46.875,51.758,41.992,58.105,6.348,0
1492418506.048,27.832,44.922,38.086,51.270,28.320,0
1492418506.052,28.809,41.504,38.086,58.105,32.715,0
1492418506.056,38.086,43.945,43.945,65.430,15.625,0
1492418506.060,38.086,47.363,42.480,59.082,20.020,0
1492418506.064,31.738,37.109,36.133,45.410,43.457,0
1492418506.068,40.527,34.180,41.992,54.688,26.367,0
1492418506.071,48.828,43.945,41.992,58.105,41.016,0
1492418506.075,39.551,41.992,33.691,49.316,53.223,0
1492418506.079,39.062,41.016,35.645,53.711,44.922,0
1492418506.083,52.246,44.434,44.922,63.965,31.738,0
1492418506.087,60.059,48.340,51.270,72.266,26.855,0
1492418506.091,50.781,48.828,47.852,69.336,35.645,0
1492418506.095,46.875,39.551,40.039,60.059,26.367,0
1492418506.099,53.711,38.574,37.109,60.059,6.348,0
1492418506.103,56.152,44.434,38.574,58.105,-14.160,0
1492418506.107,49.805,41.992,29.785,51.270,7.812,0
1492418506.111,42.480,33.203,22.461,42.969,55.664,0
1492418506.114,35.156,23.438,25.879,39.551,31.250,0
1492418506.118,32.715,22.461,25.391,41.504,-0.977,0
1492418506.122,41.504,27.344,24.902,44.434,34.180,0
1492418506.126,40.039,25.391,26.367,40.527,33.691,0
1492418506.130,8.301,0.000,8.301,16.113,24.414,0
1492418506.134,-26.855,-26.855,-20.996,-7.324,20.020,0
1492418506.138,-29.297,-29.297,-27.832,-18.555,27.344,0
1492418506.142,-17.578,-18.066,-21.973,-19.043,15.137,0
1492418506.146,-21.484,-15.137,-25.879,-22.949,-8.789,0
1492418506.150,-25.391,-23.438,-34.668,-27.344,16.602,0
1492418506.154,-20.508,-32.715,-30.273,-26.855,49.316,0
1492418506.157,-22.461,-26.367,-21.484,-18.555,21.973,0
1492418506.161,-24.902,-16.602,-21.484,-18.066,15.137,0
1492418506.165,-23.926,-16.602,-24.414,-24.902,53.711,0
1492418506.169,-25.391,-16.602,-26.855,-21.973,61.035,0
1492418506.173,-23.438,-15.625,-29.785,-21.973,59.570,0
1492418506.177,-19.531,-17.090,-32.715,-23.438,38.574,0
1492418506.181,-26.367,-13.672,-33.203,-23.926,29.297,0
1492418506.185,-23.926,-10.254,-28.320,-17.090,49.805,0
1492418506.189,-20.996,-5.859,-25.391,-10.254,14.160,0
1492418506.193,-37.109,-5.859,-30.273,-16.113,-15.625,0
1492418506.196,-36.621,-7.812,-32.715,-26.855,35.156,0
1492418506.200,-34.180,-12.695,-28.320,-26.855,41.992,0
1492418506.204,-33.691,-12.695,-30.762,-29.297,16.113,0
1492418506.208,-41.504,-11.230,-40.527,-34.668,41.016,0
1492418506.212,-48.340,-14.648,-33.203,-29.297,20.020,0
1492418506.216,-45.410,-11.719,-24.902,-21.484,4.883,0
1492418506.220,-44.922,-12.207,-19.043,-16.113,10.254,0
1492418506.224,-34.668,-9.277,-13.184,-21.484,-1.465,0
1492418506.228,-26.367,-7.324,-9.277,-19.043,28.320,0
1492418506.232,-22.949,-4.883,-5.371,-15.625,37.598,0
1492418506.236,-21.973,1.465,-3.906,-21.973,-9.766,0
1492418506.239,-16.113,1.465,1.953,-14.160,-8.301,0
1492418506.243,-14.160,1.465,4.883,-1.465,37.598,0
1492418506.247,-6.348,3.906,3.418,-1.953,45.898,0
1492418506.251,-5.371,0.488,3.906,-9.766,53.223,0
1492418506.255,-5.859,2.930,9.766,-3.418,14.648,0
1492418506.259,-2.441,2.441,14.160,-0.488,9.766,0
1492418506.263,-8.301,13.184,16.113,1.465,19.043,0
1492418506.267,-4.883,25.391,17.578,8.789,23.926,0
1492418506.271,-4.883,21.484,16.113,-1.953,1.953,0
1492418506.275,-9.277,11.719,19.531,-3.906,-24.902,0
1492418506.279,-4.883,2.441,22.461,3.906,-2.441,0
1492418506.282,-4.395,2.441,20.020,-2.930,0.000,0
1492418506.286,-12.695,2.930,17.090,-4.395,12.695,0
1492418506.290,-19.531,1.465,17.090,3.418,33.203,0
1492418506.294,-17.578,7.324,11.719,3.418,14.160,0
1492418506.298,-21.973,20.020,7.324,4.395,7.812,0
1492418506.302,-21.973,19.531,7.324,1.465,28.809,0
1492418506.306,-6.836,17.090,13.184,-3.906,38.574,0
1492418506.310,-2.930,12.207,17.090,-4.883,37.109,0
1492418506.314,-8.789,11.719,11.719,0.488,35.645,0
1492418506.318,-11.230,5.859,4.883,-7.812,29.785,0
1492418506.321,-9.277,-5.371,4.395,-22.461,3.418,0
1492418506.325,-2.930,2.441,7.324,-20.508,-18.555,0
1492418506.329,0.000,0.977,6.348,-17.090,-27.344,0
1492418506.333,2.930,-3.418,10.254,-15.137,24.414,0
1492418506.337,-4.395,4.395,16.113,1.953,33.691,0
1492418506.341,-18.555,8.789,17.578,13.184,7.324,0
1492418506.345,-22.461,18.066,20.020,15.137,47.852,0
1492418506.349,-33.203,20.508,18.066,19.043,32.715,0
1492418506.353,-31.738,16.602,16.602,20.508,16.602,0
1492418506.357,-23.926,18.066,16.113,20.020,17.090,0
1492418506.361,-27.344,14.160,15.137,19.043,10.742,0
1492418506.364,-24.902,10.254,13.184,12.207,46.387,0
1492418506.368,-20.020,12.207,13.672,10.742,24.414,0
1492418506.372,-22.461,12.207,17.578,16.602,-7.812,0
1492418506.376,-21.484,11.719,18.066,11.719,20.020,0
1492418506.380,-17.090,13.672,13.184,3.906,11.719,0
1492418506.384,-20.996,9.766,12.207,11.230,13.184,0
1492418506.388,-16.602,9.277,15.625,16.113,37.109,0
1492418506.392,-1.465,11.719,10.742,8.789,28.809,0
1492418506.396,4.883,10.742,10.254,7.812,12.207,0
1492418506.400,6.836,16.113,14.160,7.324,16.602,0
1492418506.404,8.789,19.043,11.719,7.324,21.973,0
1492418506.407,5.859,20.996,9.277,4.883,34.668,0
1492418506.411,0.977,26.855,12.207,9.277,27.344,0
1492418506.415,3.418,22.461,14.648,16.113,19.043,0
1492418506.419,-6.348,6.348,3.418,4.395,30.762,0
1492418506.423,-29.297,-19.531,-24.414,-22.461,14.648,0
1492418506.427,-42.969,-45.898,-41.016,-39.062,30.273,0
1492418506.431,-51.270,-64.453,-43.945,-38.574,-11.230,0
1492418506.435,-51.758,-56.641,-42.480,-40.039,-10.254,0
1492418506.439,-49.316,-47.852,-38.574,-35.156,61.523,0
1492418506.443,-38.574,-45.410,-40.527,-32.227,44.434,0
1492418506.446,-38.086,-39.551,-45.410,-36.621,19.043,0
1492418506.450,-44.434,-42.480,-47.852,-33.203,-2.930,0
1492418506.454,-39.062,-46.875,-42.480,-26.367,6.836,0
1492418506.458,-35.645,-49.316,-38.574,-30.762,22.461,0
1492418506.462,-41.016,-46.875,-37.598,-32.715,7.324,0
1492418506.466,-41.504,-42.969,-27.832,-20.020,18.066,0
1492418506.470,-41.016,-40.527,-24.414,-17.578,35.156,0
1492418506.474,-37.109,-32.227,-23.438,-10.742,40.527,0
1492418506.478,-20.996,-17.578,-14.160,-4.395,5.371,0
1492418506.482,-14.648,-13.184,-13.184,-17.090,8.301,0
1492418506.486,-19.043,-10.742,-12.695,-13.672,55.664,0
1492418506.489,-25.879,-13.672,-14.648,-8.789,52.734,0
1492418506.493,-31.250,-23.438,-20.508,-10.254,30.273,0
1492418506.497,-39.062,-29.785,-25.879,-13.184,54.199,0
1492418506.501,-32.715,-21.484,-23.438,-17.578,26.367,0
1492418506.505,-30.273,-15.625,-18.066,-13.184,12.207,0
1492418506.509,-35.645,-13.672,-13.672,-6.348,12.207,0
1492418506.513,-25.391,-1.953,-6.836,1.465,7.324,0
1492418506.517,-14.160,0.488,-1.465,-3.418,7.324,0
1492418506.521,-9.277,0.488,3.418,-4.395,-17.090,0
1492418506.525,-6.836,9.766,10.742,1.953,-15.137,0
1492418506.529,-6.348,15.137,14.648,2.441,17.090,0
1492418506.532,-7.812,12.695,18.066,12.207,42.480,0
1492418506.536,-19.043,3.418,12.695,12.695,15.625,0
1492418506.540,-20.020,-1.465,3.418,2.441,3.418,0
1492418506.544,-6.348,5.371,3.906,1.465,40.527,0
1492418506.548,2.930,8.301,5.859,8.789,45.898,0
1492418506.552,12.207,15.137,10.254,21.484,40.039,0
1492418506.556,13.184,15.137,12.695,20.020,24.414,0
1492418506.560,7.812,10.742,9.277,11.719,13.184,0
1492418506.564,13.184,7.324,6.348,10.742,1.465,0
1492418506.568,7.324,0.000,2.441,9.766,5.859,0
1492418506.571,2.930,1.465,-1.465,4.883,6.836,0
1492418506.575,3.418,8.789,3.418,5.859,31.738,0
1492418506.579,7.812,11.719,5.859,16.602,33.691,0
1492418506.583,9.277,7.812,2.930,19.043,35.156,0
1492418506.587,3.418,6.836,2.441,20.996,41.992,0
1492418506.591,8.789,13.672,2.930,22.461,21.484,0
1492418506.595,16.602,24.414,4.883,22.461,39.551,0
1492418506.599,20.020,24.414,10.254,27.344,26.367,0
1492418506.603,26.855,21.484,17.090,28.320,17.090,0
1492418506.607,17.090,20.996,14.648,22.949,11.719,0
1492418506.611,6.348,19.531,15.625,27.344,0.000,0
1492418506.614,12.695,23.926,20.996,33.203,3.906,0
1492418506.618,16.602,34.180,27.832,32.715,23.438,0
1492418506.622,21.973,41.504,36.133,42.969,24.902,0
1492418506.626,25.391,29.297,34.180,43.457,-21.484,0
1492418506.630,23.438,21.973,28.320,33.691,-14.648,0
1492418506.634,25.391,26.855,28.320,32.227,8.301,0
1492418506.638,24.902,24.414,27.832,37.598,-7.324,0
1492418506.642,30.762,21.484,29.785,41.992,-11.230,0
1492418506.646,33.203,20.996,28.320,40.527,18.066,0
1492418506.650,28.809,17.090,20.508,38.086,28.320,0
1492418506.654,25.391,7.812,17.578,31.738,21.973,0
1492418506.657,21.973,0.977,12.207,24.902,-9.766,0
1492418506.661,17.578,4.883,11.230,26.855,-5.371,0
1492418506.665,9.766,9.277,14.160,31.250,12.695,0
1492418506.669,7.324,8.789,8.301,26.367,11.230,0
1492418506.673,16.602,7.812,10.254,20.020,-9.277,0
1492418506.677,30.273,7.812,15.137,23.926,-0.977,0
1492418506.681,32.227,15.625,20.508,29.785,-2.441,0
1492418506.685,28.320,20.020,20.996,32.227,7.324,0
1492418506.689,30.762,13.184,11.719,31.738,33.203,0
1492418506.693,38.086,13.184,14.160,32.715,25.879,0
1492418506.696,30.762,17.578,19.043,31.250,19.043,0
1492418506.700,21.973,20.996,19.043,28.320,-3.906,0
1492418506.704,29.785,27.344,24.902,25.391,-17.090,0
1492418506.708,31.250,25.391,21.973,25.391,16.113,0
1492418506.712,37.598,22.461,21.484,26.855,20.996,0
1492418506.716,35.645,19.043,24.414,25.391,16.602,0
1492418506.720,27.832,23.926,26.367,34.668,35.156,0
1492418506.724,31.250,29.785,26.367,35.645,33.691,0
1492418506.728,30.273,26.855,21.484,35.645,19.531,0
1492418506.732,35.645,28.320,18.555,36.621,28.320,0
1492418506.736,36.621,29.785,17.578,36.621,29.297,0
1492418506.739,37.598,29.785,21.973,43.457,25.879,0
1492418506.743,39.062,23.926,22.461,48.340,29.297,0
1492418506.747,30.762,18.555,22.949,43.457,7.324,0
1492418506.751,26.367,23.438,24.414,37.598,19.043,0
1492418506.755,24.902,21.973,23.438,27.344,39.062,0
1492418506.759,31.738,22.461,27.832,27.832,30.273,0
1492418506.763,35.645,21.484,26.855,30.273,26.367,0
1492418506.767,31.738,12.207,23.438,24.414,46.387,0
1492418506.771,26.855,7.812,19.531,22.461,53.711,0
1492418506.775,15.625,7.324,15.137,19.531,-6.836,0
1492418506.779,19.043,0.000,12.695,16.602,7.324,0
1492418506.782,22.461,0.977,11.719,15.625,37.109,0
1492418506.786,28.809,7.812,15.625,24.414,20.020,0
1492418506.790,34.668,10.254,20.508,27.832,17.578,0
1492418506.794,27.344,6.836,13.184,20.996,16.602,0
1492418506.798,30.762,-1.953,9.277,18.555,39.062,0
1492418506.802,37.598,0.488,16.113,25.879,47.363,0
1492418506.806,35.156,15.137,19.043,30.762,6.836,0
1492418506.810,35.645,20.020,20.020,28.809,-2.930,0
1492418506.814,36.133,20.996,18.066,24.902,22.461,0
1492418506.818,30.273,21.973,17.090,27.344,30.762,0
1492418506.821,37.598,15.625,22.949,26.855,11.230,0
1492418506.825,39.062,20.020,24.902,29.297,21.973,0
1492418506.829,29.785,18.066,24.902,33.203,50.293,0
1492418506.833,29.297,16.602,28.809,35.156,29.297,0
1492418506.837,37.598,23.438,32.227,36.133,-1.953,0
1492418506.841,41.016,24.902,30.762,33.691,26.855,0
1492418506.845,41.992,26.367,31.250,35.156,43.457,0
1492418506.849,43.945,32.227,33.203,35.645,25.391,0
1492418506.853,40.527,32.227,32.715,30.762,16.113,0
1492418506.857,34.668,29.297,28.320,28.809,14.648,0
1492418506.861,31.250,27.832,27.344,28.809,21.484,0
1492418506.864,24.902,26.855,26.367,26.855,10.254,0
1492418506.868,16.602,18.066,21.973,23.926,8.301,0
1492418506.872,17.090,11.230,15.137,16.602,34.180,0
1492418506.876,29.297,21.973,17.090,18.066,49.805,0
1492418506.880,35.645,38.086,24.414,28.809,59.082,0
1492418506.884,34.180,36.621,20.508,29.785,38.086,0
1492418506.888,40.527,30.273,22.461,36.133,33.691,0
1492418506.892,38.086,35.645,24.902,40.039,47.852,0
1492418506.896,41.504,36.133,27.832,44.922,13.184,0
1492418506.900,38.086,26.855,25.879,46.387,37.109,0
1492418506.904,33.203,28.320,15.137,34.180,69.824,0
1492418506.907,32.227,28.809,16.113,30.762,32.227,0
1492418506.911,23.926,29.297,17.090,28.320,4.883,0
1492418506.915,24.414,28.809,5.859,18.555,15.137,0
1492418506.919,23.926,18.555,3.418,15.137,60.059,0
1492418506.923,18.066,16.602,5.859,18.066,34.668,0
1492418506.927,21.484,25.879,10.254,20.996,-9.277,0
1492418506.931,27.344,34.180,19.531,29.785,4.395,0
1492418506.935,33.203,35.645,18.555,29.297,15.137,0
1492418506.939,30.762,33.203,17.090,25.879,43.945,0
1492418506.943,28.809,34.668,23.438,34.668,13.184,0
1492418506.946,38.086,32.227,23.438,36.133,-17.090,0
1492418506.950,44.434,32.227,21.973,33.691,34.668,0
1492418506.954,38.574,34.668,26.855,32.715,51.270,0
1492418506.958,26.855,28.809,26.855,32.227,59.082,0
1492418506.962,23.438,28.809,20.508,36.621,79.590,0
1492418506.966,21.973,29.297,18.555,35.156,46.875,0
1492418506.970,18.066,19.531,15.137,23.926,45.898,0
1492418506.974,14.648,19.531,15.625,26.855,54.688,0
1492418506.978,14.160,22.461,14.160,23.438,52.246,0
1492418506.982,18.066,27.344,16.602,15.625,48.828,0
1492418506.986,17.578,35.645,23.438,30.273,27.832,0
1492418506.989,20.020,42.969,26.367,29.785,-7.812,0
1492418506.993,28.809,41.992,23.926,18.066,3.418,0
1492418506.997,25.391,34.180,23.438,20.996,45.410,0
1492418507.001,27.832,31.738,20.996,20.508,30.273,0
1492418507.005,42.969,33.691,17.578,14.648,8.789,0
1492418507.009,51.270,35.645,22.949,15.137,17.090,0
1492418507.013,45.898,36.133,29.785,24.414,16.113,0
1492418507.017,39.551,36.133,32.227,34.668,14.648,0
1492418507.021,33.691,30.273,30.762,37.598,44.922,0
1492418507.025,22.949,31.738,34.180,47.363,45.410,0
1492418507.029,15.625,33.203,35.645,56.152,19.043,0
1492418507.032,16.113,29.785,32.715,58.594,5.859,0
1492418507.036,16.602,28.809,34.180,58.105,33.203,0
1492418507.040,21.484,30.762,34.668,55.664,43.945,0
1492418507.044,23.926,32.715,36.621,60.547,16.113,0
1492418507.048,30.273,39.551,41.992,68.848,-1.465,0
1492418507.052,35.645,46.875,41.016,73.242,28.320,0
1492418507.056,31.738,43.457,35.645,68.359,49.316,0
1492418507.060,32.715,31.738,29.785,62.012,11.719,0
1492418507.064,30.762,30.273,29.785,59.082,1.465,0
1492418507.068,31.738,35.645,30.762,57.617,30.273,0
1492418507.071,33.691,38.086,25.879,49.805,41.992,0
1492418507.075,34.180,34.668,19.531,35.156,28.809,0
1492418507.079,33.203,31.250,24.414,32.227,22.461,0
1492418507.083,37.598,32.715,31.738,34.668,27.344,0
1492418507.087,46.875,41.992,36.133,34.668,15.137,0
1492418507.091,45.898,42.969,38.574,31.738,1.953,0
1492418507.095,39.062,37.109,34.668,33.203,21.484,0
1492418507.099,40.039,43.457,37.598,35.645,40.039,0
1492418507.103,40.039,47.363,41.504,36.621,-17.578,0
1492418507.107,31.250,43.457,34.668,35.645,-39.062,0
1492418507.111,24.414,42.969,32.715,30.273,14.648,0
1492418507.114,20.020,40.527,32.227,26.367,29.785,0
1492418507.118,13.184,39.062,27.344,29.297,5.859,0
1492418507.122,11.719,24.414,25.391,26.367,-3.906,0
1492418507.126,12.695,5.371,22.461,20.508,12.695,0
1492418507.130,7.324,8.301,21.484,25.391,25.879,0
1492418507.134,0.488,16.113,17.578,22.949,21.973,0
1492418507.138,5.859,21.973,17.090,11.719,20.020,0
1492418507.142,12.207,27.832,17.090,15.137,18.066,0
1492418507.146,9.766,29.297,14.160,20.996,34.180,0
1492418507.150,-1.465,22.949,10.742,15.137,34.180,0
1492418507.154,-2.930,18.555,9.277,15.137,22.461,0
1492418507.157,-3.906,15.137,13.672,21.973,43.457,0
1492418507.161,6.348,15.137,16.602,22.461,30.762,0
1492418507.165,27.344,20.996,21.973,32.715,-11.230,0
1492418507.169,29.785,26.367,26.367,42.480,-9.277,0
1492418507.173,28.809,32.227,23.926,40.039,22.949,0
1492418507.177,36.621,34.668,28.320,35.156,32.227,0
1492418507.181,28.320,27.344,25.879,32.227,14.160,0
1492418507.185,11.719,17.090,16.602,31.250,19.043,0
1492418507.189,19.043,17.090,20.020,31.250,37.598,0
1492418507.193,30.273,18.555,23.438,33.691,24.902,0
1492418507.196,29.297,15.137,19.043,22.461,13.672,0
1492418507.200,21.973,16.113,17.090,12.207,20.996,0
1492418507.204,13.184,16.113,17.090,23.926,21.973,0
1492418507.208,16.113,22.461,18.066,30.762,1.953,0
1492418507.212,20.996,25.391,20.020,29.785,1.953,0
1492418507.216,19.043,19.043,17.578,29.297,7.324,0
1492418507.220,21.973,20.996,20.020,33.691,1.953,0
1492418507.224,23.438,24.902,25.391,40.039,8.301,0
1492418507.228,26.855,27.832,27.344,46.387,-7.812,0
1492418507.232,32.715,28.809,30.762,37.109,11.719,0
1492418507.236,41.992,30.762,36.133,35.645,53.711,0
1492418507.239,32.715,28.320,32.715,37.598,15.137,0
1492418507.243,16.113,27.344,26.855,31.250,10.254,0
1492418507.247,20.996,33.203,26.855,32.227,39.551,0
1492418507.251,22.949,32.227,23.926,32.227,39.062,0
1492418507.255,19.531,30.762,25.879,36.133,28.320,0
1492418507.259,23.926,27.832,32.715,35.645,10.254,0
1492418507.263,31.738,24.902,31.250,30.273,40.039,0
1492418507.267,37.598,29.297,29.297,33.203,32.715,0
1492418507.271,31.250,32.227,28.320,37.598,3.906,0
1492418507.275,17.090,26.367,26.855,37.109,21.484,0
1492418507.279,15.625,27.344,21.484,28.809,30.273,0
1492418507.282,20.508,33.691,21.484,24.902,25.391,0
1492418507.286,20.020,31.738,27.832,23.926,19.043,0
1492418507.290,16.113,22.949,25.879,18.555,32.715,0
1492418507.294,24.414,23.926,26.855,15.137,41.016,0
1492418507.298,25.879,27.344,23.926,7.812,-1.465,0
1492418507.302,15.625,31.738,21.484,5.371,-10.742,0
1492418507.306,17.090,34.180,21.973,4.883,-4.395,0
1492418507.310,17.090,30.273,21.973,6.348,20.020,0
1492418507.314,13.672,23.926,25.391,9.277,-2.441,0
1492418507.318,8.301,15.625,23.926,1.953,-36.133,0
1492418507.321,8.301,19.043,24.414,2.441,2.930,0
1492418507.325,15.137,24.414,33.203,15.625,24.902,0
1492418507.329,11.230,18.555,32.715,13.672,33.691,0
1492418507.333,3.418,16.602,23.438,7.324,47.852,0
1492418507.337,-0.488,18.066,19.531,8.301,37.598,0
1492418507.341,0.488,21.484,20.508,17.578,11.719,0
1492418507.345,4.395,30.762,24.902,21.484,-5.371,0
1492418507.349,1.953,36.133,29.785,20.020,8.301,0
1492418507.353,2.930,36.133,31.250,25.391,37.598,0
1492418507.357,19.043,30.762,26.855,31.250,33.203,0
1492418507.361,17.578,25.879,24.902,33.691,-26.855,0
1492418507.364,5.859,29.297,22.949,25.391,-5.859,0
1492418507.368,13.184,34.180,23.438,22.461,42.480,0
1492418507.372,24.414,41.016,29.297,35.156,26.367,0
1492418507.376,20.508,46.387,32.227,37.598,29.785,0
1492418507.380,13.184,44.922,27.344,38.574,24.902,0
1492418507.384,13.184,45.898,23.926,41.016,23.438,0
1492418507.388,13.184,39.551,24.414,32.715,18.066,0
1492418507.392,15.625,31.738,20.020,25.391,19.043,0
1492418507.396,16.602,32.715,20.508,25.391,37.598,0
1492418507.400,22.461,29.297,23.438,27.344,27.344,0
1492418507.404,23.926,31.250,25.879,25.879,9.766,0
1492418507.407,16.113,41.016,30.273,29.785,-0.488,0
1492418507.411,20.020,40.039,35.156,37.109,11.719,0
1492418507.415,27.344,41.992,38.086,41.992,35.156,0
1492418507.419,24.414,46.875,35.156,35.156,11.230,0
1492418507.423,29.297,46.387,37.598,29.297,-27.832,0
1492418507.427,35.645,48.828,42.480,29.785,8.301,0
1492418507.431,30.273,45.898,48.340,38.574,66.895,0
1492418507.435,32.715,41.992,46.387,37.109,64.453,0
1492418507.439,28.320,45.898,40.039,26.367,28.809,0
1492418507.443,8.301,39.551,33.203,24.414,44.922,0
1492418507.446,0.977,30.762,27.344,19.043,33.691,0
1492418507.450,15.625,37.598,33.203,23.438,-29.297,0
1492418507.454,16.602,39.062,32.227,22.461,-16.113,0
1492418507.458,6.836,33.691,29.297,18.066,38.086,0
1492418507.462,7.324,26.367,24.414,19.043,46.875,0
1492418507.466,6.348,23.438,19.043,18.555,41.992,0
1492418507.470,-0.488,25.879,19.531,19.531,32.715,0
1492418507.474,0.000,27.832,20.508,13.672,59.082,0
1492418507.478,10.254,21.484,21.484,15.137,81.543,0
1492418507.482,10.742,15.625,19.531,16.602,38.574,0
1492418507.486,10.742,19.043,20.020,10.254,35.156,0
1492418507.489,13.672,16.602,18.555,15.625,75.684,0
1492418507.493,18.066,22.949,21.973,21.484,65.430,0
1492418507.497,26.367,26.855,25.879,16.113,42.480,0
1492418507.501,22.461,21.484,18.066,18.555,59.082,0
1492418507.505,10.742,21.484,11.719,33.203,53.223,0
1492418507.509,13.184,17.090,10.742,26.855,64.941,0
1492418507.513,19.043,9.277,6.836,9.766,47.363,0
1492418507.517,22.461,11.230,11.230,20.020,21.973,0
1492418507.521,35.645,18.066,27.344,36.621,51.758,0
1492418507.525,38.574,24.902,33.691,42.480,14.648,0
1492418507.529,34.668,32.227,35.156,43.945,19.043,0
1492418507.532,41.504,32.227,37.598,42.480,57.129,0
1492418507.536,45.410,24.902,33.203,37.598,46.387,0
1492418507.540,45.410,24.414,34.180,40.527,44.434,0
1492418507.544,43.945,26.855,36.621,40.039,50.293,0
1492418507.548,41.016,23.438,37.109,41.016,42.480,0
1492418507.552,38.086,23.438,41.016,49.316,31.738,0
1492418507.556,35.156,30.273,38.574,43.457,1.953,0
1492418507.560,37.109,33.203,30.762,27.344,-0.977,0
1492418507.564,38.086,33.691,30.273,26.855,25.879,0
1492418507.568,27.344,33.203,31.738,32.227,32.715,0
1492418507.571,19.043,39.062,34.668,31.250,25.879,0
1492418507.575,13.184,37.109,32.715,30.273,2.930,0
1492418507.579,15.625,28.320,33.203,33.691,42.480,0
1492418507.583,23.926,23.926,35.645,39.062,46.875,0
1492418507.587,15.137,26.367,34.668,32.227,24.902,0
1492418507.591,3.418,26.367,35.645,23.926,27.832,0
1492418507.595,2.441,18.555,31.738,26.367,25.879,0
1492418507.599,8.301,13.672,33.203,30.273,19.043,0
1492418507.603,11.719,15.625,35.645,31.250,-8.301,0
1492418507.607,7.812,18.066,29.297,29.297,2.441,0
1492418507.611,-0.977,13.672,27.344,28.809,46.875,0
1492418507.614,-8.301,11.230,23.438,24.902,41.992,0
1492418507.618,0.977,16.113,27.344,28.809,26.367,0
1492418507.622,18.555,28.320,33.203,34.668,43.945,0
1492418507.626,27.344,41.992,36.133,36.133,50.781,0
1492418507.630,30.762,42.480,43.457,37.598,41.992,0
1492418507.634,27.344,40.527,46.875,43.945,41.016,0
1492418507.638,29.297,48.828,47.363,54.199,49.805,0
1492418507.642,31.250,56.641,49.316,53.711,29.297,0
1492418507.646,37.109,57.617,48.828,55.176,7.812,0
1492418507.650,42.969,54.688,44.434,54.199,30.762,0
1492418507.654,42.480,52.734,40.039,49.805,46.875,0
1492418507.657,39.062,51.758,41.992,52.734,31.250,0
1492418507.661,38.086,41.016,34.180,41.016,33.691,0
1492418507.665,45.410,41.992,31.250,36.133,38.574,0
1492418507.669,57.129,45.898,43.457,41.504,24.902,0
1492418507.673,63.965,42.969,50.293,37.598,27.344,0
1492418507.677,69.824,49.316,49.805,37.109,34.180,0
1492418507.681,67.383,50.293,44.434,32.715,22.461,0
1492418507.685,72.266,52.246,43.945,27.344,16.602,0
1492418507.689,90.820,57.129,47.363,36.621,4.883,0
1492418507.693,80.078,47.363,45.898,43.457,-20.996,0
1492418507.696,58.105,34.668,45.898,47.363,-3.906,0
1492418507.700,50.293,39.062,49.316,53.223,20.020,0
1492418507.704,32.715,35.645,45.410,54.199,17.578,0
1492418507.708,21.484,31.250,41.504,54.199,26.367,0
1492418507.712,20.508,32.227,38.086,50.781,34.180,0
1492418507.716,29.785,30.273,37.109,48.828,33.691,0
1492418507.720,27.344,30.273,36.621,49.805,46.387,0
1492418507.724,15.625,28.320,41.992,56.152,25.879,0
1492418507.728,16.602,22.949,49.805,65.918,20.508,0
1492418507.732,15.137,23.926,45.898,64.453,12.207,0
1492418507.736,23.926,31.250,36.621,54.688,-37.109,0
1492418507.739,30.762,27.344,31.250,46.387,-11.719,0
1492418507.743,25.391,23.438,34.668,43.945,44.922,0
1492418507.747,28.320,28.320,40.039,50.781,24.902,0
1492418507.751,29.785,25.879,43.457,45.410,0.488,0
1492418507.755,23.438,20.996,36.621,32.227,21.973,0
1492418507.759,21.973,16.602,33.203,35.156,40.039,0
1492418507.763,21.484,14.160,40.039,39.062,26.367,0
1492418507.767,20.996,20.508,39.062,38.086,35.156,0
1492418507.771,21.973,22.949,26.855,35.156,64.941,0
1492418507.775,23.926,24.414,20.508,28.809,31.738,0
1492418507.779,23.926,17.090,25.879,31.250,8.301,0
1492418507.782,16.113,14.648,31.738,38.574,-3.906,0
1492418507.786,9.766,21.973,30.273,35.645,20.996,0
1492418507.790,12.695,15.625,32.227,34.668,31.250,0
1492418507.794,17.090,16.602,36.133,33.691,6.348,0
1492418507.798,21.973,27.344,34.668,39.551,28.320,0
1492418507.802,28.809,26.367,34.180,38.574,21.973,0
1492418507.806,38.086,29.297,41.016,40.527,7.324,0
1492418507.810,47.852,37.598,41.016,46.875,-0.488,0
1492418507.814,45.898,29.297,32.715,39.551,22.461,0
1492418507.818,38.574,24.902,31.738,37.598,32.227,0
1492418507.821,37.598,27.832,33.203,46.875,-6.836,0
1492418507.825,39.551,26.855,27.344,45.410,-32.227,0
1492418507.829,40.527,25.879,27.344,43.457,-4.883,0
1492418507.833,40.527,24.902,25.391,43.945,23.926,0
1492418507.837,46.875,25.879,20.508,41.016,18.066,0
1492418507.841,58.105,31.250,18.066,31.738,25.879,0
1492418507.845,57.129,30.273,21.484,29.785,16.602,0
1492418507.849,52.734,31.738,32.715,42.480,25.879,0
1492418507.853,48.340,35.645,36.133,52.734,41.992,0
1492418507.857,51.270,37.109,38.574,57.129,19.043,0
1492418507.861,48.340,29.785,40.527,52.734,25.391,0
1492418507.864,37.598,23.438,31.250,46.387,45.898,0
1492418507.868,37.598,29.785,30.762,43.457,50.293,0
1492418507.872,39.062,28.809,34.180,48.828,3.906,0
1492418507.876,29.785,21.484,29.297,46.875,10.742,0
1492418507.880,28.320,22.461,29.297,41.992,39.062,0
1492418507.884,30.762,28.320,34.180,44.922,4.395,0
1492418507.888,37.598,31.250,40.039,50.781,3.418,0
1492418507.892,40.039,29.785,40.039,53.223,35.156,0
1492418507.896,34.668,28.809,41.016,52.734,49.805,0
1492418507.900,22.461,22.949,38.086,49.316,36.133,0
1492418507.904,20.508,8.301,32.227,35.645,37.109,0
1492418507.907,22.949,4.883,29.297,24.414,40.039,0
1492418507.911,20.508,14.160,27.344,24.414,24.902,0
1492418507.915,25.391,17.578,27.344,28.320,8.301,0
1492418507.919,28.320,16.602,30.762,34.668,26.367,0
1492418507.923,27.832,12.695,32.715,32.227,41.992,0
1492418507.927,34.668,16.602,35.156,34.668,29.297,0
1492418507.931,43.457,25.879,38.086,43.945,4.883,0
1492418507.935,45.898,22.949,36.621,34.180,2.930,0
1492418507.939,44.434,21.484,33.691,31.250,37.598,0
1492418507.943,46.875,27.832,38.574,41.992,24.902,0
1492418507.946,49.316,25.879,37.109,39.551,-16.113,0
1492418507.950,46.875,23.438,32.227,39.551,22.949,0
1492418507.954,41.016,21.973,36.621,46.875,34.668,0
1492418507.958,42.480,21.484,36.133,46.875,-30.762,0
1492418507.962,45.410,19.531,37.109,46.387,5.859,0
1492418507.966,44.434,15.137,39.062,41.992,16.113,0
1492418507.970,43.945,14.648,38.574,44.434,13.184,0
1492418507.974,37.598,12.207,39.062,45.898,41.992,0
1492418507.978,21.973,10.254,34.668,39.062,9.766,0
1492418507.982,8.301,16.113,39.062,38.574,4.395,0
1492418507.986,15.137,21.973,47.363,42.480,17.090,0
1492418507.989,14.648,11.230,42.969,41.016,19.531,0
1492418507.993,14.648,5.371,37.109,39.551,-1.953,0
1492418507.997,21.973,12.207,37.109,41.992,18.555,0
1492418508.001,22.949,17.578,39.551,41.504,54.199,0
1492418508.005,24.902,22.949,38.574,37.598,-1.465,0
1492418508.009,27.344,19.531,41.504,40.527,-24.902,0
1492418508.013,30.273,21.973,40.527,41.016,0.488,0
1492418508.017,24.902,28.809,38.086,42.969,19.531,0
1492418508.021,23.926,32.227,43.945,55.664,-27.344,0
1492418508.025,31.738,24.414,41.992,50.293,-19.531,0
1492418508.029,40.039,22.949,39.551,42.969,20.020,0
1492418508.032,51.758,32.715,43.945,54.688,18.555,0
1492418508.036,46.387,34.668,42.480,52.734,20.020,0
1492418508.040,41.504,32.227,35.645,42.480,19.531,0
1492418508.044,53.711,33.203,42.480,45.410,11.230,0
1492418508.048,47.852,36.133,50.293,51.270,-3.418,0
1492418508.052,37.598,38.574,42.480,47.852,-0.977,0
1492418508.056,42.969,40.039,41.016,46.387,4.883,0
1492418508.060,33.203,38.086,40.527,46.875,13.672,0
1492418508.064,33.691,32.227,40.527,46.387,-3.418,0
1492418508.068,41.504,32.715,45.898,49.805,-15.625,0
1492418508.071,48.828,40.527,49.316,49.805,18.066,0
1492418508.075,49.316,45.898,54.688,51.270,38.086,0
1492418508.079,41.504,47.852,52.734,51.758,14.648,0
1492418508.083,37.109,48.340,41.992,45.410,-0.977,0
1492418508.087,28.809,44.434,37.598,33.691,7.812,0
1492418508.091,27.832,45.898,42.969,42.480,16.602,0
1492418508.095,26.855,45.898,42.969,44.922,15.625,0
1492418508.099,23.926,35.645,34.668,32.715,20.508,0
1492418508.103,18.066,33.203,30.273,34.668,20.020,0
1492418508.107,13.184,34.668,32.715,37.109,10.254,0
1492418508.111,13.184,24.902,28.809,32.227,8.301,0
1492418508.114,10.254,12.207,24.902,32.227,6.348,0
1492418508.118,21.973,12.695,31.738,36.133,27.832,0
1492418508.122,33.691,21.484,38.086,46.875,48.828,0
1492418508.126,31.738,28.809,39.551,52.246,-23.438,0
1492418508.130,23.926,26.367,35.645,48.828,-25.391,0
1492418508.134,28.809,29.297,42.480,57.617,32.227,0
1492418508.138,37.598,31.250,47.363,61.523,23.438,0
1492418508.142,35.645,20.996,35.645,52.246,24.902,0
1492418508.146,29.297,21.973,35.156,56.152,39.551,0
1492418508.150,24.902,21.973,31.250,55.664,50.293,0
1492418508.154,33.203,20.996,32.715,55.176,28.809,0
1492418508.157,41.992,26.367,43.457,58.105,6.836,0
1492418508.161,37.598,24.414,41.504,57.617,38.574,0
1492418508.165,44.434,27.344,42.480,59.570,42.480,0
1492418508.169,59.570,33.203,47.363,62.012,28.809,0
1492418508.173,50.781,36.133,42.480,54.688,2.930,0
1492418508.177,32.227,31.738,36.133,46.875,-8.789,0
1492418508.181,40.039,30.762,42.969,57.617,28.809,0
1492418508.185,43.945,34.668,42.480,57.129,20.020,0
1492418508.189,30.273,33.203,32.227,43.457,20.996,0
1492418508.193,31.738,35.645,27.832,34.180,46.387,0
1492418508.196,41.504,36.133,27.832,34.668,18.066,0
1492418508.200,39.551,26.367,29.785,39.551,-14.160,0
1492418508.204,23.926,23.926,25.879,36.621,-6.836,0
1492418508.208,16.602,21.973,20.996,28.809,25.879,0
1492418508.212,18.066,9.766,20.020,29.297,16.113,0
1492418508.216,9.766,4.883,15.625,24.414,3.418,0
1492418508.220,12.207,15.625,20.020,23.926,32.227,0
1492418508.224,19.531,22.461,30.762,36.621,21.484,0
1492418508.228,23.438,27.344,35.156,41.504,-0.488,0
1492418508.232,35.156,31.738,30.762,37.598,42.969,0
1492418508.236,39.551,29.297,30.762,42.969,47.852,0
1492418508.239,28.809,22.461,31.738,46.387,37.109,0
1492418508.243,23.926,30.762,29.785,46.387,4.395,0
1492418508.247,19.043,41.992,28.320,52.246,-0.977,0
1492418508.251,16.602,34.668,28.809,48.340,10.742,0
1492418508.255,22.949,36.133,33.203,51.270,13.672,0
1492418508.259,25.879,43.945,37.598,62.012,25.391,0
1492418508.263,35.156,45.898,37.598,63.477,22.461,0
1492418508.267,39.551,44.434,32.227,52.734,33.203,0
1492418508.271,30.273,41.992,31.250,49.805,26.855,0
1492418508.275,27.344,43.457,34.668,53.223,17.578,0
1492418508.279,36.133,43.457,38.086,52.734,15.137,0
1492418508.282,39.551,37.109,31.738,51.758,26.367,0
1492418508.286,33.691,35.156,25.391,46.387,20.508,0
1492418508.290,35.645,41.992,27.344,43.457,0.000,0
1492418508.294,33.691,36.621,21.973,41.504,-4.395,0
1492418508.298,22.949,22.949,18.555,40.527,34.180,0
1492418508.302,15.625,15.625,25.391,44.434,52.734,0
1492418508.306,20.508,14.648,28.320,39.551,1.465,0
1492418508.310,25.879,18.555,29.297,38.574,19.043,0
1492418508.314,25.391,24.902,35.156,47.363,26.855,0
1492418508.318,27.832,31.250,35.645,47.363,11.719,0
1492418508.321,35.645,28.320,36.133,45.410,26.855,0
1492418508.325,38.574,32.227,37.109,42.480,37.109,0
1492418508.329,35.156,42.969,36.133,41.016,59.570,0
1492418508.333,32.227,46.387,38.574,41.016,45.898,0
1492418508.337,31.250,47.852,40.039,41.504,25.391,0
1492418508.341,32.227,50.781,38.086,43.457,43.945,0
1492418508.345,39.551,53.711,41.016,48.828,28.809,0
1492418508.349,38.086,49.805,46.875,52.246,-8.789,0
1492418508.353,32.715,39.062,47.852,50.781,-7.324,0
1492418508.357,36.133,35.645,43.457,50.293,30.273,0
1492418508.361,50.293,41.504,43.457,53.711,44.434,0
1492418508.364,62.012,39.551,45.410,51.270,14.648,0
1492418508.368,61.035,26.855,39.062,45.410,2.441,0
1492418508.372,62.012,20.020,34.180,44.434,32.227,0
1492418508.376,67.871,28.320,36.621,45.410,41.504,0
1492418508.380,66.406,31.738,30.762,40.039,32.715,0
1492418508.384,68.848,33.691,29.297,48.828,13.184,0
1492418508.388,63.477,36.133,30.273,60.059,7.812,0
1492418508.392,49.316,28.809,28.809,65.430,17.090,0
1492418508.396,41.992,27.344,28.320,68.848,11.230,0
1492418508.400,38.086,32.715,23.926,67.871,11.719,0
1492418508.404,35.156,32.227,22.461,70.801,17.090,0
1492418508.407,38.086,25.391,23.926,63.965,28.320,0
1492418508.411,34.180,26.855,27.344,65.430,37.109,0
1492418508.415,19.531,35.645,27.832,71.289,31.250,0
1492418508.419,21.484,41.016,28.809,66.895,43.945,0
1492418508.423,35.156,48.340,31.250,71.777,25.879,0
1492418508.427,41.016,45.898,29.785,66.895,-7.324,0
1492418508.431,41.992,37.109,27.832,54.199,9.277,0
1492418508.435,44.434,40.527,30.273,46.875,40.039,0
1492418508.439,43.945,52.734,34.668,48.828,17.090,0
1492418508.443,41.504,62.500,34.668,51.270,-16.602,0
1492418508.446,32.227,49.805,27.832,38.086,30.273,0
1492418508.450,31.738,39.062,27.344,36.621,46.387,0
1492418508.454,39.062,46.875,32.227,41.016,34.668,0
1492418508.458,41.504,57.129,38.574,37.109,20.996,0
1492418508.462,38.086,55.664,45.410,28.809,3.906,0
1492418508.466,29.785,48.340,45.898,27.832,22.461,0
1492418508.470,25.879,43.457,41.504,27.832,16.602,0
1492418508.474,25.391,37.109,35.156,22.461,9.277,0
1492418508.478,20.996,25.879,25.391,16.602,5.371,0
1492418508.482,20.508,24.902,20.508,18.066,-1.953,0
1492418508.486,19.531,31.738,24.414,21.973,-19.531,0
1492418508.489,19.043,29.785,23.926,23.438,-15.625,0
1492418508.493,17.090,27.832,20.020,25.391,29.785,0
1492418508.497,20.996,34.668,28.809,33.691,24.902,0
1492418508.501,35.645,47.363,36.621,43.945,23.438,0
1492418508.505,36.133,43.945,32.715,45.410,59.082,0
1492418508.509,38.574,37.109,34.668,47.852,65.918,0
1492418508.513,42.969,42.480,39.062,54.688,48.828,0
1492418508.517,50.781,44.922,46.875,67.871,19.531,0
1492418508.521,58.594,47.852,50.781,70.801,24.902,0
1492418508.525,56.641,48.340,44.922,60.059,38.086,0
1492418508.529,61.523,50.781,46.875,66.406,14.648,0
1492418508.532,56.641,47.363,41.992,61.035,-16.113,0
1492418508.536,54.199,33.691,33.203,52.246,9.277,0
1492418508.540,59.570,28.809,31.738,58.594,17.578,0
1492418508.544,65.918,31.738,33.691,61.523,27.344,0
1492418508.548,68.848,33.691,34.180,55.664,29.785,0
1492418508.552,66.406,33.203,32.715,43.457,15.625,0
1492418508.556,79.102,36.621,33.203,42.969,30.762,0
1492418508.560,71.777,35.156,32.227,43.945,29.297,0
1492418508.564,45.410,22.949,30.762,40.039,35.156,0
1492418508.568,48.828,24.902,29.297,38.574,54.688,0
1492418508.571,53.223,24.902,27.832,38.574,53.711,0
1492418508.575,51.758,17.578,32.227,40.039,26.367,0
1492418508.579,40.527,17.578,32.227,25.391,16.602,0
1492418508.583,26.855,20.996,29.785,10.254,10.254,0
1492418508.587,30.273,24.414,32.227,14.648,5.371,0
1492418508.591,35.156,25.879,29.785,13.672,17.578,0
1492418508.595,27.344,20.996,23.926,7.324,21.484,0
1492418508.599,16.602,9.277,15.625,1.465,25.879,0
1492418508.603,19.043,3.906,10.254,0.488,15.137,0
1492418508.607,22.949,9.766,14.648,7.324,14.160,0
1492418508.611,12.207,16.602,18.555,6.836,25.391,0
1492418508.614,10.254,23.926,25.879,12.695,34.668,0
1492418508.618,26.367,26.367,33.691,21.484,23.438,0
1492418508.622,30.762,20.508,31.738,20.508,-4.395,0
1492418508.626,31.738,19.043,33.691,28.320,12.207,0
1492418508.630,43.945,20.996,37.109,32.227,28.809,0
1492418508.634,38.086,17.578,34.668,29.785,20.508,0
1492418508.638,25.391,13.672,32.227,26.855,22.461,0
1492418508.642,35.156,16.602,32.715,26.855,32.227,0
1492418508.646,46.875,24.414,40.527,36.621,36.133,0
1492418508.650,51.270,35.645,45.410,44.922,6.836,0
1492418508.654,42.969,45.410,42.969,48.340,6.836,0
1492418508.657,39.551,41.504,38.574,55.664,31.250,0
1492418508.661,49.316,32.227,36.621,57.617,23.438,0
1492418508.665,49.316,31.250,33.691,53.223,22.949,0
1492418508.669,52.734,33.691,36.621,45.410,19.043,0
1492418508.673,42.480,32.227,35.156,44.434,8.301,0
1492418508.677,28.320,28.809,28.809,42.480,6.836,0
1492418508.681,32.715,29.785,30.273,41.992,1.953,0
1492418508.685,34.180,27.344,26.367,39.062,-2.441,0
1492418508.689,34.668,27.344,30.762,42.480,24.414,0
1492418508.693,42.480,34.180,41.992,51.270,33.203,0
1492418508.696,49.805,30.762,40.039,50.293,23.926,0
1492418508.700,53.223,30.273,41.504,58.594,21.484,0
1492418508.704,60.547,41.992,48.828,63.965,32.715,0
1492418508.708,62.500,41.016,48.828,59.082,19.043,0
1492418508.712,56.641,41.504,43.945,57.129,1.953,0
1492418508.716,46.875,44.922,42.480,50.293,11.230,0
1492418508.720,40.039,43.457,41.992,47.852,2.441,0
1492418508.724,38.086,39.551,43.945,47.363,1.465,0
1492418508.728,40.527,46.875,55.664,56.152,-1.953,0
1492418508.732,54.199,52.246,62.012,66.895,26.367,0
1492418508.736,59.570,54.688,63.477,65.918,53.223,0
1492418508.739,63.965,55.176,67.383,66.895,9.766,0
1492418508.743,65.918,53.223,63.477,71.777,12.695,0
1492418508.747,66.406,54.688,59.570,69.336,38.086,0
1492418508.751,61.035,52.734,57.617,62.988,28.809,0
1492418508.755,51.758,49.805,57.617,69.336,25.879,0
1492418508.759,57.129,47.852,61.035,79.102,-3.418,0
1492418508.763,55.664,41.504,58.105,71.777,12.207,0
1492418508.767,55.176,44.434,57.617,68.848,37.598,0
1492418508.771,60.547,46.387,57.617,74.707,12.695,0
1492418508.775,43.945,33.203,43.457,62.012,3.418,0
1492418508.779,40.039,33.691,37.109,57.617,22.949,0
1492418508.782,53.223,43.945,40.527,72.754,24.414,0
1492418508.786,52.734,50.781,42.969,71.777,1.953,0
1492418508.790,44.922,53.223,43.457,62.500,6.348,0
1492418508.794,53.711,45.898,39.551,58.594,31.738,0
1492418508.798,57.617,42.480,39.062,58.594,41.016,0
1492418508.802,42.480,36.133,41.504,57.617,18.066,0
1492418508.806,35.156,32.227,43.945,51.758,20.996,0
1492418508.810,27.832,33.203,43.945,44.922,41.504,0
1492418508.814,24.414,33.691,41.016,37.109,23.438,0
1492418508.818,18.066,33.203,38.574,36.133,-7.324,0
1492418508.821,10.742,30.762,31.738,34.668,21.973,0
1492418508.825,10.742,22.949,26.367,26.367,57.129,0
1492418508.829,11.719,22.949,25.879,27.344,28.320,0
1492418508.833,12.207,26.855,31.738,27.344,8.301,0
1492418508.837,10.254,24.902,36.133,27.832,16.602,0
1492418508.841,7.324,22.461,35.156,34.180,30.273,0
1492418508.845,1.465,-1.465,20.996,19.043,20.508,0
1492418508.849,-6.836,-15.625,8.301,0.000,21.973,0
1492418508.853,-14.160,-8.301,9.277,-7.812,43.457,0
1492418508.857,-22.461,-10.742,3.906,-9.277,14.648,0
1492418508.861,-31.250,-15.625,1.953,-0.488,-16.602,0
1492418508.864,-28.320,-17.578,3.418,-0.488,-8.301,0
1492418508.868,-23.926,-16.113,4.883,-1.953,38.574,0
1492418508.872,-16.602,-14.648,5.859,1.953,44.434,0
1492418508.876,-10.742,-16.113,2.441,3.906,19.043,0
1492418508.880,-10.742,-15.625,6.836,10.254,29.297,0
1492418508.884,-17.578,-16.602,5.371,15.625,55.176,0
1492418508.888,-10.254,-13.672,3.906,12.695,26.367,0
1492418508.892,7.324,-15.137,6.348,5.371,8.301,0
1492418508.896,12.207,-12.207,5.859,12.695,28.809,0
1492418508.900,13.672,-3.418,8.301,20.020,20.996,0
1492418508.904,7.812,-7.324,9.277,21.973,23.438,0
1492418508.907,11.230,-6.348,12.695,30.273,2.930,0
1492418508.911,22.949,1.953,19.531,34.180,18.066,0
1492418508.915,29.785,10.254,21.484,31.250,37.109,0
1492418508.919,33.203,12.207,18.555,30.273,24.902,0
1492418508.923,33.203,11.230,19.531,35.156,31.250,0
1492418508.927,37.109,6.836,21.973,37.598,36.133,0
1492418508.931,38.574,1.465,19.531,32.715,33.203,0
1492418508.935,21.484,-5.371,13.672,25.391,11.230,0
1492418508.939,22.949,-3.906,11.719,21.973,-3.418,0
1492418508.943,35.645,2.930,15.137,20.996,18.555,0
1492418508.946,20.508,-1.953,11.230,23.438,17.578,0
1492418508.950,18.066,-1.953,11.719,23.926,-16.602,0
1492418508.954,29.297,9.277,17.090,20.508,0.488,0
1492418508.958,35.645,17.090,22.461,26.855,31.250,0
1492418508.962,45.410,21.973,24.902,28.809,23.438,0
1492418508.966,55.176,29.785,27.832,27.344,3.418,0
1492418508.970,54.199,33.691,38.086,38.574,28.809,0
1492418508.974,45.898,30.273,39.551,40.039,54.688,0
1492418508.978,42.480,27.344,35.156,32.227,38.574,0
1492418508.982,43.945,28.320,32.715,30.762,38.086,0
1492418508.986,53.711,28.809,36.133,32.715,48.340,0
1492418508.989,58.105,26.367,38.086,36.621,17.090,0
1492418508.993,61.523,29.785,43.945,41.016,4.883,0
1492418508.997,61.523,30.273,53.223,42.480,9.766,0
1492418509.001,47.852,22.949,51.270,40.039,0.488,0
1492418509.005,47.363,17.578,47.363,33.691,27.344,0
1492418509.009,47.852,12.207,45.410,38.574,19.531,0
1492418509.013,36.621,10.742,42.969,41.016,28.320,0
1492418509.017,40.527,12.695,39.551,31.250,60.547,0
1492418509.021,51.270,12.695,38.086,32.715,41.016,0
1492418509.025,49.805,9.766,34.668,33.203,37.109,0
1492418509.029,46.387,11.230,35.156,35.645,50.781,0
1492418509.032,43.457,15.137,40.039,43.457,57.129,0
1492418509.036,47.852,19.531,36.133,40.527,55.176,0
1492418509.040,51.758,22.461,31.250,37.598,35.156,0
1492418509.044,39.062,21.484,29.297,43.457,25.391,0
1492418509.048,40.039,20.996,33.203,44.434,25.879,0
1492418509.052,47.363,20.996,39.062,45.410,36.133,0
1492418509.056,50.293,23.926,36.621,46.875,12.207,0
1492418509.060,56.152,30.762,36.621,41.016,-5.859,0
1492418509.064,63.477,32.227,37.109,32.227,23.926,0
1492418509.068,63.965,33.691,34.668,26.367,20.996,0
1492418509.071,56.152,34.180,30.762,18.066,16.602,0
1492418509.075,55.176,21.973,25.391,4.883,33.203,0
1492418509.079,66.406,24.414,27.344,4.395,34.180,0
1492418509.083,65.430,25.391,33.691,18.066,24.902,0
1492418509.087,30.273,12.695,28.320,17.090,6.348,0
1492418509.091,12.695,8.301,23.438,21.484,8.789,0
1492418509.095,27.832,25.879,31.738,41.992,20.508,0
1492418509.099,30.762,37.109,37.109,52.246,-2.930,0
1492418509.103,26.855,33.691,34.668,53.711,-9.277,0
1492418509.107,28.809,37.598,37.109,60.059,23.926,0
1492418509.111,36.621,44.434,50.293,72.266,26.367,0
1492418509.114,37.598,51.758,60.547,69.336,-17.578,0
1492418509.118,36.133,47.363,64.453,70.801,-20.020,0
1492418509.122,30.273,34.180,57.617,71.289,9.766,0
1492418509.126,14.648,28.809,45.898,56.641,31.250,0
1492418509.130,12.207,21.484,41.504,46.875,31.738,0
1492418509.134,28.809,16.602,42.969,50.293,7.812,0
1492418509.138,39.062,17.090,45.898,58.594,6.836,0
1492418509.142,41.504,23.438,43.945,53.711,32.715,0
1492418509.146,41.016,32.715,43.457,48.340,-1.953,0
1492418509.150,34.180,31.250,42.969,50.781,-33.203,0
1492418509.154,39.062,24.902,41.504,53.711,-2.441,0
1492418509.157,53.711,17.090,41.016,49.316,11.719,0
1492418509.161,54.688,7.324,35.645,36.133,20.020,0
1492418509.165,52.246,9.277,34.668,47.363,33.203,0
1492418509.169,57.129,22.949,42.480,61.523,37.598,0
1492418509.173,64.941,35.156,46.875,59.570,6.836,0
1492418509.177,56.152,37.109,44.922,50.781,-30.273,0
1492418509.181,49.316,30.762,45.410,47.852,-6.348,0
1492418509.185,52.734,27.832,48.340,58.105,34.668,0
1492418509.189,54.199,35.645,47.852,59.082,30.762,0
1492418509.193,63.477,33.203,39.062,52.734,-2.441,0
1492418509.196,60.059,23.438,30.273,46.387,15.137,0
1492418509.200,54.199,21.973,33.203,44.434,24.902,0
1492418509.204,55.664,32.715,40.527,49.805,14.160,0
1492418509.208,49.805,38.574,41.504,58.105,-1.953,0
1492418509.212,45.410,26.855,35.156,50.293,18.555,0
1492418509.216,43.457,20.996,37.109,41.504,41.992,0
1492418509.220,32.227,22.461,38.086,37.109,-10.742,0
1492418509.224,24.414,23.438,31.250,25.391,10.742,0
1492418509.228,19.531,22.949,30.762,22.461,51.270,0
1492418509.232,15.625,19.043,30.273,26.367,46.387,0
1492418509.236,10.254,10.254,26.855,24.902,40.039,0
1492418509.239,-9.766,3.906,20.508,17.090,7.812,0
1492418509.243,-17.090,9.766,14.648,12.207,30.762,0
1492418509.247,-7.324,7.812,12.207,18.066,53.223,0
1492418509.251,-6.836,1.465,10.254,18.066,19.531,0
1492418509.255,-11.230,4.395,7.812,18.066,15.137,0
1492418509.259,-9.277,4.883,3.906,17.578,18.066,0
1492418509.263,-17.578,7.324,1.465,11.230,-9.277,0
1492418509.267,-24.414,-0.977,-5.859,7.324,-3.418,0
1492418509.271,-21.484,-13.184,-16.113,-0.488,2.930,0
1492418509.275,-10.254,-8.301,-15.137,-4.395,1.465,0
1492418509.279,-3.418,-7.324,-15.137,-2.441,22.949,0
1492418509.282,-8.301,-13.184,-17.578,0.000,39.551,0
1492418509.286,-5.859,-14.160,-19.043,6.348,36.133,0
1492418509.290,-5.371,-18.555,-19.043,7.324,12.695,0
1492418509.294,-8.301,-18.066,-12.695,4.395,7.324,0
1492418509.298,-3.906,-12.695,-16.113,-0.488,-13.184,0
1492418509.302,7.324,-11.719,-19.043,2.441,-10.254,0
1492418509.306,10.254,-11.230,-15.625,3.418,20.996,0
1492418509.310,9.766,-11.230,-10.742,-4.395,24.902,0
1492418509.314,18.066,-7.812,-6.836,-4.395,42.969,0
1492418509.318,14.648,-2.930,-2.441,1.465,51.758,0
1492418509.321,8.789,-6.836,-0.977,-3.418,24.902,0
1492418509.325,3.906,-7.812,-1.465,-6.836,5.859,0
1492418509.329,4.395,-5.371,-4.395,-5.859,-1.953,0
1492418509.333,-0.488,-7.324,-8.301,-9.766,20.508,0
1492418509.337,-4.395,-3.418,0.488,-6.348,16.602,0
1492418509.341,4.883,-3.906,2.930,-3.906,20.020,0
1492418509.345,0.977,-2.930,3.418,-4.883,12.695,0
1492418509.349,-1.465,8.301,10.254,-1.953,10.742,0
1492418509.353,3.418,6.836,16.602,1.465,21.973,0
1492418509.357,-3.418,-1.953,16.113,-2.441,26.855,0
1492418509.361,-5.371,-1.465,17.090,-2.441,37.598,0
1492418509.364,-9.277,-7.324,19.043,2.930,23.438,0
1492418509.368,-13.672,-16.113,18.066,7.812,12.207,0
1492418509.372,-8.789,-18.555,18.555,15.137,7.812,0
1492418509.376,-8.301,-20.020,16.602,15.137,38.086,0
1492418509.380,-8.789,-13.672,19.043,21.973,52.246,0
1492418509.384,4.395,-14.648,21.484,24.414,30.762,0
1492418509.388,13.672,-18.555,22.461,22.949,41.992,0
1492418509.392,3.418,-18.555,19.531,24.414,45.410,0
1492418509.396,-1.953,-15.137,14.160,20.020,31.738,0
1492418509.400,2.441,-6.348,16.602,19.043,24.902,0
1492418509.404,1.953,-1.465,21.973,23.438,31.250,0
1492418509.407,9.766,4.395,23.926,27.344,31.738,0
1492418509.411,14.160,7.812,24.414,24.902,7.812,0
1492418509.415,9.766,6.836,26.855,29.785,-9.766,0
1492418509.419,15.625,4.395,27.344,35.156,-3.418,0
1492418509.423,29.297,12.207,28.320,34.668,12.207,0
1492418509.427,41.016,20.508,32.715,39.551,24.902,0
1492418509.431,35.156,19.531,30.762,42.969,8.789,0
1492418509.435,18.555,16.602,24.414,35.645,19.531,0
1492418509.439,18.555,11.230,25.391,32.227,39.551,0
1492418509.443,18.066,8.789,22.949,29.785,29.297,0
1492418509.446,15.625,9.766,18.555,24.414,20.996,0
1492418509.450,23.926,17.578,24.414,21.973,20.996,0
1492418509.454,21.973,25.391,30.273,20.508,41.504,0
1492418509.458,28.809,31.738,31.738,22.461,21.973,0
1492418509.462,29.297,34.180,29.785,26.367,-21.973,0
1492418509.466,18.555,31.738,32.715,31.250,2.441,0
1492418509.470,24.414,31.738,36.621,32.227,33.691,0
1492418509.474,40.527,34.180,40.039,35.156,27.344,0
1492418509.478,39.551,34.668,43.945,41.016,25.391,0
1492418509.482,30.762,31.250,40.527,35.645,38.574,0
1492418509.486,31.738,32.227,40.527,27.832,17.090,0
1492418509.489,37.109,36.133,44.434,33.691,-14.160,0
1492418509.493,35.645,37.598,43.457,34.180,0.000,0
1492418509.497,26.367,28.809,37.109,29.785,40.039,0
1492418509.501,20.996,15.137,27.832,27.832,54.688,0
1492418509.505,19.043,9.766,25.879,30.273,34.668,0
1492418509.509,22.461,15.625,26.855,30.762,-2.441,0
1492418509.513,24.902,16.602,28.320,34.180,1.953,0
1492418509.517,24.414,18.066,33.691,45.410,34.180,0
1492418509.521,28.809,25.391,37.598,49.805,13.184,0
1492418509.525,31.738,23.438,34.180,48.340,-0.488,0
1492418509.529,34.668,22.461,33.203,48.828,19.531,0
1492418509.532,43.945,22.949,41.504,51.758,26.367,0
1492418509.536,45.410,21.484,44.922,52.734,14.648,0
1492418509.540,37.598,24.414,37.598,46.875,16.113,0
1492418509.544,35.156,29.297,39.551,51.758,31.738,0
1492418509.548,22.461,19.043,37.109,49.316,9.766,0
1492418509.552,10.254,5.859,28.809,40.527,7.324,0
1492418509.556,17.090,4.883,27.344,37.109,19.043,0
1492418509.560,13.184,3.906,22.949,25.879,37.109,0
1492418509.564,0.977,2.441,27.344,29.785,32.227,0
1492418509.568,4.395,5.859,33.691,32.227,6.836,0
1492418509.571,7.812,8.789,27.832,22.461,6.348,0
1492418509.575,5.859,10.742,23.438,25.879,36.133,0
1492418509.579,10.742,15.137,27.832,28.809,39.551,0
1492418509.583,12.207,17.578,29.297,23.926,21.484,0
1492418509.587,11.719,18.066,28.809,26.367,32.715,0
1492418509.591,19.043,18.555,36.133,36.133,27.832,0
1492418509.595,28.809,27.832,46.387,42.969,-3.418,0
1492418509.599,41.504,39.551,48.828,45.898,36.621,0
1492418509.603,41.016,38.574,43.945,44.922,36.621,0
1492418509.607,41.504,40.527,44.922,41.504,6.348,0
1492418509.611,41.016,37.598,44.434,40.527,-9.766,0
1492418509.614,31.250,33.203,40.527,36.621,24.414,0
1492418509.618,35.645,37.109,43.945,37.109,60.547,0
1492418509.622,41.504,44.434,48.828,39.062,20.508,0
1492418509.626,39.551,50.293,50.781,36.133,25.391,0
1492418509.630,39.062,47.852,53.711,39.062,21.973,0
1492418509.634,37.109,43.457,56.641,49.316,35.156,0
1492418509.638,42.480,35.645,53.711,52.246,45.898,0
1492418509.642,41.992,37.109,49.316,46.875,15.137,0
1492418509.646,44.922,49.316,46.875,46.387,20.996,0
1492418509.650,49.805,52.246,43.945,49.805,36.621,0
1492418509.654,41.992,47.852,45.898,60.059,14.160,0
1492418509.657,36.133,42.480,49.316,64.941,-38.086,0
1492418509.661,43.945,40.527,47.852,61.035,-8.789,0
1492418509.665,53.223,37.598,47.852,58.105,58.594,0
1492418509.669,57.617,39.551,53.223,59.570,45.898,0
1492418509.673,55.664,44.922,56.641,62.500,5.371,0
1492418509.677,52.246,42.480,53.711,58.105,36.133,0
1492418509.681,56.152,46.387,57.129,59.082,45.410,0
1492418509.685,51.758,56.641,59.082,59.082,39.551,0
1492418509.689,45.410,57.617,58.105,54.199,50.293,0
1492418509.693,50.293,52.246,54.199,58.105,33.203,0
1492418509.696,47.852,44.922,47.363,55.664,35.645,0
1492418509.700,37.109,41.504,48.828,47.852,34.668,0
1492418509.704,38.086,48.828,51.270,45.410,24.902,0
1492418509.708,35.156,47.852,49.316,45.898,24.414,0
1492418509.712,32.715,42.969,53.711,53.223,30.762,0
1492418509.716,40.039,49.805,55.176,58.105,14.648,0
1492418509.720,36.133,44.434,43.945,41.992,5.371,0
1492418509.724,28.809,37.109,37.598,31.738,10.254,0
1492418509.728,32.715,47.363,42.969,39.551,8.301,0
1492418509.732,27.344,48.828,39.062,33.203,0.000,0
1492418509.736,15.625,30.762,29.785,22.949,18.066,0
1492418509.739,18.066,21.973,29.785,27.344,55.664,0
1492418509.743,19.531,24.902,37.109,31.738,4.883,0
1492418509.747,10.254,25.879,40.527,35.156,-17.090,0
1492418509.751,15.137,30.273,41.504,33.691,22.949,0
1492418509.755,30.273,29.297,44.922,30.762,50.781,0
1492418509.759,22.949,23.438,40.039,25.879,40.039,0
1492418509.763,21.484,22.461,42.480,31.250,30.273,0
1492418509.767,34.180,23.926,47.852,28.320,43.457,0
1492418509.771,45.898,25.391,45.410,25.879,41.504,0
1492418509.775,52.246,27.832,43.457,27.832,32.715,0
1492418509.779,47.363,27.344,41.016,26.367,1.953,0
1492418509.782,36.133,22.461,30.273,24.902,3.418,0
1492418509.786,35.156,27.832,30.273,23.926,22.949,0
1492418509.790,29.785,29.297,36.621,31.250,25.879,0
1492418509.794,17.578,22.461,34.668,35.645,12.207,0
1492418509.798,18.066,21.973,34.668,49.316,1.465,0
1492418509.802,19.043,21.973,35.156,61.523,30.273,0
1492418509.806,17.578,22.949,36.133,63.965,3.418,0
1492418509.810,20.020,28.809,37.598,63.477,-9.766,0
1492418509.814,25.391,36.133,37.109,61.523,36.621,0
1492418509.818,31.250,42.969,41.992,67.871,42.480,0
1492418509.821,20.996,48.340,43.945,70.801,25.879,0
1492418509.825,13.672,43.945,41.016,65.918,28.320,0
1492418509.829,23.926,41.992,45.410,62.500,51.270,0
1492418509.833,21.973,39.551,45.898,57.129,18.555,0
1492418509.837,23.926,30.762,45.410,50.781,-4.395,0
1492418509.841,26.855,26.855,41.504,45.410,30.273,0
1492418509.845,19.531,26.367,34.668,41.992,31.738,0
1492418509.849,20.020,32.715,33.691,37.598,5.859,0
1492418509.853,20.996,36.621,26.855,26.855,-26.367,0
1492418509.857,13.672,28.320,24.902,22.949,-2.441,0
1492418509.861,12.695,27.832,23.926,23.438,44.922,0
1492418509.864,19.043,28.320,20.508,19.531,59.570,0
1492418509.868,28.809,34.668,32.227,33.203,25.391,0
1492418509.872,33.203,44.922,43.457,47.363,-0.977,0
1492418509.876,29.297,47.363,44.434,42.969,4.395,0
1492418509.880,29.785,41.992,37.109,31.250,6.836,0
1492418509.884,21.484,36.621,31.738,25.879,-7.812,0
1492418509.888,10.742,37.109,31.250,33.203,-15.625,0
1492418509.892,11.230,33.203,27.832,26.367,2.441,0
1492418509.896,20.996,28.809,24.414,9.766,-6.836,0
1492418509.900,23.438,26.855,20.996,0.977,-22.949,0
1492418509.904,0.488,17.578,16.113,-4.883,16.113,0
1492418509.907,-14.160,7.812,11.230,-9.277,21.484,0
1492418509.911,-16.602,0.000,14.160,-8.789,-28.809,0
1492418509.915,-19.531,0.000,14.160,-9.766,22.949,0
1492418509.919,-10.254,12.207,11.719,-5.859,65.430,0
1492418509.923,-7.812,18.555,19.531,-0.488,1.465,0
1492418509.927,-1.953,17.090,22.949,8.301,14.160,0
1492418509.931,6.836,17.578,24.414,18.555,52.246,0
1492418509.935,7.812,7.324,24.414,17.090,43.457,0
1492418509.939,6.348,3.418,21.973,18.066,17.090,0
1492418509.943,8.789,1.953,20.996,16.113,-11.230,0
1492418509.946,13.672,-3.906,13.184,8.301,20.020,0
1492418509.950,19.531,11.719,19.531,14.648,49.316,0
1492418509.954,22.949,22.949,33.203,29.785,37.109,0
1492418509.958,19.043,23.438,33.203,29.297,17.578,0
1492418509.962,10.742,21.484,27.832,27.344,22.461,0
1492418509.966,8.301,16.113,27.832,31.738,31.250,0
1492418509.970,7.812,12.695,26.367,27.832,24.414,0
1492418509.974,9.277,11.719,20.996,26.367,16.113,0
1492418509.978,10.742,10.742,16.602,33.203,-11.230,0
1492418509.982,11.719,14.160,12.695,37.598,-5.371,0
1492418509.986,12.695,14.160,10.254,31.738,-10.742,0
1492418509.989,12.695,11.230,9.766,20.996,-30.273,0
1492418509.993,14.648,15.137,15.625,23.926,7.812,0
1492418509.997,14.160,21.484,27.832,30.762,15.625,0
1492418510.001,12.695,23.438,24.414,25.391,1.465,0
1492418510.005,17.578,23.438,17.578,21.973,25.879,0
1492418510.009,24.902,29.785,27.344,29.297,57.617,0
1492418510.013,25.391,35.645,31.250,33.691,25.879,0
1492418510.017,17.578,32.227,25.879,27.344,-11.719,0
1492418510.021,12.695,30.273,24.902,22.949,18.066,0
1492418510.025,7.324,31.250,24.902,23.926,17.578,0
1492418510.029,12.207,32.227,20.020,22.461,11.230,0
1492418510.032,20.020,34.180,15.137,13.184,-9.766,0
1492418510.036,13.184,33.203,18.066,5.371,5.371,0
1492418510.040,2.441,30.273,25.391,15.137,37.598,0
1492418510.044,3.906,27.832,26.367,14.648,17.578,0
1492418510.048,10.254,28.809,32.715,16.113,24.414,0
1492418510.052,7.324,27.344,39.551,30.762,42.969,0
1492418510.056,7.812,26.855,36.621,32.227,37.109,0
1492418510.060,11.719,28.809,35.156,32.227,26.855,0
1492418510.064,13.672,25.879,37.109,30.273,10.742,0
1492418510.068,7.324,12.695,36.621,25.879,5.371,0
1492418510.071,7.812,11.230,34.668,29.785,18.066,0
1492418510.075,11.719,16.113,39.062,36.133,-12.207,0
1492418510.079,16.602,12.695,41.016,38.574,-13.184,0
1492418510.083,20.996,13.184,45.898,49.805,49.316,0
1492418510.087,25.879,20.996,56.641,54.688,64.941,0
1492418510.091,32.715,21.484,62.988,52.246,36.621,0
1492418510.095,33.691,17.090,64.453,60.059,13.184,0
1492418510.099,32.227,19.531,61.523,59.082,10.254,0
1492418510.103,29.297,23.438,57.129,55.176,10.254,0
1492418510.107,40.527,29.297,61.035,59.082,12.695,0
1492418510.111,49.805,39.551,64.941,57.617,28.809,0
1492418510.114,43.457,41.016,61.523,56.641,31.738,0
1492418510.118,36.133,35.645,58.105,54.688,41.016,0
1492418510.122,32.227,37.598,56.641,55.664,22.949,0
1492418510.126,38.086,37.598,52.734,53.223,15.625,0
1492418510.130,49.316,41.992,50.781,45.898,40.527,0
1492418510.134,56.641,48.340,48.828,49.316,19.531,0
1492418510.138,49.316,38.574,45.898,47.363,-5.859,0
1492418510.142,31.250,29.297,41.992,43.945,39.551,0
1492418510.146,27.344,31.250,42.969,42.480,51.270,0
1492418510.150,24.414,30.762,41.016,37.109,28.320,0
1492418510.154,14.648,20.020,39.062,37.598,7.812,0
1492418510.157,7.324,15.137,42.969,38.086,24.414,0
1492418510.161,-1.465,15.137,40.039,35.645,32.227,0
1492418510.165,-1.953,20.996,38.574,37.598,36.133,0
1492418510.169,3.418,23.926,42.969,36.133,20.508,0
1492418510.173,10.254,16.602,45.898,40.039,37.109,0
1492418510.177,28.320,24.414,48.340,50.293,86.426,0
1492418510.181,34.668,29.785,51.270,54.688,28.320,0
1492418510.185,35.156,25.391,55.176,55.664,-18.066,0
1492418510.189,42.480,29.785,51.758,55.176,24.902,0
1492418510.193,33.691,30.273,47.363,61.035,31.250,0
1492418510.196,31.738,26.367,49.316,59.570,12.207,0
1492418510.200,38.086,25.879,50.781,52.246,46.387,0
1492418510.204,39.062,29.785,54.688,62.988,59.570,0
1492418510.208,44.922,35.156,53.711,70.312,27.344,0
1492418510.212,48.340,42.480,59.082,68.848,-4.395,0
1492418510.216,43.457,41.504,59.570,66.406,14.648,0
1492418510.220,54.199,38.086,54.199,64.941,18.066,0
1492418510.224,71.777,41.504,54.199,63.477,2.441,0
1492418510.228,65.918,45.410,50.293,59.570,23.926,0
1492418510.232,53.711,48.828,48.340,58.594,35.156,0
1492418510.236,44.922,50.293,47.852,55.176,43.457,0
1492418510.239,37.109,48.828,45.898,48.340,25.391,0
1492418510.243,41.016,52.734,51.270,49.805,8.301,0
1492418510.247,38.574,52.734,49.316,51.270,27.832,0
1492418510.251,36.621,50.293,43.457,50.781,31.738,0
1492418510.255,40.039,47.363,41.504,45.898,41.504,0
1492418510.259,39.062,45.898,40.527,41.992,27.344,0
1492418510.263,39.062,49.316,37.598,38.574,-2.930,0
1492418510.267,35.156,45.898,34.668,35.645,23.438,0
1492418510.271,28.809,46.875,41.016,36.621,9.766,0
1492418510.275,16.113,44.434,35.156,27.344,10.742,0
1492418510.279,3.906,40.527,28.320,21.973,47.852,0
1492418510.282,7.812,35.156,32.227,29.785,45.898,0
1492418510.286,27.344,35.156,42.480,34.180,44.434,0
1492418510.290,39.551,40.527,47.363,41.016,56.641,0
1492418510.294,36.133,39.062,41.504,43.457,57.129,0
1492418510.298,27.832,43.457,44.434,45.898,29.297,0
1492418510.302,23.438,44.434,47.363,54.199,28.809,0
1492418510.306,22.461,35.645,42.480,51.758,20.996,0
1492418510.310,21.484,31.738,41.016,52.734,23.926,0
1492418510.314,14.160,31.250,46.875,49.805,19.043,0
1492418510.318,15.137,31.250,53.223,57.129,-1.953,0
1492418510.321,25.391,33.691,56.152,57.129,9.277,0
1492418510.325,27.344,32.227,57.129,54.199,29.297,0
1492418510.329,19.531,29.785,50.781,53.223,41.504,0
1492418510.333,25.391,30.273,45.410,50.293,39.062,0
1492418510.337,27.832,26.855,41.016,51.758,65.918,0
1492418510.341,20.508,31.738,41.992,56.152,61.523,0
1492418510.345,25.391,41.992,46.875,62.988,30.762,0
1492418510.349,28.809,34.668,41.016,60.059,25.391,0
1492418510.353,35.645,29.785,33.691,51.758,20.508,0
1492418510.357,41.016,29.785,35.156,50.293,31.250,0
1492418510.361,36.133,24.902,39.551,54.199,18.066,0
1492418510.364,30.273,20.508,44.434,58.105,13.184,0
1492418510.368,32.227,17.090,44.922,58.105,55.664,0
1492418510.372,35.156,17.578,42.480,57.129,42.480,0
1492418510.376,40.527,26.855,38.574,50.293,19.531,0
1492418510.380,43.945,34.180,40.039,45.410,29.297,0
1492418510.384,42.969,35.156,38.086,47.852,24.902,0
1492418510.388,36.621,32.715,31.738,48.828,14.648,0
1492418510.392,31.738,31.250,27.832,38.574,-5.371,0
1492418510.396,31.738,27.832,26.367,29.785,16.113,0
1492418510.400,28.809,29.785,29.785,28.809,26.855,0
1492418510.404,30.273,41.992,31.738,23.926,7.324,0
1492418510.407,37.598,53.223,36.621,24.902,5.859,0
1492418510.411,35.156,57.129,41.504,28.809,26.855,0
1492418510.415,29.785,61.523,41.016,33.691,44.922,0
1492418510.419,35.645,63.477,44.434,38.086,33.203,0
1492418510.423,39.551,55.664,46.875,43.457,27.832,0
1492418510.427,41.992,47.363,44.922,49.805,55.664,0
1492418510.431,43.457,40.039,44.434,53.711,39.062,0
1492418510.435,43.457,33.203,47.363,53.223,32.715,0
1492418510.439,37.109,35.156,54.199,55.176,32.715,0
1492418510.443,28.809,30.762,50.293,54.199,24.902,0
1492418510.446,30.273,28.320,41.016,47.852,17.578,0
1492418510.450,40.039,35.156,42.480,47.852,-25.391,0
1492418510.454,41.016,33.203,45.898,45.898,-19.043,0
1492418510.458,41.016,27.832,40.039,38.086,37.109,0
1492418510.462,54.199,26.855,37.109,32.715,20.508,0
1492418510.466,59.082,26.367,40.039,34.180,25.879,0
1492418510.470,62.500,24.902,42.969,45.410,33.691,0
1492418510.474,60.547,26.367,46.387,49.805,14.160,0
1492418510.478,52.734,29.297,49.805,49.805,12.207,0
1492418510.482,40.039,26.855,47.852,51.758,23.438,0
1492418510.486,19.043,23.438,42.480,55.664,29.297,0
1492418510.489,18.555,28.809,45.898,64.941,24.902,0
1492418510.493,36.133,39.062,56.641,70.801,17.578,0
1492418510.497,30.273,32.227,53.223,66.406,14.648,0
1492418510.501,10.742,20.996,46.387,60.547,43.945,0
1492418510.505,6.836,20.996,48.828,62.988,57.617,0
1492418510.509,15.137,23.438,45.898,66.406,34.668,0
1492418510.513,17.090,26.855,46.387,63.965,25.391,0
1492418510.517,25.391,31.738,49.805,60.059,32.227,0
1492418510.521,33.203,33.691,52.246,59.082,24.414,0
1492418510.525,20.996,34.180,49.805,52.246,46.387,0
1492418510.529,26.367,44.922,51.758,48.828,41.016,0
1492418510.532,41.992,56.152,56.152,56.152,39.551,0
1492418510.536,46.387,49.316,55.176,48.340,44.922,0
1492418510.540,45.410,41.992,55.664,42.480,-7.324,0
1492418510.544,41.016,46.875,52.246,42.480,-8.301,0
1492418510.548,44.434,47.363,45.410,29.785,28.809,0
1492418510.552,46.875,48.828,46.875,34.668,27.344,0
1492418510.556,43.457,49.805,53.711,38.086,24.902,0
1492418510.560,37.598,48.340,55.176,33.691,19.043,0
1492418510.564,39.551,46.875,55.176,38.574,23.926,0
1492418510.568,46.875,48.340,58.594,45.410,27.832,0
1492418510.571,42.480,48.340,51.270,44.434,22.461,0
1492418510.575,35.645,41.992,42.969,42.969,17.578,0
1492418510.579,46.387,45.410,46.875,49.316,7.812,0
1492418510.583,46.875,43.457,43.945,50.293,25.879,0
1492418510.587,42.480,32.715,36.133,50.293,17.578,0
1492418510.591,42.480,32.227,38.574,51.758,1.953,0
1492418510.595,46.387,32.227,41.016,54.199,-2.441,0
1492418510.599,53.711,29.785,42.480,61.035,-23.438,0
1492418510.603,52.246,30.273,41.504,60.059,-26.855,0
1492418510.607,33.203,20.020,33.203,48.340,16.113,0
1492418510.611,36.621,21.484,31.250,50.781,36.133,0
1492418510.614,49.805,28.809,34.180,52.734,7.324,0
1492418510.618,41.504,23.926,34.180,49.805,14.648,0
1492418510.622,32.715,18.555,28.809,46.387,20.996,0
1492418510.626,32.715,16.113,20.508,46.875,28.320,0
1492418510.630,33.691,18.555,23.926,50.293,34.180,0
1492418510.634,37.109,22.949,27.344,44.922,13.184,0
1492418510.638,36.133,20.996,22.461,36.621,42.480,0
1492418510.642,36.621,18.555,20.508,37.598,57.129,0
1492418510.646,41.992,26.855,25.879,38.574,16.602,0
1492418510.650,23.438,25.391,23.926,35.156,-9.766,0
1492418510.654,5.859,19.531,16.602,24.414,2.930,0
1492418510.657,10.742,23.438,18.555,12.695,28.809,0
1492418510.661,19.043,23.926,21.484,20.996,22.949,0
1492418510.665,28.320,25.391,25.391,22.949,9.277,0
1492418510.669,28.809,32.227,29.297,19.043,29.297,0
1492418510.673,17.578,32.715,29.297,21.484,24.902,0
1492418510.677,12.207,32.715,31.250,26.855,19.531,0
1492418510.681,22.461,44.434,35.645,31.250,25.391,0
1492418510.685,38.574,55.664,41.016,32.715,44.922,0
1492418510.689,46.387,55.176,45.410,36.621,23.926,0
1492418510.693,44.434,54.199,41.016,37.109,-21.973,0
1492418510.696,40.039,53.223,35.156,30.762,-6.836,0
1492418510.700,36.621,53.711,36.133,36.133,18.066,0
1492418510.704,34.180,49.316,39.062,36.621,2.930,0
1492418510.708,31.250,40.527,41.992,36.133,-4.395,0
1492418510.712,30.762,31.738,39.551,38.574,14.160,0
1492418510.716,33.691,28.809,38.574,40.039,35.156,0
1492418510.720,39.551,32.227,35.156,41.504,46.387,0
1492418510.724,34.668,23.438,31.250,40.527,9.277,0
1492418510.728,28.320,25.391,31.738,46.875,-24.902,0
1492418510.732,29.297,26.855,29.297,47.852,-3.906,0
1492418510.736,28.320,20.508,28.320,45.410,13.672,0
1492418510.739,31.250,21.484,27.344,47.363,16.113,0
1492418510.743,39.551,26.367,27.344,50.781,30.762,0
1492418510.747,49.805,33.203,31.250,49.805,17.090,0
1492418510.751,51.270,30.273,30.762,43.945,14.648,0
1492418510.755,46.387,20.020,26.855,43.945,15.137,0
1492418510.759,38.086,15.137,23.438,47.363,22.461,0
1492418510.763,22.949,17.090,23.438,41.016,35.156,0
1492418510.767,13.672,13.672,21.484,34.180,20.020,0
1492418510.771,21.484,1.465,17.090,34.668,19.043,0
1492418510.775,28.320,0.488,21.484,36.133,25.879,0
1492418510.779,18.066,9.766,26.367,35.156,20.020,0
1492418510.782,13.184,12.695,21.484,28.320,26.855,0
1492418510.786,19.043,11.719,18.555,26.367,17.090,0
1492418510.790,26.367,19.043,24.902,30.273,27.344,0
1492418510.794,27.344,20.996,26.367,27.832,15.137,0
1492418510.798,19.531,15.137,24.414,25.879,-4.395,0
1492418510.802,15.625,15.137,24.414,23.926,32.715,0
1492418510.806,18.066,18.066,24.414,29.785,47.363,0
1492418510.810,20.020,19.531,21.484,33.691,5.371,0
1492418510.814,20.996,19.531,22.949,29.297,0.488,0
1492418510.818,24.902,21.973,28.809,33.203,29.297,0
1492418510.821,25.879,23.438,26.855,37.598,15.137,0
1492418510.825,30.273,23.926,28.809,40.527,18.555,0
1492418510.829,30.762,27.832,28.320,32.715,-23.926,0
1492418510.833,29.297,35.156,29.297,27.344,-18.066,0
1492418510.837,26.855,29.785,29.785,28.320,12.207,0
1492418510.841,23.438,22.461,26.367,26.855,26.367,0
1492418510.845,18.555,28.809,26.855,35.645,42.969,0
1492418510.849,20.020,30.273,27.344,41.992,15.137,0
1492418510.853,26.855,27.344,28.809,51.758,30.273,0
1492418510.857,33.203,25.391,31.250,58.594,11.230,0
1492418510.861,41.016,20.996,26.367,51.758,1.465,0
1492418510.864,39.551,16.602,23.438,50.781,31.738,0
1492418510.868,32.715,15.137,27.832,52.246,30.273,0
1492418510.872,25.391,13.184,31.250,52.734,10.742,0
1492418510.876,25.391,21.973,36.133,53.711,14.648,0
1492418510.880,32.227,38.086,32.715,55.664,21.484,0
1492418510.884,37.109,43.457,31.250,53.711,5.371,0
1492418510.888,46.875,41.992,38.574,55.664,5.371,0
1492418510.892,47.852,40.039,45.410,61.523,34.180,0
1492418510.896,42.969,40.527,47.852,63.965,46.875,0
1492418510.900,29.297,31.250,37.598,57.129,40.527,0
1492418510.904,20.508,20.996,28.320,48.828,27.344,0
1492418510.907,29.785,27.832,30.273,43.945,19.531,0
1492418510.911,26.855,31.250,33.203,39.062,29.297,0
1492418510.915,26.855,21.973,29.297,35.645,44.922,0
1492418510.919,28.809,17.578,30.273,31.250,39.062,0
1492418510.923,20.996,16.602,31.250,25.879,50.781,0
1492418510.927,10.742,18.555,25.879,26.855,52.734,0
1492418510.931,0.977,13.184,23.438,24.902,16.113,0
1492418510.935,0.000,1.953,19.531,20.508,27.344,0
1492418510.939,11.719,8.301,21.973,27.832,59.570,0
1492418510.943,22.461,18.066,25.391,31.250,41.016,0
1492418510.946,25.391,21.973,27.344,32.227,14.160,0
1492418510.950,23.438,20.996,30.762,36.133,18.555,0
1492418510.954,20.996,17.090,28.320,30.273,33.691,0
1492418510.958,24.902,19.043,34.180,36.621,22.949,0
1492418510.962,33.203,30.762,44.922,48.828,0.488,0
1492418510.966,38.086,39.551,41.992,47.363,11.719,0
1492418510.970,26.855,27.344,37.109,45.410,29.297,0
1492418510.974,20.996,24.902,39.551,48.828,33.203,0
1492418510.978,26.367,30.762,40.527,44.434,1.465,0
1492418510.982,32.715,30.762,41.992,41.992,20.508,0
1492418510.986,38.574,28.809,43.457,48.340,63.477,0
1492418510.989,39.062,29.785,39.062,44.922,40.527,0
1492418510.993,37.598,27.832,37.598,40.039,17.578,0
1492418510.997,34.180,20.508,36.621,41.016,57.129,0
1492418511.001,37.109,16.602,36.621,44.922,71.777,0
1492418511.005,34.180,16.113,36.133,47.363,41.016,0
1492418511.009,26.367,20.508,33.691,41.016,7.324,0
1492418511.013,17.578,21.973,30.762,34.668,-8.301,0
1492418511.017,20.996,29.297,34.180,41.016,29.785,0
1492418511.021,31.738,36.133,38.086,44.434,40.039,0
1492418511.025,30.273,32.227,32.227,32.227,0.977,0
1492418511.029,21.973,26.367,26.855,33.691,22.461,0
1492418511.032,19.531,33.691,33.691,41.504,21.484,0
1492418511.036,23.438,37.109,36.133,39.062,28.320,0
1492418511.040,30.762,39.062,37.598,43.457,39.062,0
1492418511.044,27.344,34.180,40.039,43.945,27.344,0
1492418511.048,19.043,25.879,36.621,39.551,18.066,0
1492418511.052,20.996,29.785,41.016,46.875,5.371,0
1492418511.056,26.855,33.691,44.922,46.387,-11.230,0
1492418511.060,24.902,35.156,41.504,41.504,-14.160,0
1492418511.064,16.113,25.391,33.203,34.180,4.883,0
1492418511.068,15.625,17.090,22.949,20.508,4.395,0
1492418511.071,16.602,19.531,21.484,20.020,21.973,0
1492418511.075,20.020,20.020,18.555,25.879,57.129,0
1492418511.079,14.160,11.719,15.137,25.879,20.508,0
1492418511.083,10.742,7.324,12.695,20.020,-4.883,0
1492418511.087,13.184,9.766,8.789,14.648,35.156,0
1492418511.091,4.883,5.859,7.324,14.648,26.855,0
1492418511.095,4.883,7.812,7.324,14.648,15.625,0
1492418511.099,11.719,12.207,4.883,15.625,18.555,0
1492418511.103,18.555,10.254,4.883,19.043,18.555,0
1492418511.107,11.230,0.488,6.836,20.020,24.414,0
1492418511.111,5.859,4.395,15.625,27.344,15.625,0
1492418511.114,16.602,10.254,19.531,29.785,-0.488,0
1492418511.118,26.855,7.324,18.066,25.879,18.555,0
1492418511.122,26.855,10.254,22.949,32.227,28.320,0
1492418511.126,28.320,12.207,24.414,38.086,13.184,0
1492418511.130,33.203,11.719,23.926,29.785,22.461,0
1492418511.134,34.668,9.277,21.484,20.020,46.875,0
1492418511.138,35.645,7.324,21.973,21.484,30.273,0
1492418511.142,41.504,4.395,19.043,22.461,44.434,0
1492418511.146,56.641,13.184,17.578,22.461,59.082,0
1492418511.150,52.734,19.043,22.461,23.926,13.184,0
1492418511.154,36.133,18.066,26.855,30.762,-0.977,0
1492418511.157,26.367,15.625,23.926,31.738,29.785,0
1492418511.161,12.207,5.859,16.602,31.738,20.996,0
1492418511.165,2.930,3.906,17.578,35.156,-6.836,0
1492418511.169,-2.930,-2.441,18.066,31.250,16.602,0
1492418511.173,-10.742,-13.672,13.672,24.902,46.387,0
1492418511.177,-8.789,-11.230,11.719,22.461,42.480,0
1492418511.181,-4.395,-2.441,17.578,26.855,28.809,0
1492418511.185,-11.230,-5.859,14.648,26.367,12.695,0
1492418511.189,-11.230,-4.395,6.836,22.461,15.137,0
1492418511.193,-10.742,0.977,14.160,18.066,31.738,0
1492418511.196,-9.277,-0.977,14.160,14.160,34.180,0
1492418511.200,-2.441,3.418,14.648,16.602,-6.348,0
1492418511.204,8.301,9.766,24.902,22.461,-25.879,0
1492418511.208,12.207,7.324,21.484,15.137,-1.465,0
1492418511.212,7.812,11.719,20.996,23.926,12.207,0
1492418511.216,8.789,21.484,31.250,39.551,35.645,0
1492418511.220,11.719,27.344,32.227,32.227,32.227,0
1492418511.224,16.113,23.438,25.879,28.809,23.438,0
1492418511.228,25.391,17.578,19.531,29.785,3.906,0
1492418511.232,31.738,20.020,20.996,31.738,-6.836,0
1492418511.236,36.133,17.090,27.832,39.062,13.672,0
1492418511.239,38.574,16.602,31.738,43.457,19.043,0
1492418511.243,36.621,16.602,33.203,41.504,-0.488,0
1492418511.247,33.691,14.648,32.227,42.480,-21.973,0
1492418511.251,14.160,7.324,24.414,36.621,-6.836,0
1492418511.255,6.836,7.324,23.926,36.133,1.953,0
1492418511.259,22.949,21.484,25.391,38.574,10.254,0
1492418511.263,18.066,24.902,23.438,31.250,-6.836,0
