timestamps,TP9,AF7,AF8,TP10,Right AUX,Marker0
1492402144.634,7.324,36.621,-15.137,-32.715,18.555,0
1492402144.638,-1.465,42.480,-25.391,-19.043,35.156,0
1492402144.642,14.648,23.926,-5.859,-20.996,41.016,0
1492402144.646,16.602,27.832,-9.277,-14.648,20.020,0
1492402144.649,-4.883,30.762,-19.531,-3.906,30.762,0
1492402144.653,-11.719,24.414,-15.137,-10.254,42.480,0
1492402144.657,-23.438,27.832,-6.348,-12.207,47.852,0
1492402144.661,-17.090,34.180,-8.789,-20.020,17.090,0
1492402144.665,4.395,19.043,-19.043,-14.648,11.230,0
1492402144.669,13.672,8.789,-19.531,-19.043,60.059,0
1492402144.673,-8.789,16.602,-15.137,-36.621,69.824,0
1492402144.677,-32.227,11.719,-13.672,-20.020,36.133,0
1492402144.681,-27.832,22.949,-17.090,-19.043,-10.742,0
1492402144.685,-12.207,43.945,-13.184,-25.879,20.020,0
1492402144.688,-3.418,27.344,-7.812,-14.648,53.711,0
1492402144.692,-20.020,12.207,-7.324,-18.555,8.789,0
1492402144.696,-32.227,26.855,-11.719,-16.113,12.695,0
1492402144.700,-27.832,27.344,-9.277,-18.555,41.992,0
1492402144.704,8.789,24.414,-7.324,-19.531,30.762,0
1492402144.708,16.602,34.668,-15.137,-10.254,-0.488,0
1492402144.712,-9.277,31.738,-9.277,-10.742,21.484,0
1492402144.716,-11.719,29.297,-5.859,-20.020,45.410,0
1492402144.720,-8.789,20.508,-10.742,-14.648,33.691,0
1492402144.724,-2.441,1.953,-8.301,0.000,41.992,0
1492402144.728,-7.324,8.301,-0.977,7.324,64.453,0
1492402144.731,-19.531,16.602,-7.812,-13.672,42.480,0
1492402144.735,0.000,13.184,-12.695,-33.203,10.254,0
1492402144.739,-1.465,12.695,-6.836,-23.926,9.277,0
1492402144.743,-10.254,6.348,-9.766,-18.066,13.184,0
1492402144.747,-4.395,1.465,-14.160,-7.812,-0.488,0
1492402144.751,-10.742,15.625,-17.090,2.441,-13.672,0
1492402144.755,14.648,25.879,-19.531,-5.859,33.691,0
1492402144.759,12.695,13.184,-11.230,-10.254,62.500,0
1492402144.763,-4.395,15.137,-13.184,-2.930,33.203,0
1492402144.767,-4.883,11.230,-10.742,-3.906,20.508,0
1492402144.771,-5.371,7.812,0.000,0.977,43.945,0
1492402144.774,-15.625,20.020,-3.418,-5.859,39.062,0
1492402144.778,-22.949,24.414,-9.277,-7.324,-3.906,0
1492402144.782,-1.953,17.090,-2.441,-5.859,-1.465,0
1492402144.786,20.508,13.184,1.465,-10.254,20.508,0
1492402144.790,28.809,24.902,-4.883,-5.371,15.625,0
1492402144.794,-10.742,30.273,-4.395,-4.883,2.441,0
1492402144.798,-23.438,27.832,-9.277,-6.836,-2.930,0
1492402144.802,14.160,10.742,-10.742,5.371,18.555,0
1492402144.806,4.883,5.859,-2.930,6.836,55.664,0
1492402144.810,0.977,27.344,-7.812,-6.836,37.598,0
1492402144.813,7.324,13.672,-14.160,-9.277,24.902,0
1492402144.817,-4.883,6.836,-5.371,-8.789,38.574,0
1492402144.821,-8.789,17.578,-6.348,-7.324,23.438,0
1492402144.825,0.977,19.043,-9.766,-8.301,2.441,0
1492402144.829,-14.160,20.508,-4.883,-8.789,9.277,0
1492402144.833,-17.090,9.277,-2.930,-4.883,32.227,0
1492402144.837,2.441,3.906,5.859,-14.648,35.645,0
1492402144.841,6.348,6.348,-4.395,-12.695,26.367,0
1492402144.845,8.301,3.906,-19.043,-9.277,19.043,0
1492402144.849,-13.184,15.137,-15.137,-14.160,16.113,0
1492402144.853,-14.160,27.832,-9.766,-16.113,33.203,0
1492402144.856,15.137,22.949,-9.766,-19.043,18.066,0
1492402144.860,7.812,17.578,0.000,-14.648,21.484,0
1492402144.864,0.488,22.461,0.000,-15.625,46.875,0
1492402144.868,-3.418,25.879,-14.160,-22.461,16.113,0
1492402144.872,-20.508,20.020,-7.324,-9.766,19.531,0
1492402144.876,-17.090,20.020,-4.395,-14.648,22.949,0
1492402144.880,-5.859,25.391,-9.277,-19.043,20.508,0
1492402144.884,-17.090,22.949,-4.883,-9.277,10.742,0
1492402144.888,-18.066,16.113,2.930,-0.977,13.672,0
1492402144.892,-3.906,34.668,-9.766,-15.625,32.715,0
1492402144.896,0.488,31.250,-12.207,-25.391,6.348,0
1492402144.899,19.043,2.930,-2.930,-8.789,-20.996,0
1492402144.903,18.066,6.348,-9.277,-8.301,-23.926,0
1492402144.907,-1.465,10.742,-4.395,0.977,-17.578,0
1492402144.911,-3.418,16.113,-0.488,6.348,-13.184,0
1492402144.915,-0.977,13.672,-5.371,-0.488,-14.648,0
1492402144.919,1.953,10.254,-6.836,-5.371,-17.578,0
1492402144.923,10.254,13.184,-10.742,-8.301,29.297,0
1492402144.927,3.418,6.836,-5.859,0.488,49.316,0
1492402144.931,-10.254,4.883,0.488,6.836,6.348,0
1492402144.935,-15.625,13.184,-6.836,-2.930,7.812,0
1492402144.938,-4.395,11.230,-0.977,-18.066,41.016,0
1492402144.942,8.789,12.207,0.977,-14.648,22.461,0
1492402144.946,3.418,17.090,-11.719,-10.742,-6.348,0
1492402144.950,-15.137,13.184,-4.883,-17.578,35.156,0
1492402144.954,-6.348,11.230,6.348,-15.137,58.594,0
1492402144.958,-2.930,12.695,0.977,-14.648,6.836,0
1492402144.962,-15.625,15.137,-9.766,-12.695,-12.695,0
1492402144.966,5.859,19.531,-7.812,-8.789,28.809,0
1492402144.970,3.418,23.438,-2.930,-12.695,54.688,0
1492402144.974,-17.090,26.367,0.488,-18.555,42.969,0
1492402144.978,-11.230,20.996,2.930,-25.391,40.039,0
1492402144.981,-18.555,26.855,-0.488,-27.832,36.621,0
1492402144.985,-27.832,20.996,0.488,-9.766,46.387,0
1492402144.989,-14.160,25.879,-0.977,-13.184,53.223,0
1492402144.993,3.418,43.457,-8.789,-32.715,30.273,0
1492402144.997,17.090,27.832,-7.812,-27.344,23.926,0
1492402145.001,2.930,24.902,-7.812,-15.625,41.992,0
1492402145.005,-15.137,32.227,-12.207,-19.531,46.387,0
1492402145.009,0.000,22.949,-8.789,-24.902,31.738,0
1492402145.013,3.906,20.508,-6.836,-17.090,13.672,0
1492402145.017,-0.488,27.344,-5.371,-14.648,-3.418,0
1492402145.021,8.789,20.020,-6.348,-15.625,11.230,0
1492402145.024,23.438,18.555,-6.348,-21.484,44.922,0
1492402145.028,46.387,27.832,-2.441,-29.785,38.086,0
1492402145.032,40.527,24.414,-6.348,-19.043,34.668,0
1492402145.036,17.090,23.926,-2.930,-4.883,1.953,0
1492402145.040,14.160,23.438,0.977,-1.953,16.113,0
1492402145.044,7.812,21.484,-0.488,-10.742,25.391,0
1492402145.048,1.465,28.320,8.789,-4.395,14.160,0
1492402145.052,-8.301,16.113,21.484,-3.418,37.598,0
1492402145.056,0.000,9.277,4.395,10.254,42.969,0
1492402145.060,1.953,15.625,4.883,23.438,55.176,0
1492402145.063,-13.672,17.578,8.789,13.672,41.016,0
1492402145.067,0.488,18.555,6.348,6.836,10.254,1
1492402145.071,5.371,19.531,6.348,-1.953,44.434,0
1492402145.075,-18.066,26.367,6.836,-2.441,47.363,0
1492402145.079,-32.715,20.996,8.301,-1.465,20.508,0
1492402145.083,-32.715,15.137,4.395,-15.137,2.930,0
1492402145.087,-12.695,13.184,5.859,-6.836,14.160,0
1492402145.091,-0.488,8.301,6.348,-1.465,61.523,0
1492402145.095,-1.465,16.113,-4.395,-9.277,47.852,0
1492402145.099,3.906,13.184,-4.395,-7.812,-6.348,0
1492402145.103,-21.973,3.418,14.160,-6.348,5.859,0
1492402145.106,-35.156,15.137,10.254,-1.953,35.156,0
1492402145.110,2.930,18.555,-2.930,5.371,49.805,0
1492402145.114,15.137,12.695,1.465,-5.859,35.156,0
1492402145.118,16.602,11.230,0.488,-11.719,27.344,0
1492402145.122,14.160,20.020,-1.465,-7.812,47.363,0
1492402145.126,5.371,19.531,6.348,-7.324,24.902,0
1492402145.130,-4.883,15.137,6.836,-8.301,18.555,0
1492402145.134,0.977,18.066,6.348,-16.602,38.086,0
1492402145.138,6.348,15.137,4.883,-27.344,21.973,0
1492402145.142,17.090,13.672,-1.465,-25.879,-6.836,0
1492402145.146,19.043,17.090,3.418,-30.273,18.555,0
1492402145.149,-5.371,16.113,3.906,-26.367,43.945,0
1492402145.153,-6.348,23.438,-7.812,-15.625,37.598,0
1492402145.157,-7.812,35.156,-4.883,-11.719,37.598,0
1492402145.161,-7.812,27.832,1.953,-2.441,39.062,0
1492402145.165,7.812,38.086,3.418,-21.973,37.598,0
1492402145.169,10.742,34.180,2.441,-20.508,37.598,0
1492402145.173,5.859,11.230,1.953,-9.766,40.039,0
1492402145.177,10.254,26.367,1.953,-10.254,34.180,0
1492402145.181,22.949,30.762,7.324,-5.371,25.391,0
1492402145.185,27.832,26.367,11.719,0.000,23.438,0
1492402145.188,10.254,22.461,10.742,-8.789,23.438,0
1492402145.192,-4.395,11.719,21.973,-13.672,18.066,0
1492402145.196,17.578,10.742,9.277,-19.043,16.602,0
1492402145.200,18.555,5.371,-10.742,-20.996,-2.930,0
1492402145.204,-21.973,0.977,-8.789,-17.090,13.184,0
1492402145.208,-30.273,2.930,-11.230,-18.066,40.527,0
1492402145.212,-2.930,0.977,-15.625,-22.949,19.531,0
1492402145.216,7.324,-0.488,-8.301,-20.508,22.461,0
1492402145.220,2.930,1.465,-9.766,-19.531,41.504,0
1492402145.224,-10.742,5.371,-19.043,-22.949,30.273,0
1492402145.228,-44.922,1.953,-15.625,-31.250,18.066,0
1492402145.231,-53.223,2.930,-11.719,-26.855,-2.930,0
1492402145.235,-32.227,10.742,-11.230,-27.344,5.371,0
1492402145.239,-26.855,2.441,-11.719,-39.062,35.156,0
1492402145.243,-14.160,3.418,-23.438,-33.691,19.531,0
1492402145.247,3.906,7.812,-20.996,-30.762,11.230,0
1492402145.251,2.441,9.277,-14.648,-23.926,44.434,0
1492402145.255,-4.883,6.348,-14.648,-20.996,47.852,0
1492402145.259,2.930,3.906,-15.137,-29.785,24.902,0
1492402145.263,-2.930,4.883,-14.160,-32.715,-0.977,0
1492402145.267,-7.324,1.465,-12.207,-26.855,-11.719,0
1492402145.271,-21.973,0.977,-6.836,-25.391,20.508,0
1492402145.274,-28.809,-2.441,-5.371,-9.277,25.391,0
1492402145.278,4.883,-9.277,-12.207,1.953,3.418,0
1492402145.282,6.348,-6.348,-13.184,-14.160,7.324,0
1492402145.286,1.953,-10.254,-10.254,-20.020,28.809,0
1492402145.290,11.719,-10.254,-10.742,-21.973,22.949,0
1492402145.294,0.977,-6.836,-3.418,-18.066,13.672,0
1492402145.298,6.348,-3.906,-7.324,-20.996,20.996,0
1492402145.302,-5.859,-3.906,-18.555,-21.484,16.113,0
1492402145.306,-19.043,-8.301,-10.254,-19.531,16.602,0
1492402145.310,-16.113,20.508,-19.531,-37.598,5.371,0
1492402145.313,0.977,19.043,-20.996,-32.715,20.020,0
1492402145.317,10.254,-0.977,-13.672,-13.184,42.969,0
1492402145.321,2.441,13.184,-13.672,-15.137,19.531,0
1492402145.325,13.184,9.277,-17.578,-18.066,18.555,0
1492402145.329,13.184,2.441,-7.812,-25.391,28.809,0
1492402145.333,1.465,8.789,-4.395,-18.555,18.555,0
1492402145.337,3.418,11.719,-14.648,-14.648,0.488,0
1492402145.341,-4.395,12.695,-8.789,-12.207,37.109,0
1492402145.345,-3.418,21.973,-6.836,-11.230,53.711,0
1492402145.349,12.695,19.043,-11.719,-20.996,10.254,0
1492402145.353,0.488,13.184,-15.137,-17.578,24.414,0
1492402145.356,-3.906,18.555,0.488,-15.625,49.805,0
1492402145.360,-11.719,17.578,3.906,-6.348,40.527,0
1492402145.364,-20.996,13.672,-10.254,-1.953,17.578,0
1492402145.368,-6.348,33.691,-13.672,-21.973,18.555,0
1492402145.372,2.441,33.691,-10.254,-26.367,36.133,0
1492402145.376,-20.996,8.789,3.418,-8.789,13.184,0
1492402145.380,-20.020,9.766,-5.371,3.418,-12.695,0
1492402145.384,0.488,17.090,-11.230,-6.348,-2.930,0
1492402145.388,3.906,17.578,0.000,-18.066,15.137,0
1492402145.392,-5.371,13.672,-12.207,-21.973,11.230,0
1492402145.396,-30.762,12.695,-10.254,-24.414,-14.160,0
1492402145.399,-29.785,23.926,-9.766,-14.648,-10.742,0
1492402145.403,-12.695,17.090,-9.766,-12.207,41.016,0
1492402145.407,-10.254,4.883,-4.883,-22.949,30.273,0
1492402145.411,-16.113,0.488,-5.371,-16.602,-20.020,0
1492402145.415,-15.137,2.930,-2.441,-16.602,1.953,0
1492402145.419,-17.578,11.719,-1.953,-12.207,20.996,0
1492402145.423,-27.344,8.789,6.836,3.418,38.574,0
1492402145.427,-29.297,11.230,7.812,0.488,31.250,0
1492402145.431,1.465,15.137,0.488,-20.020,18.555,0
1492402145.435,-1.465,-0.977,25.391,-21.484,39.551,0
1492402145.438,-24.414,4.395,18.555,-12.695,44.922,0
1492402145.442,-6.836,13.672,-5.859,-2.441,37.598,0
1492402145.446,-0.488,8.301,-0.488,0.977,18.066,0
1492402145.450,16.602,12.695,1.953,-7.812,15.625,0
1492402145.454,44.434,9.277,9.766,-18.555,19.043,0
1492402145.458,16.602,11.719,0.488,-16.113,9.277,0
1492402145.462,-11.230,16.113,-3.906,-19.531,31.738,0
1492402145.466,17.578,20.508,-0.488,-15.625,22.461,0
1492402145.470,31.250,16.113,-3.906,-10.254,25.879,0
1492402145.474,1.953,16.602,-5.371,-9.766,35.645,0
1492402145.478,-2.441,27.832,-7.812,-4.395,8.789,0
1492402145.481,-3.906,33.691,-4.395,-13.184,14.648,0
1492402145.485,-2.930,20.508,8.301,-14.648,30.273,0
1492402145.489,13.184,15.137,0.488,-8.789,30.273,0
1492402145.493,22.461,15.625,-3.418,3.906,22.949,0
1492402145.497,24.902,12.695,0.488,12.207,16.602,0
1492402145.501,1.953,19.043,-1.953,-1.953,-11.230,0
1492402145.505,0.488,18.066,1.953,-4.395,9.766,0
1492402145.509,23.926,20.020,-1.465,4.883,63.477,0
1492402145.513,17.578,15.625,-6.836,8.301,51.270,0
1492402145.517,3.418,18.066,-5.859,-5.371,17.578,0
1492402145.521,-3.418,24.902,-7.324,-12.695,30.273,0
1492402145.524,-7.324,21.484,-6.836,-2.441,69.336,0
1492402145.528,3.418,22.949,-8.301,-7.324,49.316,0
1492402145.532,1.953,22.949,-7.324,-14.160,-3.906,0
1492402145.536,-3.418,21.484,-4.395,-10.254,12.695,0
1492402145.540,0.488,17.578,-5.859,-2.930,26.855,0
1492402145.544,-16.113,16.602,-5.371,-7.324,13.184,0
1492402145.548,-40.527,14.648,1.465,-8.789,-8.301,0
1492402145.552,-41.992,16.602,-0.977,-14.160,-0.977,0
1492402145.556,-28.809,23.926,-6.348,-22.461,42.969,0
1492402145.560,3.418,21.973,2.441,-20.020,24.414,0
1492402145.563,34.180,18.555,1.953,-18.066,25.391,0
1492402145.567,14.648,16.602,0.000,-5.371,50.781,0
1492402145.571,-25.391,14.160,10.254,-0.488,51.270,0
1492402145.575,-30.762,5.371,8.789,-3.418,52.734,0
1492402145.579,-15.137,1.465,7.324,-3.418,20.020,0
1492402145.583,-11.719,19.043,8.789,-6.836,9.277,0
1492402145.587,23.438,21.484,-4.395,-8.789,35.156,0
1492402145.591,19.531,19.043,-2.930,-2.441,23.926,0
1492402145.595,-2.441,20.996,0.977,4.883,5.859,0
1492402145.599,3.418,18.066,-1.465,3.906,0.488,0
1492402145.603,10.742,19.043,14.160,13.672,-4.883,0
1492402145.606,8.301,19.531,12.207,7.324,3.418,0
1492402145.610,21.973,18.555,-0.977,9.766,1.465,0
1492402145.614,27.344,27.344,-0.488,4.395,26.367,0
1492402145.618,21.973,21.973,8.789,10.742,36.133,0
1492402145.622,0.977,38.574,5.371,17.090,24.414,0
1492402145.626,-15.137,45.898,-2.441,9.766,40.527,0
1492402145.630,25.879,13.184,17.578,12.695,12.207,0
1492402145.634,36.621,22.949,13.672,7.324,0.488,0
1492402145.638,22.949,35.156,-6.836,10.742,28.809,0
1492402145.642,22.461,28.809,-1.953,9.766,52.734,0
1492402145.646,15.625,25.391,-4.395,-3.418,47.363,0
1492402145.649,17.090,17.578,-0.488,-12.207,11.230,0
1492402145.653,38.574,20.508,2.930,-10.254,-18.555,0
1492402145.657,46.875,19.531,8.789,-18.555,21.484,0
1492402145.661,11.719,10.742,12.207,-19.531,37.598,0
1492402145.665,4.883,20.508,-1.465,-9.766,9.277,0
1492402145.669,13.184,43.945,-2.441,-29.297,49.805,0
1492402145.673,7.812,45.898,-0.977,-28.320,71.289,0
1492402145.677,4.883,20.020,0.000,-9.277,41.016,0
1492402145.681,-13.184,16.602,1.953,-9.277,28.320,0
1492402145.685,-19.043,19.043,3.418,-12.207,20.020,0
1492402145.688,-21.973,14.160,9.277,-0.977,12.695,0
1492402145.692,-25.391,23.438,1.465,-2.441,9.766,0
1492402145.696,-26.855,27.832,3.418,-7.324,-24.414,0
1492402145.700,-38.574,17.578,21.484,4.883,21.973,0
1492402145.704,-32.227,4.883,14.160,0.000,61.035,0
1492402145.708,-22.461,8.301,5.371,-0.977,31.250,0
1492402145.712,-9.277,15.625,11.230,10.254,33.203,0
1492402145.716,-6.836,3.906,8.789,-5.371,15.625,0
1492402145.720,-21.973,7.812,4.395,-10.254,21.484,0
1492402145.724,7.324,23.926,11.719,8.301,52.246,0
1492402145.728,36.133,13.184,17.578,-6.836,18.555,0
1492402145.731,22.461,7.324,7.812,-6.836,-6.836,0
1492402145.735,-0.488,22.949,5.859,-0.977,13.672,0
1492402145.739,-11.719,5.859,17.578,2.441,10.742,0
1492402145.743,10.254,-22.461,19.531,13.672,5.371,0
1492402145.747,47.363,-10.254,4.395,-1.953,17.090,0
1492402145.751,33.691,12.207,7.324,-11.230,25.879,0
1492402145.755,7.324,15.137,6.348,4.395,4.395,0
1492402145.759,-9.766,7.324,2.930,13.184,-10.254,0
1492402145.763,3.906,10.742,4.395,-14.160,0.977,0
1492402145.767,19.531,6.836,6.836,-18.066,21.973,0
1492402145.771,15.625,12.695,11.230,-7.324,26.855,0
1492402145.774,25.879,15.625,9.277,-12.695,41.504,0
1492402145.778,10.254,9.277,16.113,-8.789,25.879,0
1492402145.782,17.578,13.672,20.508,-1.953,5.371,0
1492402145.786,23.926,15.625,20.020,0.488,-5.371,0
1492402145.790,-1.953,7.812,21.484,-0.977,-0.977,0
1492402145.794,-9.277,3.418,24.902,0.488,32.227,0
1492402145.798,5.859,10.254,18.555,-9.766,35.156,0
1492402145.802,17.090,7.812,13.184,-20.020,12.695,0
1492402145.806,-7.324,0.488,22.461,-13.672,15.625,0
1492402145.810,-11.719,7.812,32.715,-10.254,28.809,0
1492402145.813,0.488,10.254,31.738,-15.625,12.695,0
1492402145.817,4.395,3.906,14.160,-3.418,-25.391,0
1492402145.821,11.230,0.000,16.113,-3.906,10.742,0
1492402145.825,-0.488,7.812,19.531,-20.020,57.617,0
1492402145.829,-19.531,9.766,14.160,-10.742,-23.438,0
1492402145.833,-7.812,0.977,21.484,-11.719,-38.086,0
1492402145.837,6.836,5.859,28.320,-21.484,19.531,0
1492402145.841,5.371,18.066,17.090,-20.996,-21.484,0
1492402145.845,-0.977,24.902,18.066,-24.902,-36.133,0
1492402145.849,2.441,7.812,23.926,-18.555,-10.742,0
1492402145.853,8.789,3.418,22.461,-9.766,13.184,0
1492402145.856,10.254,10.254,26.367,-12.695,6.836,0
1492402145.860,-17.090,9.277,25.391,-19.531,-22.949,0
1492402145.864,-27.344,6.348,24.414,-22.461,-18.555,0
1492402145.868,-29.297,17.090,19.531,-32.715,14.160,0
1492402145.872,-18.066,14.160,27.344,-28.320,25.879,0
1492402145.876,2.930,12.207,22.949,-22.461,-13.184,0
1492402145.880,-1.465,12.207,20.996,-28.320,-48.340,0
1492402145.884,-20.020,4.395,24.902,-37.109,-36.133,0
1492402145.888,-29.785,9.277,14.160,-31.738,-31.738,0
1492402145.892,-13.672,11.719,13.184,-28.320,-36.133,0
1492402145.896,-11.230,11.719,6.348,-43.945,-7.812,0
1492402145.899,-12.207,8.789,16.113,-41.504,-11.230,0
1492402145.903,-12.695,15.137,22.949,-25.391,-30.273,0
1492402145.907,-29.785,20.996,16.113,-27.344,-28.320,0
1492402145.911,-21.973,14.648,14.160,-34.668,-11.719,0
1492402145.915,-1.953,12.695,18.555,-20.996,-2.930,0
1492402145.919,-13.184,8.789,18.555,-23.438,-0.488,0
1492402145.923,-52.246,2.930,22.461,-24.414,2.930,0
1492402145.927,-44.922,4.883,22.461,-33.691,5.859,0
1492402145.931,-32.227,18.066,12.207,-36.621,28.320,0
1492402145.935,-32.227,9.277,21.973,-21.484,-1.465,0
1492402145.938,-23.926,-4.395,24.902,-24.414,-25.391,0
1492402145.942,-27.832,-2.441,15.625,-27.344,-2.930,0
1492402145.946,-34.668,-1.465,15.137,-32.227,-2.441,0
1492402145.950,-41.016,-7.324,17.090,-34.668,2.930,0
1492402145.954,-53.711,-5.859,15.137,-36.621,8.789,0
1492402145.958,-44.922,0.977,15.625,-44.434,34.180,0
1492402145.962,-33.691,-11.230,25.391,-40.527,16.602,0
1492402145.966,-41.992,-8.301,17.578,-36.621,-30.273,0
1492402145.970,-34.668,-8.789,15.137,-33.691,-1.953,0
1492402145.974,-40.527,11.719,12.695,-34.180,33.203,0
1492402145.978,-49.805,12.695,20.996,-36.621,-0.977,0
1492402145.981,-48.828,-8.301,25.879,-27.344,-34.180,0
1492402145.985,-44.434,-8.789,14.160,-17.090,-4.395,0
1492402145.989,-45.410,-1.953,10.254,-27.832,30.762,0
1492402145.993,-26.855,10.742,7.324,-31.738,7.812,0
1492402145.997,-10.254,6.348,11.719,-30.273,-18.555,0
1492402146.001,-12.695,-1.465,13.184,-43.457,4.395,0
1492402146.005,-16.602,-1.465,11.719,-35.156,7.324,0
1492402146.009,-19.531,-0.488,10.254,-16.113,-3.418,0
1492402146.013,-20.508,-2.441,8.789,-31.738,4.395,0
1492402146.017,-16.113,0.977,10.254,-34.668,-10.742,0
1492402146.021,-31.250,10.742,18.066,-32.227,14.160,0
1492402146.024,-36.133,12.207,10.742,-36.133,-12.695,0
1492402146.028,-10.254,-3.906,0.977,-30.273,-40.039,0
1492402146.032,-2.930,-9.766,1.953,-20.996,0.977,0
1492402146.036,-14.648,-1.465,7.324,-17.090,18.066,0
1492402146.040,-22.949,3.418,22.461,-24.902,12.695,0
1492402146.044,-4.883,3.418,17.090,-29.297,-2.930,0
1492402146.048,1.465,6.836,8.301,-24.414,-14.160,0
1492402146.052,-19.043,7.812,8.789,-31.738,2.930,0
1492402146.056,-23.438,7.812,8.301,-31.250,23.926,0
1492402146.060,-12.207,-1.953,12.207,-29.785,0.977,0
1492402146.063,-5.859,-5.371,1.953,-26.855,-21.484,0
1492402146.067,-11.719,1.953,-0.488,-18.066,-8.301,0
1492402146.071,-20.996,9.766,5.371,-22.949,5.859,0
1492402146.075,-19.531,5.859,10.742,-20.508,18.555,0
1492402146.079,-18.066,-2.930,12.695,-20.020,13.672,0
1492402146.083,-21.973,10.254,9.277,-24.414,10.742,0
1492402146.087,-26.855,14.648,7.812,-11.230,34.180,0
1492402146.091,-32.227,3.906,10.742,-5.371,59.570,0
1492402146.095,-7.324,2.441,6.836,-17.090,39.062,0
1492402146.099,10.742,5.371,-1.465,-15.625,18.066,0
1492402146.103,-12.207,5.859,3.906,-14.648,39.062,0
1492402146.106,-29.785,14.648,7.812,-8.789,13.184,0
1492402146.110,-28.320,16.113,3.906,-4.883,2.441,0
1492402146.114,-26.367,4.883,21.973,-5.371,0.488,0
1492402146.118,2.930,5.371,9.766,5.859,-12.207,0
1492402146.122,16.113,6.348,-6.836,-1.953,14.160,0
1492402146.126,10.742,5.859,0.000,1.465,19.531,0
1492402146.130,15.137,2.930,0.977,14.160,-16.602,0
1492402146.134,27.832,3.906,0.977,25.391,18.555,0
1492402146.138,29.785,10.742,-2.930,30.273,31.738,0
1492402146.142,29.785,9.766,1.953,27.344,36.133,0
1492402146.146,33.203,4.395,14.648,19.043,48.340,0
1492402146.149,44.434,10.742,-3.906,19.043,48.828,0
1492402146.153,55.176,14.160,-7.812,16.602,54.199,0
1492402146.157,64.941,5.371,4.883,7.324,42.480,0
1492402146.161,50.781,5.859,-3.418,22.949,5.859,0
1492402146.165,31.250,6.836,-1.465,29.297,-34.668,0
1492402146.169,48.340,12.695,1.953,31.738,-1.465,0
1492402146.173,46.875,24.902,0.000,26.367,44.434,0
1492402146.177,42.969,19.531,-0.977,34.668,9.766,0
1492402146.181,23.438,25.879,-0.977,29.785,-6.348,0
1492402146.185,15.625,29.785,-1.465,15.625,6.348,0
1492402146.188,44.434,20.508,-0.488,20.996,40.039,0
1492402146.192,37.598,24.902,-3.906,21.484,65.430,0
1492402146.196,51.758,24.414,-5.859,14.648,21.484,0
1492402146.200,47.363,20.020,-2.930,21.484,3.418,0
1492402146.204,16.113,20.020,-5.859,39.062,0.977,0
1492402146.208,27.344,23.438,-3.418,24.902,10.742,0
1492402146.212,48.828,20.508,-4.883,18.066,36.621,0
1492402146.216,52.734,18.066,-6.348,32.227,29.785,0
1492402146.220,32.715,15.137,-2.930,37.109,18.555,0
1492402146.224,25.879,12.695,-5.371,31.738,38.086,0
1492402146.228,9.766,17.090,-3.906,30.762,52.734,0
1492402146.231,7.812,21.973,-6.348,33.691,29.297,0
1492402146.235,31.250,19.531,-3.906,23.438,38.086,0
1492402146.239,11.230,18.066,-1.465,18.555,57.129,0
1492402146.243,-8.301,14.160,-8.301,16.113,33.203,0
1492402146.247,-7.324,24.414,-8.301,13.672,-11.230,0
1492402146.251,-11.230,23.926,-4.883,23.926,-10.254,0
1492402146.255,13.184,5.859,5.859,20.020,13.184,0
1492402146.259,25.391,5.859,1.953,17.090,29.785,0
1492402146.263,37.109,13.672,-4.883,30.273,1.953,0
1492402146.267,54.199,13.184,1.953,27.832,-19.043,0
1492402146.271,40.039,13.672,1.465,23.926,38.086,0
1492402146.274,37.109,16.113,1.465,20.020,65.918,0
1492402146.278,48.828,18.555,-1.465,10.742,25.391,0
1492402146.282,27.344,23.438,3.906,11.719,6.836,0
1492402146.286,20.508,15.137,6.348,10.254,26.367,0
1492402146.290,59.082,20.996,1.465,0.488,48.828,0
1492402146.294,66.895,29.297,3.418,0.488,38.086,0
1492402146.298,39.062,25.879,0.000,-0.977,14.160,0
1492402146.302,18.066,16.602,-0.977,0.488,1.465,0
1492402146.306,26.367,2.930,3.418,8.789,41.504,0
1492402146.310,25.879,5.371,11.230,6.836,59.570,0
1492402146.313,-2.441,6.836,12.207,7.812,11.719,0
1492402146.317,1.465,3.418,3.906,21.973,-9.277,0
1492402146.321,-0.488,7.812,3.418,20.996,11.230,0
1492402146.325,-1.465,5.371,3.906,27.344,8.789,0
1492402146.329,20.508,6.348,7.324,32.715,2.441,0
1492402146.333,15.625,11.719,6.836,21.484,14.648,2
1492402146.337,24.414,1.465,6.836,20.508,19.531,0
1492402146.341,14.648,-1.953,1.953,18.555,12.207,0
1492402146.345,-9.766,-1.465,7.812,16.602,-4.395,0
1492402146.349,3.418,0.000,6.836,17.090,-15.625,0
1492402146.353,3.906,4.883,0.977,6.836,6.348,0
1492402146.356,-16.113,0.000,18.555,1.953,-0.977,0
1492402146.360,4.395,3.906,8.301,6.348,-8.789,0
1492402146.364,34.180,7.812,-3.418,-7.324,20.996,0
1492402146.368,21.484,7.812,1.953,-7.812,6.836,0
1492402146.372,0.000,7.812,6.836,-6.836,32.715,0
1492402146.376,11.230,15.137,4.395,-4.883,68.359,0
1492402146.380,23.926,28.809,-5.859,-2.930,68.848,0
1492402146.384,1.953,19.531,-1.465,-14.160,41.016,0
1492402146.388,0.000,3.418,6.836,0.488,10.254,0
1492402146.392,13.672,20.996,1.465,-2.441,48.828,0
1492402146.396,16.602,22.949,4.883,-11.230,57.129,0
1492402146.399,45.410,-2.930,12.207,6.836,18.555,0
1492402146.403,34.668,-1.953,19.043,0.488,17.578,0
1492402146.407,14.160,7.324,11.719,7.812,60.547,0
1492402146.411,22.461,12.695,7.812,26.855,66.895,0
1492402146.415,26.367,5.859,15.625,16.113,46.875,0
1492402146.419,9.766,14.648,12.207,7.812,76.660,0
1492402146.423,19.043,21.973,15.625,5.371,77.148,0
1492402146.427,37.109,10.254,22.949,-2.441,42.480,0
1492402146.431,33.691,12.207,12.207,3.906,-11.719,0
1492402146.435,27.344,13.672,14.648,12.207,-6.836,0
1492402146.438,12.695,14.160,16.113,7.812,26.855,0
1492402146.442,12.207,12.695,16.113,1.953,21.484,0
1492402146.446,29.297,2.441,29.297,6.348,1.953,0
1492402146.450,27.344,9.277,20.508,0.488,14.648,0
1492402146.454,45.410,7.812,6.348,-0.488,57.129,0
1492402146.458,38.086,0.977,20.996,0.488,38.574,0
1492402146.462,26.367,11.719,25.879,9.277,-5.859,0
1492402146.466,42.480,15.137,16.602,0.488,2.930,0
1492402146.470,34.668,9.766,18.066,-4.395,40.527,0
1492402146.474,6.836,7.324,18.066,3.418,31.738,0
1492402146.478,6.836,11.230,20.020,2.930,-1.465,0
1492402146.481,33.691,16.602,25.879,1.953,-2.441,0
1492402146.485,32.227,14.160,23.926,4.883,29.785,0
1492402146.489,15.137,4.395,31.738,-0.977,42.480,0
1492402146.493,15.137,13.184,30.273,-6.836,-0.488,0
1492402146.497,21.973,23.438,16.602,0.977,8.789,0
1492402146.501,19.043,9.277,26.367,2.930,11.230,0
1492402146.505,16.602,4.395,24.902,5.859,23.926,0
1492402146.509,12.207,14.160,7.324,-4.883,56.152,0
1492402146.513,11.230,8.789,13.184,-8.789,44.922,0
1492402146.517,42.480,9.766,13.672,1.953,41.016,0
1492402146.521,45.898,9.277,16.113,-5.371,66.406,0
1492402146.524,37.109,0.488,21.484,1.465,56.152,0
1492402146.528,48.340,8.789,8.789,1.953,39.062,0
1492402146.532,56.152,14.648,9.766,-2.930,10.254,0
1492402146.536,42.969,13.184,16.113,12.207,-24.902,0
1492402146.540,10.742,11.719,11.230,16.113,23.926,0
1492402146.544,14.160,16.602,10.254,1.465,45.410,0
1492402146.548,30.273,15.137,12.207,-4.883,6.348,0
1492402146.552,20.996,8.301,9.277,0.000,-0.488,0
1492402146.556,21.973,11.719,3.906,-3.418,24.414,0
1492402146.560,33.203,11.719,7.324,0.977,45.410,0
1492402146.563,31.738,2.441,21.973,14.648,16.113,0
1492402146.567,24.902,4.883,23.926,10.742,-13.184,0
1492402146.571,33.691,18.066,10.254,5.859,31.738,0
1492402146.575,25.391,24.902,8.789,4.883,67.383,0
1492402146.579,30.273,8.789,9.766,8.789,31.250,0
1492402146.583,42.480,10.254,6.348,-2.930,-24.902,0
1492402146.587,39.062,12.207,4.883,0.977,37.109,0
1492402146.591,42.969,5.371,11.719,9.277,60.059,0
1492402146.595,26.855,5.859,15.137,-10.254,2.441,0
1492402146.599,24.902,-1.953,15.137,9.766,9.277,0
1492402146.603,31.250,3.418,17.090,23.438,23.438,0
1492402146.606,34.180,11.230,13.672,12.695,35.156,0
1492402146.610,26.367,7.324,-1.953,2.441,15.137,0
1492402146.614,16.602,12.695,-46.387,3.418,5.371,0
1492402146.618,20.996,16.113,-63.965,7.812,26.855,0
1492402146.622,18.555,19.043,-67.383,10.254,43.457,0
1492402146.626,15.625,19.043,-65.430,-0.488,32.227,0
1492402146.630,10.254,12.695,-56.641,-5.859,-3.418,0
1492402146.634,0.000,22.461,-53.711,7.324,20.020,0
1492402146.638,1.465,25.879,-54.199,9.277,37.109,0
1492402146.642,-4.883,6.836,-47.852,6.836,27.344,0
1492402146.646,15.137,7.812,-46.875,2.930,20.996,0
1492402146.649,35.645,16.602,-39.551,4.395,33.203,0
1492402146.653,15.625,16.113,-31.250,3.906,53.711,0
1492402146.657,24.902,25.879,-48.340,4.883,46.387,0
1492402146.661,16.113,34.668,-40.527,-8.301,54.199,0
1492402146.665,9.766,34.668,-35.156,-8.301,57.617,0
1492402146.669,20.996,24.414,-43.945,15.137,46.875,0
1492402146.673,25.391,11.719,-35.156,19.043,33.203,0
1492402146.677,35.645,1.465,-19.531,9.277,20.508,0
1492402146.681,20.020,4.883,-20.020,10.254,46.387,0
1492402146.685,17.578,8.301,-29.785,23.438,26.855,0
1492402146.688,28.320,3.906,-20.996,14.648,6.348,0
1492402146.692,34.668,4.883,-19.043,14.648,39.062,0
1492402146.696,37.109,4.883,-20.508,16.602,32.715,0
1492402146.700,23.926,8.301,-17.578,10.742,7.324,0
1492402146.704,2.930,13.672,-15.625,13.184,8.789,0
1492402146.708,10.742,12.695,-14.648,16.113,25.879,0
1492402146.712,28.809,20.996,-17.090,17.578,13.672,0
1492402146.716,36.133,31.738,-15.137,16.113,3.418,0
1492402146.720,53.223,20.508,-11.719,12.695,31.738,0
1492402146.724,61.523,18.066,-14.160,18.066,33.691,0
1492402146.728,49.805,24.414,-11.719,20.508,10.254,0
1492402146.731,38.086,21.973,-9.766,12.695,-7.812,0
1492402146.735,25.879,25.391,-10.742,16.113,23.926,0
1492402146.739,40.527,32.227,-7.324,10.742,43.945,0
1492402146.743,55.176,24.902,-4.395,13.184,4.883,0
1492402146.747,44.922,23.438,-5.371,24.902,-6.836,0
1492402146.751,36.621,31.250,-6.836,6.348,2.441,0
1492402146.755,45.410,24.414,-9.277,-3.906,7.324,0
1492402146.759,37.109,15.625,2.441,6.348,20.996,0
1492402146.763,0.977,21.484,-6.348,12.695,19.531,0
1492402146.767,-28.809,30.273,-11.230,5.859,12.207,0
1492402146.771,-12.207,23.926,2.930,7.324,29.297,0
1492402146.774,18.066,4.883,-1.465,16.602,-2.441,0
1492402146.778,21.973,8.789,-0.977,7.812,-20.020,0
1492402146.782,31.738,16.113,-9.277,1.953,6.836,0
1492402146.786,22.461,22.461,-9.277,0.000,24.902,0
1492402146.790,3.418,28.809,-6.348,-2.441,49.805,0
1492402146.794,14.160,22.461,-8.789,-1.465,46.875,0
1492402146.798,2.930,16.602,5.371,2.930,17.578,0
1492402146.802,3.906,23.438,7.324,-1.465,21.973,0
1492402146.806,32.715,26.367,-13.184,-0.488,10.254,0
1492402146.810,20.996,32.715,-7.812,-4.395,-1.953,0
1492402146.813,17.578,40.039,-4.883,-9.277,-20.508,0
1492402146.817,3.906,33.691,-13.672,0.977,-9.766,0
1492402146.821,-6.836,29.785,-8.789,14.160,12.207,0
1492402146.825,14.648,32.227,-4.883,7.324,29.785,0
1492402146.829,20.996,39.062,-5.371,6.836,41.016,0
1492402146.833,35.156,26.367,-1.953,15.137,-5.371,0
1492402146.837,39.551,15.137,-1.465,6.348,-17.578,3
1492402146.841,20.996,22.949,-5.371,-3.418,23.926,0
1492402146.845,1.953,29.297,-3.418,6.348,36.133,0
1492402146.849,8.301,35.156,-4.883,8.789,1.465,0
1492402146.853,17.090,37.109,-13.184,-2.441,3.418,0
1492402146.856,27.832,38.574,2.441,-10.254,27.344,0
1492402146.860,24.414,29.297,18.066,-1.465,32.715,0
1492402146.864,26.367,26.367,-1.465,12.695,-1.953,0
1492402146.868,28.320,28.809,-9.277,8.789,-29.297,0
1492402146.872,3.906,29.297,-4.395,2.441,23.438,0
1492402146.876,-0.977,23.438,-5.371,0.000,17.578,0
1492402146.880,-4.883,13.672,-3.906,-3.418,-20.020,0
1492402146.884,5.371,24.902,-6.836,-12.207,12.207,0
1492402146.888,25.391,27.344,-3.418,-4.395,28.809,0
1492402146.892,24.902,46.875,5.371,2.441,33.203,0
1492402146.896,24.414,60.059,11.230,11.719,11.230,0
1492402146.899,41.992,52.246,19.531,13.184,-26.367,0
1492402146.903,48.340,57.617,24.902,1.465,14.648,0
1492402146.907,53.223,60.059,22.461,1.953,60.547,0
1492402146.911,54.688,57.617,26.855,-7.812,1.953,0
1492402146.915,35.645,55.176,27.832,-8.789,-37.109,0
1492402146.919,31.738,51.758,18.555,-8.301,-9.277,0
1492402146.923,53.223,53.711,13.672,-6.836,2.930,0
1492402146.927,39.551,55.176,12.695,-6.836,-21.484,0
1492402146.931,16.602,48.340,17.578,1.953,5.859,0
1492402146.935,3.418,51.270,13.184,16.602,26.367,0
1492402146.938,6.836,46.875,15.625,24.902,9.277,0
1492402146.942,16.602,43.457,15.625,27.832,14.648,0
1492402146.946,3.418,47.852,14.648,29.785,13.184,0
1492402146.950,5.371,40.527,17.578,26.855,-3.418,0
1492402146.954,1.953,34.180,17.578,23.926,-8.789,0
1492402146.958,-23.926,40.527,24.902,16.602,4.395,0
1492402146.962,-1.465,43.457,16.113,7.324,45.410,0
1492402146.966,16.602,41.504,9.277,19.531,19.043,0
1492402146.970,-3.906,37.598,13.672,4.883,3.906,0
1492402146.974,14.160,27.832,13.672,3.906,40.527,0
1492402146.978,20.996,36.133,11.230,15.137,19.043,0
1492402146.981,2.441,40.527,6.348,13.672,-3.906,0
1492402146.985,19.043,33.203,7.812,18.066,-12.695,0
1492402146.989,31.738,35.156,7.812,15.137,12.207,0
1492402146.993,7.812,37.598,11.230,17.090,43.945,0
1492402146.997,4.395,38.574,14.160,11.719,22.461,0
1492402147.001,23.438,45.410,9.766,0.977,10.742,0
1492402147.005,32.715,45.898,7.324,-4.883,34.668,0
1492402147.009,27.832,39.062,13.672,0.488,37.598,0
1492402147.013,21.484,58.105,8.301,0.977,16.602,0
1492402147.017,37.109,57.617,16.602,-3.418,16.113,0
1492402147.021,31.738,36.133,20.020,-0.977,41.016,0
1492402147.024,24.902,38.574,2.930,3.906,54.688,0
1492402147.028,24.902,33.691,4.883,24.902,22.461,0
1492402147.032,27.344,37.598,5.371,15.625,-7.812,0
1492402147.036,41.992,45.410,1.953,-1.953,5.371,0
1492402147.040,35.645,47.852,4.883,-4.883,26.855,0
1492402147.044,26.367,38.574,14.648,-2.930,16.602,0
1492402147.048,25.391,28.320,15.137,3.418,-6.348,0
1492402147.052,26.855,34.180,4.395,9.277,5.859,0
1492402147.056,20.508,41.016,0.488,3.418,35.156,0
1492402147.060,13.184,30.762,12.207,3.906,32.715,0
1492402147.063,9.766,21.973,18.066,12.695,19.531,0
1492402147.067,18.066,32.715,5.859,0.977,40.039,0
1492402147.071,33.203,28.320,4.883,4.395,49.316,0
1492402147.075,26.367,27.344,8.301,18.066,37.109,0
1492402147.079,9.766,40.039,9.766,10.742,38.086,0
1492402147.083,40.039,30.273,11.719,14.648,22.461,0
1492402147.087,29.297,27.344,25.391,16.113,10.742,0
1492402147.091,20.020,34.668,25.879,21.973,-19.531,0
1492402147.095,54.199,34.668,13.672,22.949,-14.160,0
1492402147.099,53.711,35.156,14.648,14.160,17.578,0
1492402147.103,45.898,32.715,15.137,7.324,-14.648,0
1492402147.106,28.809,35.156,10.742,9.277,4.395,0
1492402147.110,28.320,41.016,9.766,10.254,43.945,0
1492402147.114,56.152,38.574,11.230,10.742,8.789,0
1492402147.118,56.641,29.297,10.254,17.090,-1.465,0
1492402147.122,31.250,33.203,19.531,7.324,29.297,0
1492402147.126,12.695,33.691,13.672,9.766,46.875,0
1492402147.130,28.320,36.133,1.953,28.809,53.711,0
1492402147.134,30.762,41.504,6.836,30.762,24.414,0
1492402147.138,39.551,26.855,8.301,28.320,8.301,0
1492402147.142,41.504,24.414,6.836,38.086,33.691,0
1492402147.146,42.969,19.043,16.113,40.039,19.531,0
1492402147.149,35.645,34.668,4.883,29.785,-25.391,0
1492402147.153,21.484,43.457,4.883,27.344,-28.809,0
1492402147.157,22.461,44.922,15.137,24.902,27.344,0
1492402147.161,37.598,50.781,-1.953,26.367,10.254,0
1492402147.165,58.594,39.062,0.000,23.438,-43.457,0
1492402147.169,44.922,40.039,7.812,8.301,5.371,0
1492402147.173,21.484,41.504,11.230,12.695,70.312,0
1492402147.177,23.926,31.250,5.371,18.066,61.523,0
1492402147.181,33.203,27.832,-0.977,12.695,23.438,0
1492402147.185,37.109,36.621,-3.906,-3.906,2.930,0
1492402147.188,36.621,33.203,-3.418,-7.324,31.738,0
1492402147.192,39.062,31.250,3.906,4.395,18.555,0
1492402147.196,25.391,32.227,1.953,13.184,-17.090,0
1492402147.200,3.906,36.621,8.301,16.113,-0.488,0
1492402147.204,20.996,31.738,18.066,17.578,16.113,0
1492402147.208,18.555,41.992,13.184,19.043,11.230,0
1492402147.212,37.109,49.805,10.742,18.066,-12.207,0
1492402147.216,53.223,34.180,15.625,28.809,-20.996,0
1492402147.220,22.461,38.086,26.855,14.648,13.672,0
1492402147.224,21.973,40.527,25.391,14.648,19.531,0
1492402147.228,40.039,45.410,13.672,29.297,13.672,0
1492402147.231,36.621,40.527,19.043,26.855,12.207,0
1492402147.235,46.875,37.598,20.508,29.297,14.648,0
1492402147.239,57.617,45.410,9.766,30.762,23.926,0
1492402147.243,41.016,40.527,18.555,22.461,-1.465,0
1492402147.247,38.574,35.645,27.832,17.578,19.531,0
1492402147.251,44.922,37.109,26.855,25.391,26.855,0
1492402147.255,29.297,42.480,24.902,34.180,20.020,0
1492402147.259,29.297,41.992,30.762,28.320,47.852,0
1492402147.263,25.879,39.551,28.809,17.578,25.391,0
1492402147.267,17.090,34.668,18.066,20.508,-21.973,0
1492402147.271,5.859,46.387,18.066,9.766,11.719,0
1492402147.274,5.859,43.457,24.902,2.441,75.684,0
1492402147.278,20.508,27.832,24.414,7.812,56.152,0
1492402147.282,14.160,36.621,14.648,14.160,25.391,0
1492402147.286,15.137,33.691,17.578,14.648,3.906,0
1492402147.290,17.090,40.039,20.020,7.324,42.480,0
1492402147.294,18.555,45.410,15.137,4.395,70.801,0
1492402147.298,20.020,36.133,20.508,3.906,30.273,0
1492402147.302,24.902,34.668,22.949,4.883,22.949,0
1492402147.306,15.625,31.738,20.508,9.766,41.504,0
1492402147.310,8.301,33.691,26.367,2.930,55.176,0
1492402147.313,21.973,33.691,17.578,3.418,59.570,0
1492402147.317,17.090,35.156,11.719,15.137,55.664,0
1492402147.321,4.883,37.598,2.930,4.395,48.828,0
1492402147.325,24.902,41.016,-37.598,6.836,41.504,0
1492402147.329,51.270,40.039,-41.992,1.953,-8.301,0
1492402147.333,49.316,36.133,-30.762,-3.418,-19.043,0
1492402147.337,17.578,38.574,-25.879,18.555,40.039,4
1492402147.341,23.926,42.969,-20.508,19.043,65.430,0
1492402147.345,43.457,43.945,-13.184,10.254,58.594,0
1492402147.349,48.340,38.086,-6.348,12.695,44.434,0
1492402147.353,31.738,36.133,-3.418,10.742,33.691,0
1492402147.356,13.184,29.297,17.090,6.348,55.664,0
1492402147.360,24.414,21.484,4.395,7.812,57.617,0
1492402147.364,32.715,21.973,-6.836,8.301,22.949,0
1492402147.368,37.598,26.367,0.977,0.000,24.902,0
1492402147.372,45.898,30.273,0.977,-3.906,36.133,0
1492402147.376,48.828,23.926,9.277,-0.488,20.508,0
1492402147.380,14.160,25.391,8.301,11.230,-15.137,0
1492402147.384,6.836,31.250,11.719,10.742,2.441,0
1492402147.388,27.344,35.645,18.555,0.488,29.785,0
1492402147.392,10.254,26.367,18.555,-0.977,42.480,0
1492402147.396,12.207,31.738,22.461,-2.930,54.688,0
1492402147.399,25.391,36.621,25.391,8.789,34.180,0
1492402147.403,34.668,15.137,20.996,19.531,36.133,0
1492402147.407,46.875,16.113,20.020,15.625,61.035,0
1492402147.411,33.203,31.738,19.531,-1.465,60.059,0
1492402147.415,25.879,32.227,21.484,-1.953,44.434,0
1492402147.419,22.949,17.578,24.414,16.113,23.926,0
1492402147.423,2.930,24.414,20.996,9.277,7.324,0
1492402147.427,7.812,28.809,21.484,0.000,21.484,0
1492402147.431,20.020,27.832,23.438,15.137,15.137,0
1492402147.435,31.250,28.320,31.250,8.301,24.902,0
1492402147.438,64.941,37.598,26.855,-6.836,33.691,0
1492402147.442,66.895,43.945,16.113,2.441,23.438,0
1492402147.446,22.461,46.387,30.273,2.930,13.672,0
1492402147.450,18.555,45.898,29.785,5.859,7.812,0
1492402147.454,38.086,35.645,23.438,7.812,48.828,0
1492402147.458,42.480,34.180,28.320,10.254,72.266,0
1492402147.462,38.086,37.598,31.250,1.953,34.668,0
1492402147.466,26.855,34.668,29.785,11.719,-9.766,0
1492402147.470,23.438,30.762,23.926,21.973,0.000,0
1492402147.474,20.996,26.367,17.090,2.441,22.949,0
1492402147.478,21.973,19.043,15.625,2.930,12.207,0
1492402147.481,21.973,18.066,20.996,7.812,-10.254,0
1492402147.485,27.832,23.926,0.000,2.930,-6.836,0
1492402147.489,33.691,21.484,-1.465,-15.137,46.387,0
1492402147.493,19.043,18.555,6.348,-9.766,32.227,0
1492402147.497,15.137,18.555,1.953,0.977,-34.668,0
1492402147.501,-1.953,3.906,7.812,-4.395,-5.859,0
1492402147.505,-9.766,8.301,12.207,4.883,58.105,0
1492402147.509,15.625,20.508,10.254,11.719,32.715,0
1492402147.513,9.766,17.578,11.719,6.836,13.184,0
1492402147.517,0.977,15.137,15.137,6.348,2.441,0
1492402147.521,-1.953,15.137,14.160,8.789,-5.371,0
1492402147.524,15.137,21.973,12.207,-5.859,1.465,0
1492402147.528,28.320,24.902,2.930,-16.602,-9.277,0
1492402147.532,16.113,23.926,8.301,-10.742,30.273,0
1492402147.536,2.930,14.648,20.508,-4.883,5.371,0
1492402147.540,-5.859,15.625,15.137,-6.836,-20.020,0
1492402147.544,-3.906,41.992,10.742,-11.719,25.391,0
1492402147.548,20.508,35.645,19.043,-8.789,28.320,0
1492402147.552,15.137,16.113,18.555,-11.719,6.348,0
1492402147.556,-13.672,24.414,2.441,-14.160,30.273,0
1492402147.560,-29.297,20.020,7.324,8.301,24.902,0
1492402147.563,-21.484,17.090,12.695,20.996,3.418,0
1492402147.567,-5.371,28.809,15.625,12.695,-12.207,0
1492402147.571,-18.066,28.320,15.625,10.254,-27.832,0
1492402147.575,-2.441,19.043,14.648,3.906,6.348,0
1492402147.579,3.906,21.484,20.020,-3.418,22.461,0
1492402147.583,-16.113,18.066,20.508,14.648,-11.230,0
1492402147.587,-17.578,8.789,20.508,28.809,-16.113,0
1492402147.591,-8.789,7.812,18.555,21.484,34.668,0
1492402147.595,7.812,20.020,16.602,16.113,51.758,0
1492402147.599,4.395,32.715,20.020,17.578,25.391,0
1492402147.603,-3.906,28.809,18.555,19.531,26.367,0
1492402147.606,6.836,26.855,24.902,13.184,47.852,0
1492402147.610,16.602,17.090,27.832,13.672,31.250,0
1492402147.614,24.414,7.324,26.367,21.484,-11.719,0
1492402147.618,19.531,20.996,23.926,10.742,-8.789,0
1492402147.622,3.418,31.250,17.090,3.418,24.414,0
1492402147.626,16.602,20.996,20.020,12.695,9.766,0
1492402147.630,41.992,17.090,14.648,6.836,-10.742,0
1492402147.634,50.781,21.973,19.531,4.395,-0.488,0
1492402147.638,37.598,26.855,24.902,9.766,29.297,0
1492402147.642,4.883,22.949,20.996,14.648,24.414,0
1492402147.646,4.883,20.996,23.438,19.531,11.719,0
1492402147.649,6.348,12.207,29.297,11.719,24.902,0
1492402147.653,4.395,12.207,17.578,0.488,29.297,0
1492402147.657,13.184,27.344,8.301,-5.859,17.578,0
1492402147.661,18.066,26.367,16.113,2.441,-11.719,0
1492402147.665,15.625,20.020,23.438,7.324,4.883,0
1492402147.669,9.766,20.020,23.926,-2.930,53.711,0
1492402147.673,18.555,22.949,11.230,-4.883,42.969,0
1492402147.677,7.812,26.367,2.441,-3.906,19.531,0
1492402147.681,-2.930,27.344,7.812,-7.324,11.230,0
1492402147.685,-1.465,48.828,5.859,-11.230,20.508,0
1492402147.688,1.953,40.039,7.324,-3.418,46.875,0
1492402147.692,3.906,19.531,8.789,8.301,52.734,0
1492402147.696,13.672,30.273,7.812,-2.930,47.363,0
1492402147.700,6.348,37.598,15.137,-4.395,15.625,0
1492402147.704,-3.906,41.016,12.207,1.465,-5.371,0
1492402147.708,13.184,31.738,10.742,1.465,3.906,0
1492402147.712,25.879,38.574,6.348,1.953,25.879,0
1492402147.716,27.344,49.805,-3.418,-0.977,-6.348,0
1492402147.720,28.809,43.945,3.906,-1.953,-4.395,0
1492402147.724,31.738,33.691,8.789,6.348,50.781,0
1492402147.728,27.344,30.273,8.301,16.602,45.898,0
1492402147.731,22.461,30.273,12.695,13.672,24.414,0
1492402147.735,4.883,37.598,17.578,8.789,24.902,0
1492402147.739,8.789,45.898,1.465,15.137,44.434,0
1492402147.743,17.090,36.621,1.465,4.395,49.805,0
1492402147.747,22.949,41.504,10.254,8.301,9.277,0
1492402147.751,32.227,44.922,17.578,1.465,-19.043,0
1492402147.755,39.062,40.527,21.484,7.812,19.043,0
1492402147.759,45.410,43.945,4.883,35.645,47.852,0
1492402147.763,42.969,36.133,4.883,27.344,6.348,0
1492402147.767,42.480,34.668,10.742,20.508,-8.301,0
1492402147.771,27.344,44.922,12.207,8.789,29.297,0
1492402147.774,30.762,45.898,8.789,3.418,55.664,0
1492402147.778,46.875,46.387,6.836,0.000,21.484,0
1492402147.782,30.762,45.410,11.719,0.977,20.020,0
1492402147.786,26.367,33.691,8.301,4.883,42.480,0
1492402147.790,20.020,36.621,10.254,0.000,58.105,0
1492402147.794,15.137,43.945,17.578,-2.441,40.039,0
1492402147.798,23.438,43.457,15.137,-4.395,-18.555,0
1492402147.802,39.062,40.527,12.207,-4.883,-17.578,0
1492402147.806,25.879,39.551,10.254,-2.930,10.742,0
1492402147.810,-5.859,40.527,14.160,21.973,-3.906,0
1492402147.813,-10.254,39.062,16.113,16.602,-34.180,0
1492402147.817,-1.953,35.645,17.090,2.930,-18.066,0
1492402147.821,22.949,29.297,20.996,13.672,20.508,0
1492402147.825,37.109,26.855,23.926,5.371,14.648,0
1492402147.829,33.691,34.668,16.113,1.465,-18.066,0
1492402147.833,26.367,33.203,10.254,4.395,-7.812,0
1492402147.837,0.977,26.855,15.137,14.648,14.160,5
1492402147.841,-21.973,29.785,16.602,13.184,23.438,0
1492402147.845,-1.953,34.180,18.555,7.324,36.133,0
1492402147.849,23.438,39.062,13.184,17.090,39.062,0
1492402147.853,13.672,41.992,9.277,7.812,36.621,0
1492402147.856,-3.418,37.109,21.973,-1.465,5.859,0
1492402147.860,-12.207,44.434,14.160,4.883,11.719,0
1492402147.864,-4.883,43.945,-5.371,4.395,50.293,0
1492402147.868,11.719,20.508,-1.465,0.488,3.906,0
1492402147.872,11.719,32.227,7.324,-1.953,0.977,0
1492402147.876,15.625,32.715,12.207,1.465,12.207,0
1492402147.880,24.902,25.391,15.625,1.953,0.000,0
1492402147.884,24.902,41.504,19.043,14.160,15.625,0
1492402147.888,23.926,44.434,27.832,19.531,16.602,0
1492402147.892,14.160,41.016,27.344,12.695,14.648,0
1492402147.896,20.508,51.270,31.250,0.977,13.184,0
1492402147.899,20.996,54.199,34.180,1.953,-6.348,0
1492402147.903,10.254,53.223,16.113,17.578,-14.160,0
1492402147.907,9.277,52.734,23.438,26.855,47.852,0
1492402147.911,16.602,45.898,28.320,21.973,56.641,0
1492402147.915,31.250,46.875,21.484,10.254,32.715,0
1492402147.919,22.949,43.945,23.926,16.602,21.484,0
1492402147.923,12.207,44.922,25.391,21.484,0.488,0
1492402147.927,23.926,45.410,22.461,15.625,11.719,0
1492402147.931,21.973,42.969,18.066,13.184,18.555,0
1492402147.935,10.742,47.363,19.043,10.742,-14.160,0
1492402147.938,27.832,51.758,15.625,8.789,0.488,0
1492402147.942,41.504,53.223,16.602,0.000,25.879,0
1492402147.946,27.832,48.340,18.555,7.324,-15.137,0
1492402147.950,21.973,41.504,14.160,23.438,4.883,0
1492402147.954,17.090,39.062,16.113,20.020,32.227,0
1492402147.958,22.461,42.969,17.578,20.996,31.738,0
1492402147.962,15.137,44.434,19.043,17.578,37.598,0
1492402147.966,18.555,45.410,18.555,8.789,8.301,0
1492402147.970,58.105,44.434,18.555,0.488,13.672,0
1492402147.974,33.203,41.016,18.066,7.324,22.461,0
1492402147.978,-23.438,48.340,22.949,10.742,15.625,0
1492402147.981,-11.230,40.039,27.832,10.254,20.508,0
1492402147.985,22.949,43.457,15.137,12.207,19.043,0
1492402147.989,34.668,47.852,16.113,12.207,2.441,0
1492402147.993,33.203,30.762,18.066,18.555,-6.836,0
1492402147.997,23.926,37.109,11.719,19.531,39.551,0
1492402148.001,23.926,41.016,16.113,15.137,38.086,0
1492402148.005,34.668,38.086,17.090,7.324,25.391,0
1492402148.009,45.898,38.086,25.879,10.254,20.508,0
1492402148.013,38.574,46.875,30.273,18.555,22.461,0
1492402148.017,38.086,46.387,23.438,16.113,21.484,0
1492402148.021,36.621,45.898,20.996,-1.465,8.789,0
1492402148.024,15.625,41.992,21.484,-2.441,25.879,0
1492402148.028,12.207,24.414,25.391,15.625,20.508,0
1492402148.032,14.648,31.250,23.438,11.719,3.906,0
1492402148.036,19.531,46.387,27.344,10.742,12.207,0
1492402148.040,24.902,50.781,32.227,8.789,38.086,0
1492402148.044,16.602,47.363,23.438,6.836,38.086,0
1492402148.048,18.066,35.156,22.949,13.184,18.066,0
1492402148.052,25.391,37.109,20.996,14.648,13.672,0
1492402148.056,19.043,39.551,11.230,12.207,35.645,0
1492402148.060,12.695,35.645,17.578,13.672,48.340,0
1492402148.063,20.996,36.621,21.973,14.648,33.691,0
1492402148.067,27.344,34.668,24.414,14.648,20.020,0
1492402148.071,34.668,33.691,23.438,13.184,27.832,0
1492402148.075,22.949,40.527,19.531,9.277,42.480,0
1492402148.079,-5.859,30.762,21.973,0.977,15.137,0
1492402148.083,8.301,26.855,21.484,-6.836,-24.414,0
1492402148.087,39.551,38.574,15.137,3.418,13.184,0
1492402148.091,31.250,41.992,19.043,2.930,31.250,0
1492402148.095,12.695,43.457,16.602,-0.488,10.254,0
1492402148.099,-12.207,38.086,13.184,-0.977,10.254,0
1492402148.103,-11.719,36.133,12.207,-0.488,32.227,0
1492402148.106,20.996,37.109,18.066,7.812,24.414,0
1492402148.110,26.855,41.016,26.855,19.043,14.648,0
1492402148.114,28.320,41.016,22.949,23.926,30.273,0
1492402148.118,40.527,42.969,20.508,16.113,27.344,0
1492402148.122,42.969,45.410,25.879,11.719,27.832,0
1492402148.126,41.016,39.062,25.879,19.043,23.926,0
1492402148.130,36.621,39.551,21.973,25.391,-4.883,0
1492402148.134,35.645,43.945,22.461,23.926,-2.441,0
1492402148.138,49.316,47.363,25.391,18.555,7.812,0
1492402148.142,62.988,42.969,16.113,4.883,36.133,0
1492402148.146,42.969,48.340,21.973,-8.301,45.410,0
1492402148.149,38.086,56.641,23.926,1.465,10.742,0
1492402148.153,40.527,42.969,19.531,15.137,-2.930,0
1492402148.157,52.734,47.363,17.090,8.789,31.738,0
1492402148.161,66.406,52.246,13.184,3.906,34.668,0
1492402148.165,55.176,49.316,16.602,1.953,29.785,0
1492402148.169,52.734,45.410,22.949,-0.977,16.113,0
1492402148.173,35.156,43.945,18.066,6.348,-3.906,0
1492402148.177,21.973,49.805,8.301,23.438,18.555,0
1492402148.181,29.297,51.270,14.160,23.926,39.062,0
1492402148.185,31.738,50.293,15.625,22.949,11.719,0
1492402148.188,14.648,44.434,15.137,27.344,22.461,0
1492402148.192,10.254,36.133,19.531,26.855,70.801,0
1492402148.196,19.531,35.156,19.531,17.578,30.762,0
1492402148.200,17.578,41.992,20.020,19.531,-9.766,0
1492402148.204,-6.836,40.527,23.926,29.297,13.672,0
1492402148.208,-16.602,34.668,20.020,28.320,45.898,0
1492402148.212,2.930,39.551,28.320,21.484,9.277,0
1492402148.216,34.668,44.922,32.715,12.695,-28.320,0
1492402148.220,31.250,55.664,25.879,18.555,4.395,0
1492402148.224,15.625,55.176,26.855,20.020,53.223,0
1492402148.228,20.996,45.410,22.949,16.113,47.363,0
1492402148.231,23.438,50.293,20.996,17.090,23.926,0
1492402148.235,17.578,53.223,24.414,20.508,25.879,0
1492402148.239,30.762,56.152,26.855,21.484,30.762,0
1492402148.243,40.527,72.266,18.066,12.207,57.129,0
1492402148.247,21.484,77.148,14.648,6.348,39.551,0
1492402148.251,28.809,52.246,21.484,6.836,9.277,0
1492402148.255,40.039,50.781,27.344,0.488,35.645,0
1492402148.259,37.109,52.246,19.043,10.742,45.898,0
1492402148.263,27.832,44.922,7.324,15.137,13.184,0
1492402148.267,14.648,51.270,14.648,6.836,-10.742,0
1492402148.271,13.184,50.781,14.648,7.324,-3.418,0
1492402148.274,17.578,46.387,17.578,-1.465,17.090,0
1492402148.278,11.230,48.828,21.973,-8.301,20.020,0
1492402148.282,27.832,51.270,11.719,7.812,19.043,0
1492402148.286,34.668,51.758,11.230,8.301,12.695,0
1492402148.290,12.695,45.410,13.184,-2.930,12.695,0
1492402148.294,20.508,47.363,9.766,-17.090,36.621,0
1492402148.298,40.527,40.527,14.160,-14.160,31.250,0
1492402148.302,12.207,37.598,20.996,5.859,17.578,0
1492402148.306,5.859,43.457,13.184,2.930,32.715,0
1492402148.310,19.043,33.203,23.438,-9.766,14.160,0
1492402148.313,28.320,34.180,23.438,-1.465,3.418,0
1492402148.317,15.625,37.109,9.277,13.672,0.977,0
1492402148.321,4.883,31.250,17.578,13.672,1.465,0
1492402148.325,1.953,37.109,18.555,6.348,16.602,0
1492402148.329,7.812,38.086,17.578,6.836,38.574,0
1492402148.333,10.742,31.738,19.531,13.184,18.066,0
1492402148.337,13.184,35.645,15.137,9.277,-11.719,0
1492402148.341,19.043,41.992,16.113,3.906,33.691,0
1492402148.345,29.785,47.852,15.137,5.371,27.832,0
1492402148.349,18.555,50.293,15.625,10.254,-16.602,0
1492402148.353,6.348,44.434,22.461,4.395,10.254,0
1492402148.356,35.645,45.410,22.461,7.812,16.113,0
1492402148.360,30.273,47.363,20.508,4.395,36.621,0
1492402148.364,4.883,44.922,19.531,-0.488,28.809,0
1492402148.368,4.883,45.410,21.973,10.742,-12.207,0
1492402148.372,18.066,57.129,17.578,3.418,8.789,0
1492402148.376,13.672,56.641,19.043,9.277,35.156,0
1492402148.380,21.484,30.762,29.297,20.020,4.395,0
1492402148.384,21.484,20.508,27.832,13.672,-16.602,0
1492402148.388,13.672,44.922,12.695,0.488,16.113,0
1492402148.392,38.574,43.945,20.508,7.324,30.762,0
1492402148.396,43.457,33.203,22.949,14.160,-2.930,0
1492402148.399,21.973,36.133,24.414,14.160,-13.672,0
1492402148.403,22.949,31.738,23.438,22.949,12.207,0
1492402148.407,34.180,28.320,4.883,8.301,32.227,0
1492402148.411,38.086,31.250,15.137,1.953,28.809,0
1492402148.415,20.996,39.551,19.531,5.371,22.949,0
1492402148.419,34.180,40.527,19.531,7.324,34.180,0
1492402148.423,45.898,39.551,21.973,4.395,14.160,0
1492402148.427,30.762,42.480,20.020,2.930,8.789,0
1492402148.431,19.043,40.039,14.648,20.508,19.043,0
1492402148.435,3.418,34.180,15.625,2.441,-7.324,0
1492402148.438,6.836,36.133,10.254,-12.207,6.836,0
1492402148.442,2.930,30.273,10.742,-9.277,39.062,0
1492402148.446,-5.371,22.949,14.160,-1.465,20.996,0
1492402148.450,-4.395,21.484,17.090,1.953,-22.949,0
1492402148.454,1.953,20.508,11.719,-8.301,-20.020,0
1492402148.458,8.789,24.414,14.648,-5.371,4.395,0
1492402148.462,4.883,27.344,18.066,3.418,18.555,0
1492402148.466,0.488,33.203,6.348,9.277,23.926,0
1492402148.470,0.000,24.902,5.859,1.953,4.883,0
1492402148.474,-2.930,17.578,20.996,0.000,-5.371,0
1492402148.478,-17.578,28.809,18.066,-0.977,9.277,0
1492402148.481,-16.602,35.645,11.230,-0.977,4.883,0
1492402148.485,-4.883,28.809,11.719,1.465,-1.465,0
1492402148.489,-20.996,15.137,10.742,-8.789,11.719,0
1492402148.493,-2.930,15.625,9.766,-1.465,25.391,0
1492402148.497,19.531,19.531,8.301,-0.977,3.418,0
1492402148.501,-0.977,16.602,10.742,-6.836,-12.207,0
1492402148.505,-4.883,26.855,2.441,4.395,5.371,0
1492402148.509,9.277,24.414,21.973,8.301,31.738,0
1492402148.513,27.832,26.367,20.996,4.395,29.297,0
1492402148.517,34.668,37.598,2.930,2.441,-0.488,0
1492402148.521,24.902,30.762,7.324,5.859,10.254,0
1492402148.524,9.277,31.738,11.719,12.695,20.508,0
1492402148.528,3.906,35.156,23.926,-1.953,20.996,0
1492402148.532,19.043,26.855,24.414,-9.277,0.977,0
1492402148.536,37.598,24.414,12.207,9.277,1.465,0
1492402148.540,49.805,30.762,10.254,15.137,38.086,0
1492402148.544,49.316,26.855,15.625,5.371,11.230,0
1492402148.548,29.297,28.809,20.996,-9.766,0.000,0
1492402148.552,22.949,30.273,9.766,8.789,-2.441,0
1492402148.556,18.555,30.273,9.277,17.578,17.090,0
1492402148.560,19.043,28.809,19.531,6.836,18.555,0
1492402148.563,11.719,38.086,12.207,-4.395,-6.348,0
1492402148.567,11.230,36.621,14.648,4.395,1.953,0
1492402148.571,24.414,25.391,19.043,11.719,21.484,0
1492402148.575,18.555,42.480,12.695,1.953,40.039,0
1492402148.579,19.531,42.969,10.742,14.648,12.207,0
1492402148.583,23.438,29.297,19.043,21.484,14.648,0
1492402148.587,16.113,30.273,21.484,20.020,18.066,0
1492402148.591,8.301,30.273,20.020,15.625,20.508,0
1492402148.595,14.160,38.574,16.602,6.836,20.996,0
1492402148.599,22.461,39.551,17.090,8.301,20.508,0
1492402148.603,26.367,30.273,19.531,13.184,23.926,0
1492402148.606,30.273,35.156,20.508,1.465,-2.441,0
1492402148.610,29.785,42.969,23.926,2.930,15.137,0
1492402148.614,8.301,46.875,23.438,9.277,22.461,0
1492402148.618,2.441,40.527,20.996,17.090,14.160,0
1492402148.622,9.766,42.480,16.602,21.484,20.508,0
1492402148.626,7.812,48.340,21.484,20.508,36.133,0
1492402148.630,22.949,40.527,28.320,10.254,35.156,0
1492402148.634,34.668,38.086,21.484,0.000,-3.906,0
1492402148.638,19.043,37.598,20.508,-4.395,-9.277,0
1492402148.642,3.418,38.086,22.461,2.441,20.996,0
1492402148.646,14.648,44.434,20.996,16.602,55.664,0
1492402148.649,32.227,51.758,14.160,18.066,20.508,0
1492402148.653,37.598,51.758,14.648,19.043,-13.672,0
1492402148.657,27.344,49.316,17.090,19.531,60.059,0
1492402148.661,17.090,54.199,18.555,10.742,67.871,0
1492402148.665,22.949,43.457,29.297,6.348,19.043,0
1492402148.669,32.227,33.203,27.344,14.160,15.625,0
1492402148.673,40.039,35.645,20.508,8.789,18.066,0
1492402148.677,36.133,50.781,19.043,1.953,12.207,0
1492402148.681,24.414,53.711,13.672,13.672,13.672,0
1492402148.685,7.324,54.688,18.066,13.672,27.344,0
1492402148.688,8.301,72.266,21.484,12.207,54.688,0
1492402148.692,19.043,52.246,26.367,25.391,53.223,0
1492402148.696,22.461,42.480,29.297,35.156,25.391,0
1492402148.700,24.414,51.758,26.855,23.438,8.789,0
1492402148.704,32.715,56.152,30.273,18.555,3.906,0
1492402148.708,39.551,58.594,31.250,30.273,2.441,0
1492402148.712,40.527,63.477,30.273,19.531,4.883,0
1492402148.716,24.414,64.941,30.762,11.230,28.809,0
1492402148.720,24.902,47.852,32.227,10.742,52.246,0
1492402148.724,30.762,52.734,33.691,13.672,26.855,0
1492402148.728,24.902,62.500,35.156,37.109,4.395,0
1492402148.731,31.738,53.711,42.480,39.551,11.719,0
1492402148.735,33.203,56.152,38.086,36.133,19.531,0
1492402148.739,23.926,62.988,32.715,27.344,31.738,0
1492402148.743,53.711,55.664,41.016,20.020,35.156,0
1492402148.747,46.387,47.363,41.992,34.180,32.715,0
1492402148.751,28.320,46.875,34.668,41.016,14.160,0
1492402148.755,41.992,37.109,34.668,26.367,-12.207,0
1492402148.759,28.320,41.992,32.715,20.996,24.414,0
1492402148.763,33.203,57.129,27.832,22.461,39.551,0
1492402148.767,38.574,42.969,29.785,16.113,21.484,0
1492402148.771,37.109,30.762,24.902,10.254,24.414,0
1492402148.774,30.762,44.434,12.207,4.395,63.477,0
1492402148.778,35.156,39.062,17.578,-5.859,67.383,0
1492402148.782,41.016,33.691,14.648,-3.906,8.301,0
1492402148.786,13.672,38.574,5.859,-8.789,3.906,0
1492402148.790,5.371,41.504,9.766,-9.766,41.992,0
1492402148.794,21.484,35.645,9.277,-5.859,35.156,0
1492402148.798,4.395,23.926,10.742,-9.277,30.762,0
1492402148.802,-5.371,24.902,8.789,2.441,22.949,0
1492402148.806,12.695,23.438,1.465,4.883,35.645,0
1492402148.810,7.324,25.879,-0.488,-7.812,47.363,0
1492402148.813,-11.230,29.297,4.883,8.789,4.883,0
1492402148.817,-6.348,29.297,10.742,25.879,-10.742,0
1492402148.821,7.324,30.762,5.859,12.695,39.551,0
1492402148.825,6.836,32.715,4.395,9.277,69.336,0
1492402148.829,21.973,30.273,8.301,13.184,19.043,0
1492402148.833,2.441,28.809,12.207,16.113,-9.766,0
1492402148.837,-20.996,27.832,12.695,11.230,45.898,0
1492402148.841,3.418,21.484,19.531,9.766,62.988,0
1492402148.845,16.113,37.598,12.207,7.812,50.293,0
1492402148.849,11.719,45.898,3.418,1.953,26.855,0
1492402148.853,20.020,29.297,7.324,6.836,24.902,0
1492402148.856,15.625,29.297,16.113,0.977,51.758,0
1492402148.860,11.230,25.391,10.254,-5.859,37.109,0
1492402148.864,17.090,21.484,-0.977,-7.324,16.602,0
1492402148.868,17.578,21.484,-0.977,-14.648,7.324,0
1492402148.872,0.977,21.973,-2.930,-18.066,27.344,0
1492402148.876,-7.324,20.020,0.977,-12.207,37.598,0
1492402148.880,-1.953,20.508,1.953,-10.742,8.301,0
1492402148.884,-9.277,20.508,5.859,-9.766,4.395,0
1492402148.888,-7.324,15.137,4.883,-7.324,20.508,0
1492402148.892,15.137,12.695,-0.977,-9.277,45.898,0
1492402148.896,25.879,14.160,-0.488,-9.766,71.777,0
1492402148.899,-4.883,21.973,0.488,-14.160,70.801,0
1492402148.903,2.930,27.344,0.977,-1.953,28.320,0
1492402148.907,20.020,21.484,10.742,5.371,13.672,0
1492402148.911,16.113,20.508,10.742,2.930,40.039,0
1492402148.915,12.695,16.113,14.160,7.324,38.086,0
1492402148.919,18.066,16.602,16.602,7.812,0.488,0
1492402148.923,23.926,20.996,12.207,4.395,10.742,0
1492402148.927,4.395,10.742,13.672,-2.441,77.148,0
1492402148.931,6.348,7.324,8.301,2.441,56.641,0
1492402148.935,8.301,12.207,1.953,7.324,19.531,0
1492402148.938,-0.488,13.184,-0.488,7.324,22.949,0
1492402148.942,2.930,9.277,10.254,8.301,34.180,0
1492402148.946,6.348,11.230,17.090,13.184,26.367,0
1492402148.950,21.973,20.508,5.371,16.602,-4.883,0
1492402148.954,24.902,20.508,6.836,4.883,-10.742,0
1492402148.958,20.508,10.742,8.789,-0.488,35.645,0
1492402148.962,33.203,15.625,-4.395,10.742,52.246,0
1492402148.966,33.203,19.043,14.160,3.906,10.254,0
1492402148.970,22.949,22.461,13.672,16.602,6.348,0
1492402148.974,11.719,17.578,-0.977,26.367,52.734,0
1492402148.978,14.648,17.090,1.465,15.625,31.738,0
1492402148.981,27.832,38.086,0.000,12.695,-16.602,0
1492402148.985,26.855,29.785,8.301,21.973,0.977,0
1492402148.989,13.184,25.879,6.836,31.738,22.949,0
1492402148.993,19.531,29.297,3.418,14.160,31.738,0
1492402148.997,32.227,25.391,7.812,8.301,-2.441,0
1492402149.001,33.691,27.344,11.719,15.137,-5.371,0
1492402149.005,9.766,21.484,14.648,15.137,45.410,0
1492402149.009,17.090,20.996,3.418,17.578,57.617,0
1492402149.013,35.156,27.832,2.930,23.438,21.973,0
1492402149.017,29.785,35.645,7.812,26.367,2.441,0
1492402149.021,38.574,41.016,7.324,17.090,12.207,0
1492402149.024,26.367,41.504,5.859,23.926,5.371,0
1492402149.028,10.254,35.156,3.418,33.691,13.184,0
1492402149.032,16.113,33.691,3.906,19.043,32.715,0
1492402149.036,23.926,48.340,6.836,10.254,29.297,0
1492402149.040,18.555,45.410,15.137,16.602,24.902,0
1492402149.044,13.184,35.156,7.324,22.949,21.484,0
1492402149.048,12.207,32.227,0.977,23.438,32.227,0
1492402149.052,37.598,30.273,10.254,28.320,48.828,0
1492402149.056,46.387,36.133,15.625,28.320,18.555,0
1492402149.060,21.484,39.062,12.695,26.367,15.625,0
1492402149.063,8.301,34.668,13.672,28.809,19.531,0
1492402149.067,31.738,33.203,15.137,26.367,-3.418,0
1492402149.071,53.223,29.297,13.672,25.391,-26.367,0
1492402149.075,41.016,33.691,14.648,25.879,-6.836,0
1492402149.079,28.320,37.598,15.625,34.668,7.812,0
1492402149.083,30.762,32.227,8.789,36.621,-16.113,0
1492402149.087,27.344,24.902,13.672,33.203,-12.207,0
1492402149.091,23.926,27.344,8.789,34.180,22.949,0
1492402149.095,32.715,41.504,5.859,26.367,14.160,0
1492402149.099,49.316,41.016,13.672,27.344,-4.395,0
1492402149.103,53.711,36.133,4.395,27.344,15.137,0
1492402149.106,24.902,43.945,9.766,24.902,25.879,0
1492402149.110,2.441,36.133,17.578,33.691,50.781,0
1492402149.114,24.902,29.297,19.043,31.738,27.344,0
1492402149.118,28.320,39.551,14.160,34.668,-14.648,0
1492402149.122,9.766,57.617,22.949,16.602,15.137,0
1492402149.126,39.551,50.781,15.625,6.348,28.809,0
1492402149.130,50.781,33.691,0.488,21.484,20.020,0
1492402149.134,20.020,36.621,8.789,13.672,18.555,0
1492402149.138,15.137,36.133,11.230,8.301,32.227,0
1492402149.142,15.625,33.203,19.043,11.230,38.086,0
1492402149.146,8.789,26.367,19.531,11.230,41.504,0
1492402149.149,15.625,32.715,14.160,-0.977,36.133,0
1492402149.153,10.742,34.180,9.277,6.836,18.555,0
1492402149.157,2.441,29.785,10.742,17.578,23.438,0
1492402149.161,2.930,32.227,11.719,7.812,-0.488,0
1492402149.165,6.348,31.250,9.277,13.672,-9.766,0
1492402149.169,10.742,41.016,7.324,10.254,32.227,0
1492402149.173,9.766,43.945,-0.977,-1.953,34.668,0
1492402149.177,15.137,29.785,7.324,-5.859,13.184,0
1492402149.181,0.488,34.180,11.230,-2.441,13.672,0
1492402149.185,-22.461,37.109,1.465,1.465,5.371,0
1492402149.188,-14.160,29.297,5.859,-1.465,52.734,0
1492402149.192,6.836,35.156,10.254,2.441,88.867,0
1492402149.196,11.230,34.668,10.742,6.836,34.668,0
1492402149.200,18.555,26.367,6.836,0.977,22.949,0
1492402149.204,25.391,33.691,4.883,-1.465,8.301,0
1492402149.208,13.184,40.527,9.277,6.836,-15.625,0
1492402149.212,19.043,38.574,11.230,5.859,30.273,0
1492402149.216,23.926,32.227,10.254,7.324,15.625,0
1492402149.220,14.648,27.344,11.230,17.578,-13.672,0
1492402149.224,20.020,27.832,8.301,15.137,21.484,0
1492402149.228,27.832,34.668,7.812,1.465,62.012,0
1492402149.231,49.316,40.039,9.766,-4.395,40.039,0
1492402149.235,51.758,36.133,6.836,-5.371,6.836,0
1492402149.239,36.621,27.832,5.371,1.953,22.461,0
1492402149.243,32.715,28.809,15.625,-3.906,56.152,0
1492402149.247,33.203,31.738,23.926,-3.906,58.105,0
1492402149.251,11.719,30.762,17.090,7.324,13.184,0
1492402149.255,18.066,25.879,6.348,7.324,17.578,0
1492402149.259,32.715,21.973,4.883,-0.488,41.992,0
1492402149.263,20.508,29.297,6.836,-0.488,36.133,0
1492402149.267,27.832,39.062,12.207,-1.465,45.410,0
1492402149.271,19.043,38.574,9.766,-1.465,72.754,0
1492402149.274,18.066,41.992,2.930,-3.418,60.059,0
1492402149.278,37.598,44.922,7.324,-11.719,27.832,0
1492402149.282,12.695,46.387,5.371,-16.113,33.203,0
1492402149.286,-3.906,42.480,-0.977,-4.395,71.289,0
1492402149.290,-1.465,43.945,-4.395,0.488,72.754,0
1492402149.294,-13.184,44.434,13.184,-13.672,50.781,0
1492402149.298,-15.137,36.621,21.484,-0.977,20.996,0
1492402149.302,0.000,31.250,12.207,1.953,15.137,0
1492402149.306,9.277,30.762,9.277,-11.230,64.941,0
1492402149.310,10.254,33.203,10.742,-0.977,70.801,0
1492402149.313,4.883,38.574,12.695,-1.465,47.363,0
1492402149.317,7.324,41.504,14.648,-14.648,15.137,0
1492402149.321,8.301,43.945,14.648,-20.996,11.719,0
1492402149.325,-2.441,45.898,12.695,-21.484,36.621,0
1492402149.329,-26.367,41.016,13.184,-2.930,14.160,0
1492402149.333,-24.902,37.598,10.742,11.230,-7.812,0
1492402149.337,0.977,34.668,14.160,-8.789,24.902,0
1492402149.341,5.859,40.039,14.160,-11.230,-23.438,0
1492402149.345,-19.043,53.223,7.324,-4.883,-31.250,0
1492402149.349,-7.812,33.691,15.625,-3.418,6.348,0
1492402149.353,15.625,25.879,22.461,-3.906,3.418,0
1492402149.356,6.348,42.480,20.508,-3.906,22.461,0
1492402149.360,17.578,44.434,16.113,-4.883,17.578,0
1492402149.364,22.461,42.969,13.672,-4.395,27.344,0
1492402149.368,0.000,40.039,14.648,-10.254,-5.371,0
1492402149.372,6.348,46.875,1.465,-5.859,-13.184,0
1492402149.376,13.672,45.898,9.277,-0.488,39.062,0
1492402149.380,24.902,42.480,18.555,-4.883,5.859,0
1492402149.384,34.668,53.223,10.742,-1.465,-33.691,0
1492402149.388,21.484,56.152,6.348,-4.395,13.184,0
1492402149.392,16.602,51.758,8.301,2.441,21.484,0
1492402149.396,29.297,54.199,4.883,5.371,1.465,0
1492402149.399,44.434,53.223,9.766,-11.719,-26.855,0
1492402149.403,44.434,52.246,7.812,-22.461,-31.250,0
1492402149.407,56.152,54.688,0.000,-17.090,23.438,0
1492402149.411,53.711,58.105,-0.977,-11.230,29.297,0
1492402149.415,23.926,47.852,2.930,-2.441,-6.836,0
1492402149.419,15.625,34.180,11.719,1.465,7.812,0
1492402149.423,27.344,43.457,7.812,6.836,3.906,0
1492402149.427,28.320,45.898,9.277,3.418,8.301,0
1492402149.431,15.137,43.945,10.742,12.207,4.883,0
1492402149.435,-0.488,40.039,15.137,28.809,-8.301,0
1492402149.438,-11.719,37.109,12.695,19.043,22.949,0
1492402149.442,0.488,38.574,3.418,24.902,30.273,0
1492402149.446,5.859,35.645,6.348,31.250,15.137,0
1492402149.450,3.906,37.598,13.672,17.090,5.371,0
1492402149.454,17.578,35.645,11.719,10.742,24.902,0
1492402149.458,-14.160,31.250,14.160,8.301,14.160,0
1492402149.462,-24.902,27.344,13.184,12.207,-8.301,0
1492402149.466,2.930,41.016,-0.977,3.906,19.043,0
1492402149.470,6.836,51.758,3.418,-5.371,34.668,0
1492402149.474,24.902,22.949,13.184,-6.348,4.395,0
1492402149.478,18.066,21.484,14.648,-8.789,2.930,0
1492402149.481,0.977,30.762,7.812,0.000,6.348,0
1492402149.485,3.418,23.926,8.301,10.742,6.348,0
1492402149.489,16.602,34.668,9.766,4.883,19.531,0
1492402149.493,20.996,35.645,5.859,-12.207,5.371,0
1492402149.497,16.602,31.250,3.906,-6.836,-9.277,0
1492402149.501,15.625,36.133,0.488,-1.953,-18.555,0
1492402149.505,12.695,43.457,0.977,-16.113,1.465,0
1492402149.509,1.465,43.945,3.418,-12.695,34.180,0
1492402149.513,-5.859,39.062,9.277,-9.766,44.434,0
1492402149.517,-3.418,31.250,6.836,-7.812,31.250,0
1492402149.521,4.395,30.762,3.906,-10.742,3.418,0
1492402149.524,-2.930,31.738,21.484,-17.578,26.855,0
1492402149.528,10.254,36.133,7.812,-9.766,38.086,0
1492402149.532,28.809,36.621,-0.488,3.418,17.578,0
1492402149.536,11.719,28.809,11.230,1.465,-11.719,0
1492402149.540,3.418,27.344,11.230,-14.648,-3.906,0
1492402149.544,7.812,14.648,18.555,3.418,45.898,0
1492402149.548,13.672,17.090,18.066,10.742,26.367,0
1492402149.552,8.789,27.344,9.277,-10.742,10.742,0
1492402149.556,1.953,20.996,12.207,-15.137,35.645,0
1492402149.560,-6.348,23.438,17.090,-11.719,20.020,0
1492402149.563,-13.184,25.391,14.160,-4.395,33.203,0
1492402149.567,-9.766,16.113,7.812,-1.465,47.363,0
1492402149.571,6.348,18.066,10.254,-5.371,38.086,0
1492402149.575,9.766,23.438,20.508,-2.930,29.297,0
1492402149.579,0.488,16.113,21.973,-6.348,-18.555,0
1492402149.583,2.441,13.184,27.344,-11.230,-43.457,0
1492402149.587,-4.883,16.113,23.926,-4.883,5.859,0
1492402149.591,-11.230,8.789,14.648,-3.906,39.551,0
1492402149.595,-2.930,5.371,22.949,-17.578,35.156,0
1492402149.599,15.137,7.812,22.949,-15.137,8.789,0
1492402149.603,13.184,9.277,21.484,-20.020,13.672,0
1492402149.606,-5.371,12.695,16.602,-21.484,39.551,0
1492402149.610,-1.465,9.277,12.207,0.000,42.480,0
1492402149.614,5.371,2.441,18.555,-0.977,29.297,0
1492402149.618,14.160,11.230,15.137,-8.789,1.953,0
1492402149.622,9.277,14.648,15.137,-10.254,-6.348,0
1492402149.626,14.648,27.344,11.719,-18.066,2.930,0
1492402149.630,35.156,16.113,6.836,-8.789,2.441,0
1492402149.634,22.949,6.836,16.113,13.672,23.926,0
1492402149.638,15.137,25.879,17.578,18.555,23.926,0
1492402149.642,16.602,20.508,18.066,0.977,22.461,0
1492402149.646,24.414,18.555,24.414,-7.324,23.926,0
1492402149.649,33.691,24.902,18.066,3.906,31.250,0
1492402149.653,23.438,28.320,19.531,6.836,15.137,0
1492402149.657,23.438,20.996,29.297,-0.977,0.977,0
1492402149.661,49.805,32.715,36.133,2.441,33.203,0
1492402149.665,57.129,73.730,56.641,23.926,35.645,0
1492402149.669,52.734,73.730,70.801,43.945,11.719,0
1492402149.673,62.500,60.059,58.594,52.246,3.418,0
1492402149.677,69.336,62.500,56.641,46.875,39.551,0
1492402149.681,58.105,61.035,55.176,40.527,39.551,0
1492402149.685,51.270,59.570,51.758,34.668,22.461,0
1492402149.688,52.734,57.129,56.641,35.645,23.438,0
1492402149.692,49.316,53.711,47.852,32.227,22.461,0
1492402149.696,28.809,56.641,41.992,22.949,21.484,0
1492402149.700,17.090,51.270,46.387,26.855,-0.488,0
1492402149.704,7.324,44.922,45.898,23.926,8.789,0
1492402149.708,5.859,44.434,44.922,14.160,34.180,0
1492402149.712,15.137,42.480,42.969,24.902,12.695,0
1492402149.716,1.953,41.992,44.922,31.250,-8.789,0
1492402149.720,16.113,41.992,47.852,18.555,12.695,0
1492402149.724,34.180,51.758,31.250,16.602,34.180,0
1492402149.728,23.438,47.852,37.109,16.602,31.738,0
1492402149.731,1.465,43.945,37.598,24.902,-7.324,0
1492402149.735,4.395,42.480,21.973,20.996,10.254,0
1492402149.739,13.184,38.086,25.879,0.977,42.480,0
1492402149.743,11.230,44.922,27.832,4.883,29.297,0
1492402149.747,27.344,51.758,28.320,8.789,29.297,0
1492402149.751,23.438,41.992,30.273,-1.465,36.133,0
1492402149.755,0.488,49.316,18.555,-3.418,31.250,0
1492402149.759,11.230,54.199,16.113,1.465,41.992,0
1492402149.763,25.391,38.086,24.902,12.695,12.207,0
1492402149.767,17.090,50.781,13.672,0.000,-6.348,0
1492402149.771,5.371,54.199,11.719,-19.531,35.645,0
1492402149.774,-2.930,41.504,11.230,-12.207,16.602,0
1492402149.778,-4.883,50.781,17.090,-15.625,8.301,0
1492402149.782,9.766,53.223,23.438,-14.160,23.926,0
1492402149.786,30.273,47.852,12.695,6.348,0.977,0
1492402149.790,24.902,68.359,12.207,4.395,11.230,0
1492402149.794,28.809,63.965,17.578,-11.719,19.531,0
1492402149.798,30.273,40.527,16.602,-6.836,48.828,0
1492402149.802,10.254,40.527,14.160,-5.859,51.270,0
1492402149.806,-9.766,41.992,18.066,-10.254,34.668,0
1492402149.810,9.277,55.176,10.742,1.953,28.320,0
1492402149.813,31.250,56.641,9.766,10.254,2.441,0
1492402149.817,18.555,54.688,11.230,2.441,13.184,0
1492402149.821,16.602,50.781,10.742,-5.371,8.301,0
1492402149.825,11.230,45.898,7.812,-10.254,30.273,0
1492402149.829,-1.465,43.457,7.812,-1.953,68.359,0
1492402149.833,11.719,36.621,9.277,0.488,31.250,0
1492402149.837,13.184,41.504,6.836,-11.230,8.789,0
1492402149.841,-0.977,43.457,1.465,-25.391,18.066,0
1492402149.845,-19.531,40.039,3.418,-26.367,35.156,0
1492402149.849,-30.273,41.016,-0.488,-13.184,30.273,0
1492402149.853,-15.625,33.691,-0.977,-7.324,4.395,0
1492402149.856,-13.672,22.949,10.254,-15.625,22.949,0
1492402149.860,-20.020,28.320,9.277,-20.996,43.945,0
1492402149.864,3.418,34.180,0.000,-15.625,15.625,0
1492402149.868,23.926,27.832,3.906,-14.160,0.488,0
1492402149.872,17.090,37.598,10.254,-5.371,32.227,0
1492402149.876,8.301,41.504,15.137,-1.953,49.316,0
1492402149.880,7.812,37.598,12.207,-2.441,11.719,0
1492402149.884,7.324,36.621,9.766,-3.906,-31.738,0
1492402149.888,8.789,43.457,12.695,-10.742,1.465,0
1492402149.892,20.996,42.480,19.043,-1.953,48.340,0
1492402149.896,34.180,43.457,7.812,-7.324,28.809,0
1492402149.899,28.809,41.504,7.324,-19.531,16.113,0
1492402149.903,2.441,41.016,14.160,-21.973,20.508,0
1492402149.907,-9.277,48.340,9.277,-13.184,8.301,0
1492402149.911,1.465,45.898,18.555,-17.578,-10.742,0
1492402149.915,16.602,46.387,17.090,-16.602,7.812,0
1492402149.919,13.672,48.340,11.719,5.371,-2.441,0
1492402149.923,18.066,42.480,16.602,-8.301,10.742,0
1492402149.927,25.879,41.016,5.859,-24.414,42.969,0
1492402149.931,14.648,46.387,12.695,-14.648,32.227,0
1492402149.935,-1.953,51.270,21.973,-10.742,39.062,0
1492402149.938,5.859,42.480,10.742,-0.488,44.434,0
1492402149.942,21.484,55.176,1.465,-4.395,38.086,0
1492402149.946,28.320,65.918,8.301,-6.836,24.902,0
1492402149.950,37.109,45.898,13.672,4.395,-9.766,0
1492402149.954,38.574,45.410,5.371,-3.906,-15.625,0
1492402149.958,26.367,52.246,5.371,-6.836,10.742,0
1492402149.962,15.625,46.387,11.230,3.906,60.547,0
1492402149.966,28.809,44.922,9.277,-0.488,43.457,0
1492402149.970,36.133,52.246,0.000,-2.441,8.789,0
1492402149.974,35.645,48.828,2.441,9.277,34.180,0
1492402149.978,48.828,38.086,7.324,11.719,41.992,0
1492402149.981,45.410,37.598,5.371,6.836,-0.488,0
1492402149.985,18.066,44.922,7.812,5.371,-22.949,0
1492402149.989,15.137,51.758,3.418,15.625,17.090,0
1492402149.993,33.691,54.199,5.371,11.719,39.551,0
1492402149.997,27.344,43.457,13.672,1.465,-7.324,0
1492402150.001,6.836,39.062,5.371,7.324,-23.926,0
1492402150.005,4.395,46.387,1.465,5.859,8.301,0
1492402150.009,28.809,36.621,2.441,12.207,47.363,0
1492402150.013,51.758,29.785,9.766,14.160,23.926,0
1492402150.017,37.598,32.715,13.184,10.742,-8.789,0
1492402150.021,31.250,30.762,8.789,8.789,5.371,0
1492402150.024,60.547,36.133,-2.441,9.766,35.156,0
1492402150.028,64.941,34.668,2.930,12.207,53.223,0
1492402150.032,52.246,31.250,2.441,1.465,22.461,0
1492402150.036,54.688,38.086,-12.207,2.930,14.648,0
1492402150.040,38.574,36.133,-4.395,17.578,12.207,0
1492402150.044,43.457,36.133,2.930,21.973,14.648,0
1492402150.048,52.734,39.551,2.930,11.719,-0.977,0
1492402150.052,44.922,38.086,2.441,12.207,20.020,0
1492402150.056,53.223,33.691,9.277,28.320,34.668,0
1492402150.060,33.203,31.250,10.254,46.875,-1.465,0
1492402150.063,18.555,32.227,3.906,46.387,-14.648,0
1492402150.067,41.504,30.762,0.977,37.598,-9.277,0
1492402150.071,42.480,29.785,-3.418,39.062,6.836,0
1492402150.075,29.297,24.414,7.324,44.434,39.551,0
1492402150.079,34.668,17.578,12.695,50.781,37.109,0
1492402150.083,39.551,21.484,-0.977,56.152,29.297,0
1492402150.087,39.062,19.531,0.000,48.340,26.367,0
1492402150.091,56.641,31.250,-3.418,31.250,15.625,0
1492402150.095,66.895,32.715,0.488,41.016,19.531,0
1492402150.099,52.734,26.367,7.812,47.852,36.133,0
1492402150.103,30.762,30.273,3.418,40.039,19.043,0
1492402150.106,41.504,23.438,1.465,46.387,-1.953,0
1492402150.110,54.199,23.438,16.602,41.504,18.066,0
1492402150.114,32.715,25.879,20.020,37.598,7.812,0
1492402150.118,22.949,20.996,10.254,37.598,1.953,0
1492402150.122,23.926,22.461,11.719,40.527,29.785,0
1492402150.126,37.109,19.531,7.324,37.598,27.832,0
1492402150.130,50.293,6.836,5.859,24.902,14.160,0
1492402150.134,40.527,28.320,-4.395,13.672,13.184,0
1492402150.138,39.062,39.062,2.930,-0.488,9.766,0
1492402150.142,54.688,15.137,6.836,5.859,14.160,0
1492402150.146,61.523,17.090,-11.719,4.395,52.734,0
1492402150.149,39.062,20.996,-6.348,7.324,24.414,0
1492402150.153,18.066,15.625,2.930,23.438,-29.785,0
1492402150.157,13.184,8.789,3.418,12.207,24.902,0
1492402150.161,18.066,3.906,6.836,5.371,47.852,0
1492402150.165,13.184,8.789,3.906,0.488,17.578,0
1492402150.169,13.672,19.531,-3.418,-4.395,10.742,0
1492402150.173,21.973,18.066,1.953,12.207,26.855,0
1492402150.177,15.625,12.695,4.883,15.137,29.785,0
1492402150.181,9.277,4.395,13.184,3.906,22.949,0
1492402150.185,24.414,7.812,4.395,5.371,-0.977,0
1492402150.188,45.410,12.695,-0.488,12.695,-36.621,0
1492402150.192,35.156,15.137,8.301,17.578,5.371,0
1492402150.196,17.090,10.742,14.160,18.066,14.648,0
1492402150.200,24.414,4.395,23.926,15.137,5.371,0
1492402150.204,48.828,7.812,13.184,17.578,50.781,0
1492402150.208,54.688,7.324,5.859,14.160,48.340,0
1492402150.212,46.875,3.906,14.160,18.066,28.320,0
1492402150.216,37.598,13.184,12.695,22.949,29.785,0
1492402150.220,34.668,14.160,12.207,32.227,29.785,0
1492402150.224,42.969,6.348,13.672,28.320,20.996,0
1492402150.228,43.945,7.812,14.160,13.184,8.301,0
1492402150.231,38.086,8.789,13.672,23.438,13.672,0
1492402150.235,33.203,17.090,11.230,20.996,20.020,0
1492402150.239,32.227,11.230,17.578,30.762,39.551,0
1492402150.243,39.062,17.090,15.625,25.879,22.461,0
1492402150.247,44.922,17.090,14.648,4.395,34.668,0
1492402150.251,41.504,17.578,19.531,11.230,65.918,0
1492402150.255,33.691,21.973,15.137,17.090,39.062,0
1492402150.259,16.602,15.137,14.648,13.672,32.715,0
1492402150.263,22.461,18.555,11.230,8.301,41.504,0
1492402150.267,41.992,13.184,13.672,-3.418,2.441,0
1492402150.271,35.645,6.348,26.367,-7.812,-17.090,0
1492402150.274,27.344,3.906,17.090,7.324,24.902,0
1492402150.278,15.137,10.254,4.395,7.812,32.227,0
1492402150.282,9.766,14.160,7.324,5.371,10.742,0
1492402150.286,8.789,6.836,17.090,5.371,1.953,0
1492402150.290,7.812,5.859,27.344,2.930,32.227,0
1492402150.294,19.043,13.672,20.508,10.254,35.156,0
1492402150.298,35.645,14.160,12.207,1.465,-3.418,0
1492402150.302,20.508,10.742,12.695,3.418,-39.551,0
1492402150.306,1.465,7.324,13.184,20.508,25.391,0
1492402150.310,26.855,6.348,14.160,11.230,52.734,0
1492402150.313,24.414,23.438,12.207,1.953,27.344,0
1492402150.317,-5.859,31.738,15.137,11.719,44.434,0
1492402150.321,9.277,14.160,21.484,14.160,25.879,0
1492402150.325,24.414,3.906,22.949,7.812,17.578,0
1492402150.329,13.184,8.789,24.902,9.766,-1.953,0
1492402150.333,13.672,13.672,23.926,4.395,-27.344,0
1492402150.337,17.090,18.066,24.902,2.930,19.531,0
1492402150.341,21.484,23.438,20.996,13.184,45.410,0
1492402150.345,30.273,20.020,24.414,13.672,25.879,0
1492402150.349,23.926,27.832,27.344,12.695,11.719,0
1492402150.353,11.719,33.203,24.414,24.902,28.320,0
1492402150.356,16.113,33.691,20.020,16.602,25.879,0
1492402150.360,16.602,29.785,21.484,-2.930,28.809,0
1492402150.364,3.906,27.344,27.832,-2.441,22.461,0
1492402150.368,10.742,31.250,19.531,1.465,28.809,0
1492402150.372,16.602,22.949,14.160,1.953,51.758,0
1492402150.376,12.695,11.719,32.227,7.324,23.438,0
1492402150.380,3.418,10.742,35.645,6.348,3.906,0
1492402150.384,1.465,15.625,16.602,6.836,18.066,0
1492402150.388,11.230,21.973,15.137,10.254,22.949,0
1492402150.392,-10.742,22.461,29.785,-2.930,20.020,0
1492402150.396,-17.090,14.160,31.250,-12.207,20.020,0
1492402150.399,7.324,10.254,14.648,-3.418,33.691,0
1492402150.403,6.348,10.742,17.090,3.418,-7.324,0
1492402150.407,-10.254,8.789,20.508,3.418,8.301,0
1492402150.411,-13.672,9.766,22.461,1.465,71.289,0
1492402150.415,-0.488,14.160,24.902,2.441,26.855,0
1492402150.419,-5.371,16.113,23.926,9.766,-33.691,0
1492402150.423,-14.160,16.113,17.578,11.230,-2.930,0
1492402150.427,6.348,10.742,20.020,3.418,23.438,0
1492402150.431,6.836,19.531,20.996,-4.395,21.973,0
1492402150.435,-5.371,21.973,20.508,-2.441,24.414,0
1492402150.438,4.395,11.230,19.531,-2.930,24.902,0
1492402150.442,-13.184,28.320,7.324,-6.836,35.645,0
1492402150.446,-28.320,11.719,15.137,2.441,14.648,0
1492402150.450,-7.324,-8.301,20.508,2.930,-9.277,0
1492402150.454,9.277,1.953,11.230,-10.254,23.926,0
1492402150.458,18.066,5.371,14.648,0.000,48.828,0
1492402150.462,34.668,18.066,14.160,2.441,20.508,0
1492402150.466,22.461,24.902,18.555,4.883,-16.113,0
1492402150.470,-2.930,21.973,27.832,8.789,-19.043,0
1492402150.474,7.812,21.484,21.484,2.441,45.410,0
1492402150.478,16.113,24.902,8.301,3.906,52.246,0
1492402150.481,28.809,16.602,12.207,-0.977,15.137,0
1492402150.485,31.250,6.836,17.578,-0.977,35.156,0
1492402150.489,17.578,14.160,5.859,15.625,28.809,0
1492402150.493,15.625,17.090,12.207,11.230,15.137,0
1492402150.497,33.691,14.160,12.695,-5.859,2.441,0
1492402150.501,42.969,19.043,3.418,-22.461,16.602,0
1492402150.505,18.555,15.137,9.766,-10.742,38.574,0
1492402150.509,10.254,12.695,17.090,-1.465,39.551,0
1492402150.513,14.648,19.531,15.625,-3.906,38.574,0
1492402150.517,-2.441,18.555,18.555,7.324,18.555,0
1492402150.521,-4.395,21.973,13.184,6.836,7.812,0
1492402150.524,5.859,23.926,15.625,-9.277,13.672,0
1492402150.528,5.859,13.672,18.066,-18.555,14.160,0
1492402150.532,1.953,6.348,11.719,-17.578,34.180,0
1492402150.536,-14.648,13.184,11.719,-10.742,17.578,0
1492402150.540,-24.414,12.207,12.207,-17.090,-2.930,0
1492402150.544,0.977,8.789,8.789,-21.973,6.348,0
1492402150.548,6.348,13.184,10.742,-13.672,32.715,0
1492402150.552,-4.883,8.301,17.578,-10.742,32.715,0
1492402150.556,-10.742,13.672,13.184,-12.695,21.484,0
1492402150.560,-10.254,15.625,14.648,-4.395,20.508,0
1492402150.563,-13.184,3.906,16.602,0.977,24.902,0
1492402150.567,-15.137,6.836,24.414,0.488,34.668,0
1492402150.571,-4.883,13.184,28.809,-1.465,13.672,0
1492402150.575,7.812,20.020,12.695,-6.348,38.574,0
1492402150.579,-9.277,21.484,15.137,-13.184,49.316,0
1492402150.583,-15.625,24.902,11.719,-12.695,-9.766,0
1492402150.587,0.488,22.461,9.766,-6.836,-20.020,0
1492402150.591,-9.277,29.785,13.184,-21.973,20.508,0
1492402150.595,0.000,34.180,6.348,-18.066,36.133,0
1492402150.599,5.859,9.277,13.184,0.488,39.062,0
1492402150.603,5.859,6.836,15.625,0.000,30.762,0
1492402150.606,7.324,4.883,16.113,3.418,-15.625,0
1492402150.610,-4.883,12.695,9.277,0.977,-9.766,0
1492402150.614,-2.930,22.949,14.648,5.859,-2.930,0
1492402150.618,-6.836,29.785,9.277,0.488,-37.598,0
1492402150.622,-0.977,27.832,8.301,-10.742,-8.301,0
1492402150.626,-0.977,22.461,9.277,0.000,31.250,0
1492402150.630,10.742,14.160,14.160,0.977,35.156,0
1492402150.634,42.480,11.230,18.066,0.000,5.859,0
1492402150.638,31.250,18.066,2.441,-6.348,4.395,0
1492402150.642,15.137,20.996,8.301,-8.789,31.738,0
1492402150.646,29.297,24.902,8.301,-5.859,21.484,0
1492402150.649,16.602,21.973,5.371,12.695,-22.461,0
1492402150.653,-16.602,12.695,21.484,24.902,-8.301,0
1492402150.657,5.859,20.508,10.254,11.719,35.645,0
1492402150.661,19.043,26.855,7.324,2.930,3.906,0
1492402150.665,20.996,35.156,8.301,-11.719,-15.137,0
1492402150.669,35.645,34.180,3.418,-20.020,24.902,0
1492402150.673,28.809,18.066,19.043,-28.320,21.973,0
1492402150.677,28.809,19.531,12.695,-20.996,-7.812,0
1492402150.681,22.461,34.668,-0.977,-1.953,-2.930,0
1492402150.685,-0.977,35.645,10.742,-7.812,35.156,0
1492402150.688,-18.555,24.902,17.578,-7.812,20.996,0
1492402150.692,-24.902,23.438,18.066,10.742,5.371,0
1492402150.696,-31.250,39.062,18.555,15.137,17.578,0
1492402150.700,-24.902,43.945,21.973,4.883,13.672,0
1492402150.704,0.000,31.250,32.227,4.883,5.859,0
1492402150.708,12.207,38.086,33.691,16.602,-9.766,0
1492402150.712,7.324,47.363,41.016,21.484,-10.254,0
1492402150.716,-0.488,46.387,43.945,24.902,6.836,0
1492402150.720,12.207,41.016,37.109,45.898,-6.348,0
1492402150.724,30.273,56.641,42.480,48.340,-5.371,0
1492402150.728,8.301,85.449,44.434,36.621,60.059,0
1492402150.731,16.602,67.871,53.223,44.434,46.875,0
1492402150.735,42.480,52.246,46.387,54.688,0.977,0
1492402150.739,33.203,71.777,48.828,53.223,20.020,0
1492402150.743,43.457,72.754,63.477,55.176,36.621,0
1492402150.747,53.223,75.684,59.570,53.223,19.043,0
1492402150.751,58.105,73.242,63.477,51.270,5.859,0
1492402150.755,66.406,69.824,75.684,54.199,14.648,0
1492402150.759,67.383,74.707,74.707,56.641,34.180,0
1492402150.763,81.055,80.078,63.965,57.129,21.973,0
1492402150.767,77.637,75.684,67.871,57.129,-0.977,0
1492402150.771,85.449,77.148,81.055,49.316,7.324,0
1492402150.774,104.004,89.355,80.566,58.594,42.480,0
1492402150.778,71.777,96.191,68.359,68.848,24.902,0
1492402150.782,47.852,99.609,71.289,74.707,-15.625,0
1492402150.786,65.430,89.844,84.473,85.938,9.766,0
1492402150.790,57.129,84.961,85.938,78.125,29.297,0
1492402150.794,57.129,96.680,85.938,80.078,29.297,0
1492402150.798,71.289,101.074,96.680,80.566,10.742,0
1492402150.802,78.125,97.656,87.891,82.031,-3.906,0
1492402150.806,85.938,99.121,77.637,76.172,16.113,0
1492402150.810,81.543,95.215,84.961,68.848,7.812,0
1492402150.813,79.590,85.938,91.309,73.242,-29.785,0
1492402150.817,79.590,94.727,87.402,74.219,-4.395,0
1492402150.821,70.801,99.121,83.496,65.430,13.672,0
1492402150.825,72.754,98.633,89.355,63.477,41.016,0
1492402150.829,83.984,101.562,93.262,71.289,64.941,0
1492402150.833,103.027,98.145,87.402,80.566,51.270,0
1492402150.837,98.633,97.656,95.215,80.078,21.973,0
1492402150.841,74.707,100.586,93.262,74.219,14.648,0
1492402150.845,75.684,101.074,82.520,84.473,27.344,0
1492402150.849,94.727,115.234,80.566,87.402,24.902,0
1492402150.853,101.074,107.422,84.473,81.055,5.859,0
1492402150.856,91.797,80.566,103.516,80.566,-4.883,0
1492402150.860,110.352,85.449,99.609,73.730,3.906,0
1492402150.864,121.582,88.867,84.473,78.613,2.441,0
1492402150.868,99.609,84.961,84.473,88.867,-32.227,0
1492402150.872,92.285,82.031,92.285,94.238,-11.719,0
1492402150.876,84.473,90.332,92.285,89.355,5.859,0
1492402150.880,85.938,92.285,86.914,80.566,-10.254,0
1492402150.884,104.004,89.355,87.402,82.520,-22.949,0
1492402150.888,110.352,94.238,75.195,84.473,-13.672,0
1492402150.892,107.422,91.797,85.449,79.590,39.551,0
1492402150.896,104.980,97.168,94.727,69.824,42.480,0
1492402150.899,105.469,101.562,86.914,79.590,-3.418,0
1492402150.903,102.051,99.609,85.938,97.168,-26.855,0
1492402150.907,92.773,91.797,92.285,81.543,8.789,0
1492402150.911,96.680,95.703,85.449,73.242,50.781,0
1492402150.915,92.285,101.074,73.730,73.730,32.715,0
1492402150.919,95.215,93.262,75.684,73.730,2.441,0
1492402150.923,103.027,95.215,80.078,72.266,15.625,0
1492402150.927,86.914,96.680,82.031,75.684,43.457,0
1492402150.931,72.754,100.586,82.031,62.500,33.691,0
1492402150.935,68.848,101.562,79.102,67.383,3.418,0
1492402150.938,67.871,94.727,79.102,81.055,27.344,0
1492402150.942,69.336,98.633,83.984,65.918,33.203,0
1492402150.946,64.941,100.098,85.938,68.848,-10.742,0
1492402150.950,53.223,95.215,92.285,70.312,-23.438,0
1492402150.954,75.684,103.516,84.473,69.336,9.277,0
1492402150.958,102.539,115.723,70.801,67.871,36.133,0
1492402150.962,83.008,108.398,79.590,76.172,20.996,0
1492402150.966,78.125,102.051,81.543,81.055,-8.301,0
1492402150.970,84.473,103.027,80.078,68.359,-10.742,0
1492402150.974,66.895,96.191,78.613,68.848,40.527,0
1492402150.978,72.754,82.520,78.125,86.914,53.711,0
1492402150.981,82.520,84.961,91.309,76.660,28.809,0
1492402150.985,85.449,96.191,86.914,74.707,-10.742,0
1492402150.989,88.379,96.191,73.242,93.750,-22.461,0
1492402150.993,87.891,85.449,77.637,75.195,3.418,0
1492402150.997,69.336,102.051,66.406,55.176,24.414,0
1492402151.001,65.918,91.797,77.637,65.918,31.738,0
1492402151.005,77.637,79.102,75.195,85.449,2.930,0
1492402151.009,84.473,100.586,62.988,70.801,27.344,0
1492402151.013,100.586,96.680,70.801,56.152,64.453,0
1492402151.017,88.379,94.238,67.871,58.594,20.020,0
1492402151.021,67.871,91.309,75.195,65.430,15.137,0
1492402151.024,72.754,88.379,79.102,78.125,35.645,0
1492402151.028,96.191,94.238,63.477,65.430,-0.488,0
1492402151.032,91.797,90.820,69.824,57.129,-16.602,0
1492402151.036,65.918,90.820,69.824,54.688,-15.625,0
1492402151.040,69.824,90.820,58.105,63.477,30.273,0
1492402151.044,74.219,83.008,62.500,68.359,65.430,0
1492402151.048,68.848,86.914,64.453,57.617,36.133,0
1492402151.052,57.617,89.355,62.500,50.781,22.949,0
1492402151.056,66.406,83.984,53.711,44.922,20.996,0
1492402151.060,56.152,93.750,54.688,39.062,27.344,0
1492402151.063,38.574,98.633,60.059,37.109,42.480,0
1492402151.067,41.504,85.938,65.430,44.922,13.672,0
1492402151.071,38.574,79.590,63.477,46.387,11.230,0
1492402151.075,49.805,75.195,60.059,33.691,44.434,0
1492402151.079,51.758,71.289,56.641,33.691,10.742,0
1492402151.083,21.973,74.219,62.988,39.062,-17.090,0
1492402151.087,38.574,72.754,63.477,38.574,0.977,0
1492402151.091,61.523,70.801,51.758,33.691,18.555,0
1492402151.095,39.062,70.312,45.898,24.414,38.086,0
1492402151.099,39.062,62.012,49.316,43.945,34.668,0
1492402151.103,27.832,77.637,54.688,22.949,14.160,0
1492402151.106,15.625,88.867,52.246,7.812,2.930,0
1492402151.110,40.039,63.965,61.035,44.434,22.461,0
1492402151.114,54.688,62.500,54.199,43.945,21.484,0
1492402151.118,58.105,61.035,50.293,37.109,3.418,0
1492402151.122,49.805,71.289,45.410,28.809,6.348,0
1492402151.126,36.621,74.707,42.480,27.344,-0.488,0
1492402151.130,47.852,61.035,45.898,29.785,6.348,0
1492402151.134,58.594,65.918,37.598,32.227,24.414,0
1492402151.138,53.711,71.289,42.480,36.621,1.465,0
1492402151.142,59.082,66.895,54.688,29.297,18.066,0
1492402151.146,52.734,54.688,49.805,34.180,34.668,0
1492402151.149,31.738,46.875,44.434,38.574,19.043,0
1492402151.153,32.227,48.828,57.617,42.969,10.254,0
1492402151.157,50.781,66.895,56.152,29.785,18.555,0
1492402151.161,44.922,69.824,39.062,14.160,33.691,0
1492402151.165,26.367,54.199,36.621,30.762,15.625,0
1492402151.169,46.875,58.594,39.062,36.621,-0.488,0
1492402151.173,69.824,61.035,31.250,26.367,2.441,0
1492402151.177,65.918,56.641,30.762,22.949,47.363,0
1492402151.181,46.875,59.570,29.297,27.344,48.828,0
1492402151.185,37.109,52.734,33.691,29.297,7.812,0
1492402151.188,43.945,49.805,39.551,5.859,9.277,0
1492402151.192,46.387,52.734,24.414,17.090,37.109,0
1492402151.196,38.086,51.270,22.461,30.273,32.227,0
1492402151.200,41.992,41.992,27.832,24.414,-3.906,0
1492402151.204,24.902,45.410,28.809,20.508,13.672,0
1492402151.208,21.484,55.176,33.691,20.020,24.902,0
1492402151.212,39.551,53.223,38.574,41.016,7.324,0
1492402151.216,44.434,56.641,37.109,37.598,16.602,0
1492402151.220,43.945,58.594,36.621,27.832,11.230,0
1492402151.224,33.203,63.477,36.621,32.227,8.789,0
1492402151.228,31.250,61.523,41.992,36.133,21.973,0
1492402151.231,41.992,51.270,45.410,37.598,-2.441,0
1492402151.235,48.340,77.637,39.062,39.062,-23.926,0
1492402151.239,40.527,80.078,54.688,32.715,10.742,0
1492402151.243,39.062,51.758,56.152,41.504,24.902,0
1492402151.247,39.062,64.453,39.062,32.715,-6.348,0
1492402151.251,45.410,69.824,52.734,20.996,-26.855,0
1492402151.255,38.086,76.172,51.758,27.832,-13.672,0
1492402151.259,43.945,64.941,40.039,24.902,14.160,0
1492402151.263,62.012,61.523,40.039,19.531,-3.906,0
1492402151.267,44.922,62.012,36.621,27.832,2.441,0
1492402151.271,43.945,54.688,38.086,28.809,35.645,0
1492402151.274,49.805,64.453,31.250,18.555,16.602,0
1492402151.278,24.902,62.500,36.133,15.625,23.438,0
1492402151.282,18.555,53.223,36.621,14.160,25.391,0
1492402151.286,24.902,53.223,29.297,15.625,1.465,0
1492402151.290,38.574,51.270,24.414,22.949,8.789,0
1492402151.294,40.527,49.316,23.438,12.207,28.320,0
1492402151.298,46.387,45.410,34.180,6.348,33.203,0
1492402151.302,67.871,42.480,34.668,8.301,1.953,0
1492402151.306,80.078,35.156,16.113,19.531,6.348,0
1492402151.310,71.777,34.180,9.766,20.996,42.480,0
1492402151.313,69.336,38.574,17.090,14.648,45.410,0
1492402151.317,58.594,40.039,22.949,12.207,23.926,0
1492402151.321,36.133,37.109,30.273,12.695,-11.719,0
1492402151.325,37.109,27.832,31.250,31.738,11.719,0
1492402151.329,29.785,33.691,21.973,31.738,60.547,0
1492402151.333,13.184,33.203,33.203,17.090,35.645,0
1492402151.337,10.742,21.484,17.578,19.531,29.297,0
1492402151.341,4.395,22.949,8.301,26.367,33.203,0
1492402151.345,6.348,40.527,15.137,32.715,26.855,0
1492402151.349,18.555,27.344,17.090,23.926,1.465,0
1492402151.353,1.953,12.207,17.578,8.301,8.789,0
1492402151.356,-5.371,24.902,9.277,10.254,40.527,0
1492402151.360,12.695,20.020,18.066,19.043,39.062,0
1492402151.364,16.113,28.320,17.578,16.602,20.020,0
1492402151.368,6.348,30.762,19.043,12.695,-27.832,0
1492402151.372,-9.766,27.344,19.043,10.254,4.395,0
1492402151.376,-13.184,21.484,20.508,12.207,51.270,0
1492402151.380,-8.789,19.043,20.020,6.348,10.254,0
1492402151.384,6.348,26.367,13.184,-2.441,2.441,0
1492402151.388,10.254,27.832,10.742,0.000,19.043,0
1492402151.392,-3.418,29.785,13.184,-3.906,29.785,0
1492402151.396,-10.254,40.039,12.207,-10.742,43.945,0
1492402151.399,3.418,40.039,13.672,2.930,23.438,0
1492402151.403,20.508,26.855,26.367,17.578,38.574,0
1492402151.407,7.812,24.902,31.738,0.977,29.785,0
1492402151.411,7.324,28.809,19.043,-0.488,-23.926,0
1492402151.415,20.020,33.691,12.207,17.090,-10.742,0
1492402151.419,28.320,35.645,13.184,18.066,30.273,0
1492402151.423,24.414,36.133,15.625,8.301,53.223,0
1492402151.427,26.367,27.832,18.066,10.742,15.625,0
1492402151.431,44.922,26.367,13.184,9.277,-3.418,0
1492402151.435,45.410,31.738,9.277,-0.488,10.742,0
1492402151.438,37.109,26.855,17.578,0.488,20.508,0
1492402151.442,31.738,21.484,21.973,-4.395,33.691,0
1492402151.446,17.578,18.555,19.043,-6.836,25.391,0
1492402151.450,14.648,11.230,11.230,9.766,16.602,0
1492402151.454,4.395,6.348,16.113,9.766,-18.066,0
1492402151.458,-6.348,8.789,16.113,2.441,-22.949,0
1492402151.462,9.766,17.578,5.371,-3.418,24.902,0
1492402151.466,30.273,14.160,5.859,-2.441,14.648,0
1492402151.470,30.762,11.719,11.230,4.395,-34.180,0
1492402151.474,24.414,14.648,17.090,6.348,7.324,0
1492402151.478,23.438,10.254,22.949,2.441,69.336,0
1492402151.481,15.625,13.184,18.555,-0.488,43.945,0
1492402151.485,13.184,33.691,11.230,-6.836,23.438,0
1492402151.489,27.344,39.062,18.066,-5.371,25.391,0
1492402151.493,29.297,13.672,24.414,7.812,41.992,0
1492402151.497,15.137,5.371,23.438,3.418,31.250,0
1492402151.501,28.320,9.766,24.414,8.301,-20.996,0
1492402151.505,27.832,5.371,24.414,12.695,-20.508,0
1492402151.509,22.949,11.230,18.066,14.160,48.340,0
1492402151.513,31.738,24.902,18.066,0.488,68.359,0
1492402151.517,14.160,30.273,15.625,2.441,22.461,0
1492402151.521,28.320,28.809,7.324,27.832,-1.953,0
1492402151.524,28.809,24.414,14.160,20.508,43.945,0
1492402151.528,20.508,23.926,17.090,11.230,44.434,0
1492402151.532,14.648,23.438,14.648,9.277,0.977,0
1492402151.536,1.953,15.625,17.090,15.625,17.578,0
1492402151.540,11.230,28.809,28.320,8.301,33.691,0
1492402151.544,21.484,41.504,18.555,8.789,41.504,0
1492402151.548,29.297,35.645,17.090,4.883,27.832,0
1492402151.552,37.598,33.203,25.879,1.465,15.625,0
1492402151.556,26.367,40.527,15.625,-2.441,20.508,0
1492402151.560,23.438,38.574,14.160,-16.602,11.230,0
1492402151.563,41.016,29.785,12.695,-7.812,9.766,0
1492402151.567,41.016,26.855,13.184,6.836,20.996,0
1492402151.571,30.762,26.855,19.531,16.602,14.160,0
1492402151.575,25.391,29.297,20.508,16.113,-0.977,0
1492402151.579,23.438,29.297,20.996,16.602,-10.742,0
1492402151.583,12.207,26.855,13.672,11.719,5.371,0
1492402151.587,29.297,14.648,7.324,-2.930,-6.836,0
1492402151.591,37.598,21.973,20.020,3.418,-31.250,0
1492402151.595,24.902,32.227,20.996,17.090,-14.648,0
1492402151.599,20.996,35.645,13.184,13.672,33.203,0
1492402151.603,7.812,11.230,11.230,0.488,31.738,0
1492402151.606,-53.711,-38.574,-57.617,-58.594,0.488,0
1492402151.610,-103.516,-71.289,-115.723,-103.027,24.902,0
1492402151.614,-104.492,-85.449,-112.793,-105.957,57.129,0
1492402151.618,-98.145,-89.355,-102.539,-102.051,31.738,0
1492402151.622,-104.980,-102.539,-91.797,-97.656,0.000,0
1492402151.626,-100.098,-90.820,-101.074,-99.609,41.504,0
1492402151.630,-74.707,-79.102,-94.727,-108.398,44.922,0
1492402151.634,-82.520,-80.566,-84.961,-104.980,-8.789,0
1492402151.638,-104.004,-81.055,-83.008,-90.332,-15.137,0
1492402151.642,-91.797,-84.473,-75.195,-81.055,11.719,0
1492402151.646,-86.914,-81.543,-66.895,-86.914,2.930,0
1492402151.649,-81.543,-72.266,-66.895,-83.984,-13.184,0
1492402151.653,-78.613,-62.012,-65.430,-68.359,-1.953,0
1492402151.657,-64.941,-56.152,-54.688,-75.195,29.297,0
1492402151.661,-25.879,-48.828,-55.176,-80.566,33.691,0
1492402151.665,-47.363,-32.227,-59.082,-71.289,-0.488,0
1492402151.669,-65.918,-43.457,-53.711,-59.570,-32.227,0
1492402151.673,-53.711,-56.641,-49.805,-55.664,23.438,0
1492402151.677,-53.223,-47.852,-49.805,-62.012,78.125,0
1492402151.681,-36.133,-41.504,-47.363,-49.316,40.527,0
1492402151.685,-29.297,-36.621,-40.527,-42.969,9.277,0
1492402151.688,-41.504,-40.527,-41.504,-52.734,4.395,0
1492402151.692,-44.434,-37.598,-46.387,-52.246,32.227,0
1492402151.696,-26.855,-30.762,-41.504,-54.199,21.973,0
1492402151.700,-21.484,-23.926,-43.945,-57.617,5.859,0
1492402151.704,-44.922,-21.973,-30.273,-48.828,49.805,0
1492402151.708,-52.246,-21.484,-25.391,-50.781,28.320,0
1492402151.712,-45.410,-11.230,-38.574,-44.434,17.578,0
1492402151.716,-35.645,-12.695,-30.762,-38.574,21.973,0
1492402151.720,-36.133,-24.414,-32.715,-42.969,13.184,0
1492402151.724,-22.461,-20.508,-17.090,-31.250,20.508,0
1492402151.728,18.066,10.254,18.066,-2.441,38.574,0
1492402151.731,23.926,-3.906,26.855,3.906,37.109,0
1492402151.735,26.367,-39.062,24.902,-4.883,23.438,0
1492402151.739,50.293,-51.270,24.902,-10.742,28.809,0
1492402151.743,58.594,-42.969,18.555,-12.207,33.203,0
1492402151.747,28.809,-50.781,12.695,-2.930,52.246,0
1492402151.751,10.742,-83.496,28.809,-7.324,21.973,0
1492402151.755,18.066,-82.031,27.344,-2.441,15.137,0
1492402151.759,7.324,-73.242,8.789,0.977,60.547,0
1492402151.763,-1.953,-80.078,15.625,-1.465,55.176,0
1492402151.767,-4.883,-88.867,10.254,9.277,24.414,0
1492402151.771,-11.230,-96.191,1.953,14.160,-8.301,0
1492402151.774,8.789,-88.867,10.742,10.742,19.531,0
1492402151.778,-3.418,-64.941,4.395,5.859,56.152,0
1492402151.782,-11.230,-76.172,4.883,14.160,24.902,0
1492402151.786,-7.812,-81.055,5.371,13.184,-13.672,0
1492402151.790,-19.043,-75.684,3.906,-0.977,4.883,0
1492402151.794,-31.738,-85.938,4.883,11.719,47.852,0
1492402151.798,-30.762,-86.426,1.953,19.043,54.199,0
1492402151.802,-9.277,-80.078,-0.488,0.488,22.461,0
1492402151.806,-1.465,-74.219,-1.953,-13.672,26.367,0
1492402151.810,-7.812,-66.406,1.465,-12.695,57.617,0
1492402151.813,-11.719,-59.082,0.488,-15.137,48.828,0
1492402151.817,-11.230,-53.223,-5.859,-15.137,-3.906,0
1492402151.821,0.000,-48.340,-5.371,-15.137,-21.484,0
1492402151.825,-9.766,-54.199,3.418,-21.973,34.668,0
1492402151.829,-12.207,-48.340,0.488,-14.648,17.090,0
1492402151.833,7.324,-46.387,-2.930,-5.859,-47.363,0
1492402151.837,-4.883,-51.270,2.930,-9.277,-30.762,0
1492402151.841,-2.930,-50.781,-6.348,-12.207,15.137,0
1492402151.845,16.602,-48.828,-6.836,-9.277,28.320,0
1492402151.849,20.020,-47.852,-1.465,-15.625,9.277,0
1492402151.853,22.461,-41.504,-7.324,-23.438,0.000,0
1492402151.856,1.953,-39.062,-7.812,-15.137,23.926,0
1492402151.860,-6.836,-47.852,-3.418,-15.625,46.387,0
1492402151.864,0.488,-48.828,-5.859,-22.949,36.621,0
1492402151.868,7.324,-43.945,-12.207,-12.207,20.508,0
1492402151.872,14.160,-52.246,-6.836,-3.418,-8.789,0
1492402151.876,5.371,-53.223,-3.418,-13.184,13.672,0
1492402151.880,-7.324,-49.805,-8.789,-9.277,36.133,0
1492402151.884,-8.789,-56.152,-6.836,-4.883,20.020,0
1492402151.888,-5.859,-54.199,-5.859,-10.254,8.789,0
1492402151.892,1.953,-45.410,-8.789,-17.578,29.297,0
1492402151.896,17.090,-35.156,-7.324,-21.484,33.691,0
1492402151.899,4.883,-33.203,0.488,-15.625,25.879,0
1492402151.903,-16.602,-39.551,-1.465,-9.766,12.695,0
1492402151.907,-34.180,-22.461,-6.348,-19.531,26.855,0
1492402151.911,-29.297,-20.020,-8.301,-35.156,54.688,0
1492402151.915,-2.930,-26.367,-7.324,-32.227,41.016,0
1492402151.919,-19.531,-27.832,-8.789,-20.508,-3.418,0
1492402151.923,-19.531,-44.922,-6.348,-20.508,2.930,0
1492402151.927,-7.812,-46.387,6.348,-16.113,48.828,0
1492402151.931,9.277,-43.945,3.906,-14.648,46.387,0
1492402151.935,11.719,-40.527,-6.836,-19.043,1.953,0
1492402151.938,-12.207,-40.039,-7.812,-9.277,-6.836,0
1492402151.942,-10.254,-39.062,-6.836,-11.230,38.574,0
1492402151.946,4.395,-29.785,-6.348,-12.207,58.105,0
1492402151.950,-3.906,-26.855,-0.977,-16.602,24.902,0
1492402151.954,1.465,-24.414,-3.418,-20.508,14.648,0
1492402151.958,12.695,-27.832,-5.859,-15.625,56.152,0
1492402151.962,5.859,-30.762,-4.883,-9.277,57.129,0
1492402151.966,4.395,-20.508,-4.883,-16.113,31.250,0
1492402151.970,19.043,-21.973,4.883,-20.996,15.137,0
1492402151.974,18.555,-28.320,5.371,-12.695,3.906,0
1492402151.978,14.160,-17.578,4.883,-7.812,9.766,0
1492402151.981,8.789,-13.672,3.418,-3.418,-13.184,0
1492402151.985,23.926,-15.625,-10.742,2.930,8.301,0
1492402151.989,31.250,-4.395,-2.930,0.000,18.555,0
1492402151.993,19.043,0.488,-1.953,-4.395,14.648,0
1492402151.997,27.344,-2.930,1.953,0.488,32.715,0
1492402152.001,41.016,14.648,16.602,11.719,47.363,0
1492402152.005,35.156,13.184,17.090,7.812,22.461,0
1492402152.009,13.672,-5.859,5.859,-14.160,2.930,0
1492402152.013,3.906,-7.812,-4.883,-14.160,41.992,0
1492402152.017,7.812,-4.883,-1.465,-14.648,46.875,0
1492402152.021,9.766,-1.953,0.488,-4.395,35.156,0
1492402152.024,-0.977,-4.395,-2.930,1.953,-0.488,0
1492402152.028,-20.020,-11.230,-0.488,-20.996,-10.254,0
1492402152.032,-15.137,-7.324,-12.695,-12.695,18.066,0
1492402152.036,5.859,-11.230,-21.973,-10.742,6.348,0
1492402152.040,-4.883,-18.066,-15.137,-25.879,21.973,0
1492402152.044,-29.785,-16.602,-13.672,-23.926,20.508,0
1492402152.048,-33.691,-13.672,-10.742,-17.578,9.277,0
1492402152.052,-23.926,-13.672,-7.812,-11.230,10.254,0
1492402152.056,-6.348,-10.742,-9.277,-16.113,10.742,0
1492402152.060,-3.906,-0.488,-15.137,-25.879,30.273,0
1492402152.063,-9.766,6.836,-13.672,-31.250,30.273,0
1492402152.067,-22.949,6.836,-2.930,-32.227,16.602,0
1492402152.071,-32.715,0.977,-0.977,-17.578,11.230,0
1492402152.075,-8.301,0.977,-12.695,-20.996,24.414,0
1492402152.079,-18.066,3.418,-7.812,-23.438,22.949,0
1492402152.083,-36.621,4.883,-4.883,-12.695,10.742,0
1492402152.087,-27.832,-1.465,-7.324,-15.137,23.438,0
1492402152.091,-11.719,1.953,-7.324,-23.926,46.387,0
1492402152.095,-9.277,8.301,-5.371,-20.996,48.340,0
1492402152.099,-4.395,0.488,-3.418,-20.996,35.156,0
1492402152.103,1.953,-5.859,-11.719,-26.855,30.762,0
1492402152.106,-5.371,-0.488,-12.207,-29.297,41.504,0
1492402152.110,-17.090,4.395,-17.578,-36.621,37.598,0
1492402152.114,-16.602,8.789,-25.879,-27.832,-6.348,0
1492402152.118,-1.465,3.418,-17.578,-28.320,-48.828,0
1492402152.122,5.859,-9.766,-18.555,-31.250,-1.953,0
1492402152.126,-7.324,-6.348,-21.484,-34.668,27.832,0
1492402152.130,-0.488,-10.254,-13.184,-39.551,19.531,0
1492402152.134,17.578,-4.883,-22.949,-38.086,30.273,0
1492402152.138,-8.789,-0.977,-21.484,-37.598,36.621,0
1492402152.142,-50.293,-4.883,-4.883,-31.250,30.762,0
1492402152.146,-32.715,-1.465,-11.719,-29.785,54.199,0
1492402152.149,-14.160,3.418,-24.414,-22.949,71.777,0
1492402152.153,-32.227,0.977,-4.883,-12.207,26.367,0
1492402152.157,-20.020,-2.441,4.395,-19.531,5.859,0
1492402152.161,-20.508,-0.977,-13.184,-25.879,-0.977,0
1492402152.165,-29.297,11.230,-11.719,-19.043,-3.418,0
1492402152.169,5.371,12.695,-11.719,-17.578,-16.113,0
1492402152.173,1.465,2.441,-6.836,-25.879,-10.254,0
1492402152.177,-25.391,21.484,-11.230,-28.809,3.418,0
1492402152.181,-22.949,30.762,-13.672,-19.043,18.555,0
1492402152.185,-21.973,25.879,-7.812,-13.672,30.762,0
1492402152.188,-12.207,32.715,-7.324,-16.113,8.301,0
1492402152.192,4.395,35.156,-6.836,-19.043,13.672,0
1492402152.196,-4.395,31.738,-6.836,-20.508,50.781,0
1492402152.200,-6.348,28.809,-1.465,-21.973,42.969,0
1492402152.204,0.000,29.297,-2.930,-19.531,15.625,0
1492402152.208,-12.695,36.133,-14.160,-14.648,24.414,0
1492402152.212,-16.602,33.203,-14.648,-14.160,57.129,0
1492402152.216,19.043,32.227,-13.184,-28.320,38.574,0
1492402152.220,19.531,36.621,-0.977,-29.785,35.645,0
1492402152.224,-6.836,38.086,-2.441,-18.066,60.059,0
1492402152.228,-9.277,41.016,-12.207,-16.602,55.664,0
1492402152.231,0.000,37.109,-2.441,-17.090,33.691,0
1492402152.235,-13.184,34.180,0.000,-27.344,-2.441,0
1492402152.239,-6.348,38.086,-8.301,-20.996,-0.977,0
1492402152.243,13.672,35.645,-7.812,-12.695,27.344,0
1492402152.247,13.184,30.762,14.160,-26.855,39.551,0
1492402152.251,17.578,30.273,7.324,-20.996,3.906,0
1492402152.255,8.301,30.273,-6.836,-3.906,-16.113,0
1492402152.259,1.465,28.809,-3.906,-8.301,21.484,0
1492402152.263,-6.836,30.762,-12.207,-9.277,39.551,0
1492402152.267,-4.883,39.551,-12.695,-12.207,26.367,0
1492402152.271,0.977,42.969,-4.883,-8.789,27.832,0
1492402152.274,9.277,39.551,-0.977,0.977,21.484,0
1492402152.278,8.301,30.762,-10.742,-9.766,24.902,0
1492402152.282,23.926,28.320,-6.348,-13.184,14.160,0
1492402152.286,21.484,33.203,6.836,-7.812,-9.766,0
1492402152.290,-0.488,30.273,4.883,-13.184,16.602,0
1492402152.294,12.695,28.320,-3.418,-4.883,35.156,0
1492402152.298,-1.465,32.227,-0.977,-6.348,-2.441,0
1492402152.302,-1.953,34.668,2.930,1.465,1.465,0
1492402152.306,15.137,41.504,-3.906,-5.371,34.668,0
1492402152.310,-0.488,27.344,2.441,-14.160,22.461,0
1492402152.313,-9.766,15.625,3.906,-8.789,30.762,0
1492402152.317,-0.488,30.273,-5.371,-11.230,47.363,0
1492402152.321,1.953,41.504,-4.883,-18.066,20.996,0
1492402152.325,17.578,27.344,-1.953,-16.602,3.906,0
1492402152.329,4.395,12.207,1.953,-15.625,42.969,0
1492402152.333,-13.672,17.578,8.301,-12.695,48.340,0
1492402152.337,-12.695,18.066,-0.977,2.441,-2.441,0
1492402152.341,-14.648,22.461,-7.812,-7.324,7.812,0
1492402152.345,6.836,25.391,3.418,-9.766,21.973,0
1492402152.349,7.812,25.879,-2.441,-7.324,-13.184,0
1492402152.353,2.441,28.809,-2.930,-7.324,4.395,0
1492402152.356,15.625,24.902,5.859,3.906,-5.859,0
1492402152.360,20.996,20.020,7.324,11.230,17.578,0
1492402152.364,21.484,23.926,12.207,6.348,34.180,0
1492402152.368,21.973,30.273,16.113,13.672,-45.410,0
1492402152.372,15.137,38.086,8.301,25.879,-21.484,0
1492402152.376,29.785,46.387,22.949,20.996,45.898,0
1492402152.380,49.316,58.594,31.738,18.066,35.156,0
1492402152.384,38.086,60.547,9.277,20.020,2.441,0
1492402152.388,24.902,62.988,-4.395,11.719,-8.789,0
1492402152.392,33.691,64.453,-3.418,-2.441,13.184,0
1492402152.396,34.668,49.805,-1.953,-4.883,38.086,0
1492402152.399,16.113,49.805,-3.418,3.418,7.324,0
1492402152.403,38.574,52.734,0.488,14.648,-14.160,0
1492402152.407,50.293,62.012,6.836,10.742,26.855,0
1492402152.411,28.320,69.336,22.949,33.691,58.105,0
1492402152.415,26.855,56.152,39.062,50.781,76.660,0
1492402152.419,22.949,42.480,12.695,12.695,40.039,0
1492402152.423,20.508,45.410,-2.441,-2.930,34.180,0
1492402152.427,3.906,40.039,4.395,8.301,52.246,0
1492402152.431,-21.973,14.160,-1.953,-3.418,39.062,0
1492402152.435,-18.555,8.789,-6.836,-17.578,34.180,0
1492402152.438,-7.324,17.090,-14.648,-20.020,21.484,0
1492402152.442,-12.695,13.672,-21.973,-14.160,19.531,0
1492402152.446,-13.672,17.090,-18.555,-13.672,22.949,0
1492402152.450,-15.137,18.066,-19.531,-14.648,7.812,0
1492402152.454,-13.672,4.883,-9.766,-14.160,3.418,0
1492402152.458,4.395,-0.977,-9.766,-14.160,-2.441,0
1492402152.462,-7.324,7.812,-19.531,0.000,22.949,0
1492402152.466,-20.996,18.066,-16.113,-4.395,40.039,0
1492402152.470,-16.113,14.160,-17.578,-3.418,4.395,0
1492402152.474,-25.879,11.719,-16.113,-1.465,11.230,0
1492402152.478,-21.484,9.766,-7.324,1.953,42.969,0
1492402152.481,-5.859,5.859,-16.602,0.488,3.906,0
1492402152.485,-2.441,19.043,-23.926,-6.836,-4.395,0
1492402152.489,0.000,21.973,-19.043,-11.230,-3.418,0
1492402152.493,9.277,12.695,-21.973,-13.184,6.348,0
1492402152.497,3.906,13.672,-16.113,-9.277,24.902,0
1492402152.501,12.207,11.719,-11.719,-12.695,0.000,0
1492402152.505,25.391,17.090,-12.207,-8.789,-5.371,0
1492402152.509,8.301,25.879,-7.324,-7.812,-8.789,0
1492402152.513,22.461,15.625,-4.395,-3.418,33.203,0
1492402152.517,35.156,12.207,-3.418,13.672,41.504,0
1492402152.521,11.719,15.625,-3.906,27.832,19.531,0
1492402152.524,1.465,12.695,-12.207,21.973,34.668,0
1492402152.528,-11.719,13.672,-10.254,25.879,28.320,0
1492402152.532,-16.113,6.836,-6.836,26.855,11.230,0
1492402152.536,-5.859,2.441,-5.371,19.043,-8.301,0
1492402152.540,-20.020,0.977,10.742,19.531,10.742,0
1492402152.544,-18.555,-5.371,8.301,24.902,59.570,0
1492402152.548,11.719,3.906,-2.930,17.578,49.805,0
1492402152.552,-0.977,12.695,2.441,5.371,17.090,0
1492402152.556,-1.465,11.719,-13.184,5.859,35.156,0
1492402152.560,-1.465,7.812,-8.789,3.906,41.992,0
1492402152.563,-16.602,1.465,1.953,-4.883,41.992,0
1492402152.567,2.441,-0.488,-1.465,1.953,29.297,0
1492402152.571,2.930,6.348,-5.371,0.977,-0.488,0
1492402152.575,8.301,3.418,0.977,-7.324,35.645,0
1492402152.579,19.531,2.930,7.812,-7.812,38.574,0
1492402152.583,31.738,10.254,8.301,-11.719,1.953,0
1492402152.587,22.949,4.883,8.301,-3.906,36.621,0
1492402152.591,-4.395,4.395,11.719,0.977,66.895,0
1492402152.595,6.836,10.742,15.137,-0.488,20.996,0
1492402152.599,18.066,8.301,16.113,-5.859,1.465,0
1492402152.603,13.184,19.043,14.160,-3.418,13.672,0
1492402152.606,5.859,18.066,8.789,0.488,18.555,0
1492402152.610,22.949,-10.742,15.625,3.906,50.781,0
1492402152.614,27.344,-2.930,18.066,2.930,58.105,0
1492402152.618,24.902,5.859,6.348,-1.953,77.637,0
1492402152.622,24.414,-6.836,14.648,-5.859,47.363,0
1492402152.626,19.043,-6.348,20.020,-5.859,-9.766,0
1492402152.630,0.488,-5.371,6.836,1.465,14.160,0
1492402152.634,-3.418,-6.348,7.812,5.859,32.715,0
1492402152.638,7.812,-2.441,11.719,-3.418,19.531,0
1492402152.642,21.484,-9.277,6.836,-10.254,15.625,0
1492402152.646,21.484,-9.277,-6.348,-12.695,20.508,0
1492402152.649,-4.395,-7.324,8.789,-14.648,29.297,0
1492402152.653,-4.883,-5.859,12.207,-11.230,1.953,0
1492402152.657,8.789,-6.836,5.859,-18.066,0.488,0
1492402152.661,5.859,-3.906,-0.977,-17.578,36.621,0
1492402152.665,-8.301,0.000,-6.836,-2.930,49.805,0
1492402152.669,-1.953,2.441,6.348,-9.277,-3.418,0
1492402152.673,0.488,0.000,6.836,-23.438,-4.395,0
1492402152.677,20.996,-0.977,-6.836,-33.691,38.574,0
1492402152.681,15.137,1.465,-9.766,-38.086,41.016,0
1492402152.685,-14.648,-1.465,-5.859,-23.926,29.297,0
1492402152.688,10.742,-4.883,-8.789,-21.973,11.230,0
1492402152.692,4.395,-6.348,-2.930,-16.602,65.430,0
1492402152.696,-4.883,-1.465,7.812,-8.301,81.543,0
1492402152.700,11.719,0.977,1.953,-11.719,20.508,0
1492402152.704,15.137,4.395,-1.953,-22.949,12.207,0
1492402152.708,12.207,-1.465,4.883,-18.066,36.621,0
1492402152.712,22.461,2.441,-1.465,-7.324,22.949,0
1492402152.716,32.227,5.859,9.277,-15.625,-3.906,0
1492402152.720,5.371,-3.906,18.066,2.441,-11.719,0
1492402152.724,-3.906,0.977,4.883,6.836,10.742,0
1492402152.728,8.301,13.184,1.953,-15.625,29.297,0
1492402152.731,18.066,8.301,4.883,-8.301,17.578,0
1492402152.735,10.254,4.395,4.395,-2.930,-1.465,0
1492402152.739,-1.953,-0.488,7.812,-6.348,23.438,0
1492402152.743,8.789,-2.441,5.859,-16.113,42.969,0
1492402152.747,24.902,8.789,-2.930,-22.461,32.715,0
1492402152.751,12.207,2.930,6.836,-16.602,9.766,0
1492402152.755,1.465,-0.488,9.277,-12.695,-7.324,0
1492402152.759,15.625,15.137,-1.465,-3.906,9.277,0
1492402152.763,20.020,20.996,-8.301,-6.348,29.785,0
1492402152.767,25.391,11.230,-4.883,-4.883,21.973,0
1492402152.771,14.648,8.301,0.977,-13.672,9.277,0
1492402152.774,11.719,11.719,-8.301,-8.301,-9.277,0
1492402152.778,15.625,7.324,-7.324,2.930,2.441,0
1492402152.782,8.789,6.348,-4.395,-1.465,43.457,0
1492402152.786,7.324,15.137,-1.465,0.977,32.227,0
1492402152.790,1.465,16.602,5.859,-4.395,1.953,0
1492402152.794,10.742,18.555,1.953,-16.113,39.551,0
1492402152.798,30.762,21.484,-2.441,-7.324,31.250,0
1492402152.802,18.066,26.367,0.000,-4.883,0.000,0
1492402152.806,1.465,19.531,-1.465,-10.742,18.066,0
1492402152.810,9.277,-0.488,6.836,-8.789,15.137,0
1492402152.813,2.930,2.441,6.348,1.953,34.180,0
1492402152.817,0.000,5.859,3.418,3.418,28.320,0
1492402152.821,4.883,9.277,4.883,-11.719,-15.137,0
1492402152.825,7.324,21.484,-2.930,-12.207,15.625,0
1492402152.829,20.508,20.020,0.488,2.930,60.059,0
1492402152.833,12.207,16.113,4.395,-5.859,-0.977,0
1492402152.837,-2.441,4.883,1.465,-4.883,-47.363,0
1492402152.841,-8.301,2.441,1.465,-8.789,6.836,0
1492402152.845,-14.160,13.184,5.859,-15.625,49.316,0
1492402152.849,0.977,19.531,4.395,-14.160,27.832,0
1492402152.853,7.812,21.973,0.000,-17.578,5.371,0
1492402152.856,-21.484,24.902,-5.371,-10.742,10.254,0
1492402152.860,-23.438,17.090,-3.418,-8.301,40.527,0
1492402152.864,-8.301,30.762,-3.418,-20.508,20.996,0
1492402152.868,-5.371,34.668,-7.812,-23.926,-30.273,0
1492402152.872,-3.906,6.348,0.000,-6.348,-7.812,0
1492402152.876,-8.789,6.348,2.930,-3.906,45.410,0
1492402152.880,2.441,21.973,0.977,-13.184,52.734,0
1492402152.884,20.508,33.203,-1.953,-15.625,25.391,0
1492402152.888,24.902,31.250,-0.977,-12.695,34.668,0
1492402152.892,15.625,32.715,2.441,-10.254,47.852,0
1492402152.896,-14.648,16.602,14.160,-15.137,12.207,0
1492402152.899,-7.812,10.742,13.672,-4.395,1.465,0
1492402152.903,16.602,25.879,-5.371,-8.301,12.207,0
1492402152.907,6.348,23.926,18.066,-17.578,28.809,0
1492402152.911,-9.766,20.020,20.508,-0.977,18.066,0
1492402152.915,4.883,22.461,-9.766,-5.371,26.367,0
1492402152.919,36.621,16.602,-2.930,-20.020,57.129,0
1492402152.923,19.531,12.695,9.766,-23.926,38.574,0
1492402152.927,0.000,20.996,8.789,-18.066,31.738,0
1492402152.931,-3.906,19.043,2.441,-6.348,51.270,0
1492402152.935,1.465,11.719,7.812,-8.789,58.594,0
1492402152.938,10.254,22.461,4.395,-5.371,44.922,0
1492402152.942,8.301,21.484,-0.977,0.977,27.832,0
1492402152.946,29.297,20.020,7.324,-3.906,45.410,0
1492402152.950,15.625,24.414,21.484,15.137,57.129,0
1492402152.954,-6.348,23.926,9.766,8.301,34.180,0
1492402152.958,3.906,18.555,3.418,-9.277,7.812,0
1492402152.962,11.230,15.137,6.348,-11.230,1.465,0
1492402152.966,15.137,20.508,1.953,-19.531,4.883,0
1492402152.970,12.207,17.578,1.465,-12.695,5.859,0
1492402152.974,9.277,22.461,4.395,-4.883,19.043,0
1492402152.978,9.277,22.461,7.812,-1.465,56.152,0
1492402152.981,3.906,11.230,8.301,-3.418,34.180,0
1492402152.985,17.090,11.230,10.254,-10.742,-4.883,0
1492402152.989,28.320,19.043,4.395,-17.578,7.324,0
1492402152.993,-6.348,20.020,9.766,-32.715,30.273,0
1492402152.997,-24.902,17.578,5.371,-26.367,50.781,0
1492402153.001,-37.598,15.137,1.953,-22.461,23.926,0
1492402153.005,-30.762,15.137,-2.930,-28.809,-0.977,0
1492402153.009,-4.395,16.113,-9.277,-26.367,13.672,0
1492402153.013,-25.391,14.160,1.953,-33.691,3.906,0
1492402153.017,-34.180,16.113,-2.441,-20.996,-19.043,0
1492402153.021,-24.414,11.719,0.488,-19.531,-9.277,0
1492402153.024,-16.602,14.160,-0.977,-30.762,34.180,0
1492402153.028,12.207,26.367,-15.137,-30.762,41.016,0
1492402153.032,-9.766,26.367,-9.277,-25.391,33.203,0
1492402153.036,-47.363,20.508,-4.395,-30.273,26.855,0
1492402153.040,-25.879,18.066,-3.906,-29.785,27.344,0
1492402153.044,-9.766,16.602,-4.395,-18.555,19.043,0
1492402153.048,-28.809,23.926,-5.371,-14.160,19.043,0
1492402153.052,-13.672,22.949,-8.301,-23.926,7.324,0
1492402153.056,0.000,16.602,-9.277,-29.785,-19.531,0
1492402153.060,-12.695,20.020,-1.953,-25.879,-31.250,0
1492402153.063,-7.324,22.461,-5.859,-28.809,-23.438,0
1492402153.067,-5.859,15.137,-14.160,-24.902,33.203,0
1492402153.071,-24.902,29.785,-12.695,-25.879,36.133,0
1492402153.075,-9.277,36.621,-11.719,-24.902,41.016,0
1492402153.079,8.789,12.695,-2.930,-12.207,52.734,0
1492402153.083,-25.879,14.648,-2.930,-15.625,27.344,0
1492402153.087,-24.414,13.672,-10.254,-24.902,20.508,0
1492402153.091,-1.465,10.742,-7.324,-20.996,18.555,0
1492402153.095,-0.977,12.695,0.977,-14.648,40.039,0
1492402153.099,-14.648,19.043,-1.953,-14.160,38.574,0
1492402153.103,-10.254,20.508,7.324,-15.137,26.367,0
1492402153.106,0.000,12.695,12.695,-11.719,-1.953,0
1492402153.110,11.230,7.812,-4.883,-9.766,13.672,0
1492402153.114,19.531,16.602,-3.906,-26.367,79.102,0
1492402153.118,-4.395,19.531,3.906,-30.273,57.129,0
1492402153.122,-16.602,19.043,3.418,-17.090,-7.324,0
1492402153.126,-16.113,19.043,0.488,-23.438,-1.465,0
1492402153.130,-17.090,15.137,-2.930,-16.113,50.781,0
1492402153.134,-1.465,17.578,4.395,-18.555,37.598,0
1492402153.138,-11.230,17.090,16.602,-23.926,4.395,0
1492402153.142,-0.488,23.926,11.230,-10.254,24.902,0
1492402153.146,-1.465,39.062,5.859,-14.160,35.156,0
1492402153.149,5.371,24.902,4.395,-15.625,8.301,0
1492402153.153,37.109,6.348,10.254,-19.531,-8.789,0
1492402153.157,33.691,15.137,5.859,-26.855,43.457,0
1492402153.161,28.809,27.344,0.000,-30.273,56.641,0
1492402153.165,11.719,25.879,6.348,-22.949,53.711,0
1492402153.169,22.461,21.973,4.883,-26.855,41.992,0
1492402153.173,40.527,21.973,-3.906,-35.156,24.414,0
1492402153.177,29.297,13.672,7.324,-25.391,14.648,0
1492402153.181,21.973,17.090,10.254,-25.879,22.949,0
1492402153.185,2.441,29.785,-1.953,-16.113,29.785,0
1492402153.188,-14.160,26.855,8.301,-6.348,-0.488,0
1492402153.192,-5.371,14.160,12.695,0.000,21.484,0
1492402153.196,-9.277,17.578,7.324,8.301,35.156,0
1492402153.200,-10.254,23.926,8.301,6.348,16.113,0
1492402153.204,-15.625,16.113,9.766,9.766,28.320,0
1492402153.208,-16.113,18.555,7.812,8.789,21.973,0
1492402153.212,-9.277,22.949,6.836,-2.930,45.898,0
1492402153.216,-16.113,21.484,5.859,-4.395,77.637,0
1492402153.220,-15.137,28.320,8.301,-8.789,36.133,0
1492402153.224,-19.043,33.691,9.277,-14.160,23.926,0
1492402153.228,2.441,29.785,0.488,-15.137,44.922,0
1492402153.231,19.531,26.367,0.488,-21.484,36.621,0
1492402153.235,8.301,20.020,16.602,-22.949,24.902,0
1492402153.239,-7.324,20.508,6.348,-21.484,7.324,0
1492402153.243,-16.113,30.762,-3.418,-5.859,18.066,0
1492402153.247,-2.930,38.574,7.812,-0.488,44.922,0
1492402153.251,13.672,35.645,8.789,-11.719,26.367,0
1492402153.255,14.160,28.320,10.254,-7.812,-6.836,0
1492402153.259,-10.254,19.043,7.812,0.977,2.930,0
1492402153.263,-19.531,27.344,5.371,2.441,41.016,0
1492402153.267,1.953,32.227,12.207,-2.930,38.574,0
1492402153.271,4.883,34.180,14.160,-8.789,10.742,0
1492402153.274,1.953,43.457,16.602,-17.090,28.320,0
1492402153.278,-0.488,41.504,24.902,-25.879,42.480,0
1492402153.282,-7.324,42.480,14.160,-12.695,37.598,0
1492402153.286,12.207,37.598,-4.883,-12.207,24.414,0
1492402153.290,13.184,37.598,-4.395,-21.973,12.207,0
1492402153.294,12.695,41.992,0.977,-26.367,35.645,0
1492402153.298,24.414,28.320,2.930,-18.066,19.531,0
1492402153.302,15.137,24.902,1.953,-15.625,-27.344,0
1492402153.306,7.324,24.902,-2.441,-19.043,-11.230,0
1492402153.310,16.113,14.160,7.812,-20.508,44.922,0
1492402153.313,24.902,13.672,15.625,-23.926,51.270,0
1492402153.317,15.137,30.762,0.488,-8.789,5.859,0
1492402153.321,2.930,34.180,-1.465,-6.836,8.789,0
1492402153.325,19.043,32.715,6.348,-13.672,24.902,0
1492402153.329,17.090,35.156,11.719,-12.207,-0.488,0
1492402153.333,11.719,28.320,12.695,-5.371,-13.184,0
1492402153.337,24.902,26.367,6.348,-3.418,1.465,0
1492402153.341,29.297,29.785,10.742,-8.301,15.137,0
1492402153.345,34.180,19.531,7.812,-5.371,25.879,0
1492402153.349,20.996,15.625,7.324,-2.930,8.301,0
1492402153.353,28.320,21.973,8.301,-9.277,-1.953,0
1492402153.356,36.133,20.508,6.836,-15.625,34.180,0
1492402153.360,21.484,22.461,9.277,-5.859,40.527,0
1492402153.364,19.531,19.531,12.207,-2.930,11.230,0
1492402153.368,4.395,17.090,9.277,1.465,43.945,0
1492402153.372,5.371,22.461,19.043,-1.953,64.453,0
1492402153.376,19.043,26.367,14.160,-20.508,1.953,0
1492402153.380,2.930,21.484,-6.836,-14.160,-2.441,0
1492402153.384,-7.812,13.672,-3.906,-8.789,17.578,0
1492402153.388,6.348,14.648,1.953,-8.301,5.371,0
1492402153.392,23.438,21.973,7.324,-12.207,41.016,0
1492402153.396,41.504,19.043,-4.883,-22.461,64.453,0
1492402153.399,25.879,16.602,-9.766,-25.391,32.715,0
1492402153.403,-10.254,24.902,-1.465,-11.230,6.348,0
1492402153.407,-1.465,19.531,-4.883,-12.207,10.254,0
1492402153.411,11.230,9.766,0.488,-20.996,41.992,0
1492402153.415,4.883,15.137,-1.953,-21.973,58.105,0
1492402153.419,8.301,15.625,-3.906,-3.906,1.953,0
1492402153.423,0.977,0.977,6.836,2.930,-23.438,0
1492402153.427,-1.953,0.000,1.953,-24.902,27.832,0
1492402153.431,-4.883,-2.441,-5.859,-15.625,23.926,0
1492402153.435,-11.719,-6.348,-0.977,3.906,-14.160,0
1492402153.438,3.906,5.371,0.000,-0.488,-6.348,0
1492402153.442,6.836,8.301,-2.930,-2.930,41.016,0
1492402153.446,11.230,1.953,-2.930,4.395,51.270,0
1492402153.450,20.996,10.742,-2.930,-0.977,22.461,0
1492402153.454,17.090,10.742,-2.930,-12.207,10.742,0
1492402153.458,17.090,8.301,-5.371,-14.648,15.137,0
1492402153.462,24.902,5.859,-0.977,-14.160,44.434,0
1492402153.466,14.648,5.371,8.301,-12.207,46.875,0
1492402153.470,-15.137,14.160,7.324,-16.602,6.836,0
1492402153.474,-18.066,15.625,2.930,-10.742,20.996,0
1492402153.478,-6.348,18.555,3.418,-13.184,47.852,0
1492402153.481,-12.695,22.949,0.977,-19.531,13.672,0
1492402153.485,-10.254,5.371,8.789,-9.766,2.930,0
1492402153.489,-7.812,2.930,15.625,-10.254,2.930,0
1492402153.493,-3.906,15.625,6.836,-8.789,14.160,0
1492402153.497,16.113,15.137,1.465,-8.789,49.805,0
1492402153.501,14.160,23.438,1.953,-14.160,40.039,0
1492402153.505,1.953,29.785,8.301,-25.391,22.949,0
1492402153.509,13.672,30.273,4.395,-27.832,31.738,0
1492402153.513,18.066,33.691,2.441,0.000,30.762,0
1492402153.517,19.043,35.645,8.789,0.977,11.719,0
1492402153.521,22.461,35.156,6.836,-15.137,15.625,0
1492402153.524,14.160,29.785,7.812,-10.254,27.344,0
1492402153.528,8.301,34.180,4.395,-5.371,22.461,0
1492402153.532,1.465,40.527,-2.930,-7.812,45.410,0
1492402153.536,14.648,41.016,-3.418,-15.137,44.434,0
1492402153.540,18.555,39.551,0.488,-21.973,1.953,0
1492402153.544,0.488,36.621,1.953,-20.020,18.555,0
1492402153.548,-18.555,41.992,-3.906,-19.043,35.645,0
1492402153.552,-16.113,47.852,-4.395,-26.367,4.395,0
1492402153.556,1.465,43.945,4.883,-20.508,20.508,0
1492402153.560,10.742,46.875,-4.395,-8.301,20.996,0
1492402153.563,27.344,53.711,-20.996,-12.695,9.766,0
1492402153.567,39.551,45.898,-17.090,-21.484,-3.418,0
1492402153.571,30.273,34.668,-6.348,-24.414,-24.902,0
1492402153.575,-7.812,29.785,-7.812,-14.648,17.090,0
1492402153.579,-24.902,26.855,-13.672,-1.953,43.945,0
1492402153.583,-10.254,34.180,-8.789,-10.254,13.672,0
1492402153.587,-3.418,28.809,0.488,-20.996,11.230,0
1492402153.591,0.488,26.855,-2.930,-18.555,30.273,0
1492402153.595,5.371,38.574,-11.230,-14.648,56.152,0
1492402153.599,-6.836,41.016,-7.812,-13.672,46.387,0
1492402153.603,-11.230,34.180,-6.348,-16.113,-8.301,0
1492402153.606,3.906,25.391,-6.836,-17.090,3.906,0
1492402153.610,0.000,22.949,-6.348,-11.719,32.227,0
1492402153.614,-10.742,25.879,-4.395,-8.301,4.395,0
1492402153.618,-8.789,25.391,-5.371,-20.508,-12.207,0
1492402153.622,-2.441,26.367,-6.348,-17.578,16.602,0
1492402153.626,11.230,32.715,-3.906,-19.531,23.438,0
1492402153.630,-1.953,40.039,-4.883,-26.367,25.879,0
1492402153.634,-20.508,26.367,-1.465,-8.301,33.691,0
1492402153.638,-13.184,16.113,3.418,-5.371,10.254,0
1492402153.642,-5.859,21.973,-6.836,-15.625,30.273,0
1492402153.646,-8.789,33.203,-10.254,-20.996,51.270,0
1492402153.649,0.000,39.551,-12.207,-17.090,30.762,0
1492402153.653,12.207,30.273,-13.184,-22.461,-4.395,0
1492402153.657,-4.395,22.461,-4.395,-19.531,-8.789,0
1492402153.661,-19.043,20.508,-1.465,-15.137,6.348,0
1492402153.665,-12.695,27.344,-5.371,-23.926,7.324,0
1492402153.669,-17.090,23.438,-12.207,-21.484,17.578,0
1492402153.673,-5.371,25.391,-6.348,-26.855,13.672,0
1492402153.677,2.441,26.855,1.953,-29.297,10.254,0
1492402153.681,-6.348,16.602,-6.348,-11.230,34.668,0
