timestamps,TP9,AF7,AF8,TP10,Right AUX,Marker0
1514208612.810,45.898,37.109,33.691,45.898,60.059,0
1514208612.814,48.340,44.434,42.480,51.270,29.297,0
1514208612.818,34.668,30.273,34.668,42.969,-8.789,0
1514208612.822,44.922,30.273,32.227,33.203,16.113,0
1514208612.826,69.824,60.059,53.223,50.293,32.715,0
1514208612.830,69.824,62.012,57.129,66.895,25.391,0
1514208612.833,53.223,40.527,40.039,51.270,2.930,0
1514208612.837,43.945,32.715,34.668,43.945,-18.066,0
1514208612.841,37.109,34.180,38.086,49.805,21.973,0
1514208612.845,31.738,33.691,37.109,52.734,44.922,0
1514208612.849,45.410,37.598,42.969,63.477,49.316,0
1514208612.853,56.641,41.992,47.363,73.242,27.832,0
1514208612.857,67.383,46.875,56.152,81.543,17.090,0
1514208612.861,82.520,44.434,57.129,73.730,39.551,0
1514208612.865,80.078,37.598,51.758,71.289,33.691,0
1514208612.869,75.684,37.598,53.711,83.984,14.160,0
1514208612.873,72.754,41.016,54.688,87.891,51.270,0
1514208612.876,65.918,33.691,50.293,78.613,53.711,0
1514208612.880,50.293,29.785,42.969,65.918,-11.230,0
1514208612.884,54.688,41.504,51.758,69.336,-41.992,0
1514208612.888,80.078,48.340,61.523,80.078,18.555,0
1514208612.892,73.242,39.551,52.734,73.242,70.312,0
1514208612.896,64.941,34.668,51.758,78.125,30.762,0
1514208612.900,77.148,41.504,65.430,102.051,13.672,0
1514208612.904,91.309,54.199,79.590,123.047,17.090,0
1514208612.908,88.379,50.781,80.566,122.070,28.320,0
1514208612.912,79.102,31.250,63.477,103.516,78.125,0
1514208612.915,73.730,30.762,56.641,93.262,72.754,0
1514208612.919,74.707,40.039,57.129,85.449,40.527,0
1514208612.923,70.801,40.527,53.223,77.637,10.254,0
1514208612.927,66.406,31.738,54.688,75.195,24.902,0
1514208612.931,59.082,26.855,50.293,72.266,58.105,0
1514208612.935,61.035,42.480,52.246,74.707,15.137,0
1514208612.939,54.688,44.434,50.293,67.383,-18.555,0
1514208612.943,64.453,43.945,54.688,75.195,27.344,0
1514208612.947,83.008,51.758,63.477,84.473,65.430,0
1514208612.951,73.730,49.316,62.012,79.102,44.922,0
1514208612.955,65.918,47.852,55.664,73.730,19.043,0
1514208612.958,61.523,47.852,49.316,67.383,26.367,0
1514208612.962,62.500,37.598,41.992,60.059,52.734,0
1514208612.966,63.965,40.527,38.086,55.664,51.758,0
1514208612.970,64.453,56.641,45.410,65.430,56.152,0
1514208612.974,57.129,46.387,35.645,53.711,37.109,0
1514208612.978,58.594,47.852,33.203,50.781,40.527,0
1514208612.982,46.387,44.922,29.785,47.852,13.672,0
1514208612.986,40.527,45.898,31.250,46.875,-24.414,0
1514208612.990,50.781,48.340,39.062,60.547,21.484,0
1514208612.994,52.734,47.852,39.062,63.965,68.359,0
1514208612.998,65.430,61.035,43.457,63.477,42.480,0
1514208613.001,62.988,52.734,36.621,51.758,-7.324,0
1514208613.005,53.223,49.316,32.715,47.363,13.672,0
1514208613.009,62.012,62.012,37.109,56.152,57.617,0
1514208613.013,52.246,60.059,33.203,53.711,57.617,0
1514208613.017,34.668,58.594,33.203,45.898,9.277,0
1514208613.021,33.203,62.500,41.016,49.805,14.648,0
1514208613.025,33.691,50.781,34.668,40.039,55.664,0
1514208613.029,31.250,35.156,22.949,25.391,47.852,0
1514208613.033,41.016,40.039,26.855,28.809,2.930,0
1514208613.037,49.316,43.945,30.273,38.574,-1.465,0
1514208613.040,39.551,38.574,28.320,46.875,20.996,0
1514208613.044,49.805,52.246,31.738,52.246,41.504,0
1514208613.048,39.062,55.176,26.855,47.363,23.438,0
1514208613.052,25.391,49.805,20.508,39.551,-16.113,0
1514208613.056,37.598,46.875,19.531,27.344,4.395,0
1514208613.060,50.781,50.781,30.273,36.621,33.691,0
1514208613.064,51.270,53.711,41.504,55.664,40.039,0
1514208613.068,45.898,48.340,36.133,52.246,24.414,0
1514208613.072,33.691,39.062,21.973,38.574,1.953,0
1514208613.076,27.344,37.109,21.973,37.109,0.488,0
1514208613.080,23.438,32.227,13.672,20.508,6.836,0
1514208613.083,11.230,27.832,3.906,2.441,-4.395,0
1514208613.087,32.715,43.945,21.484,19.043,-18.555,0
1514208613.091,47.363,41.016,32.227,28.809,6.836,0
1514208613.095,39.551,21.484,28.809,29.297,65.918,0
1514208613.099,36.133,17.090,26.855,24.902,45.410,0
1514208613.103,46.387,34.180,36.133,36.133,-15.137,0
1514208613.107,58.594,50.293,41.992,50.781,17.090,0
1514208613.111,49.805,34.180,26.855,37.109,53.711,0
1514208613.115,37.109,23.926,19.531,31.738,29.297,0
1514208613.119,23.926,25.391,17.578,41.992,-29.297,0
1514208613.123,18.555,21.973,16.113,49.805,-40.039,0
1514208613.126,39.551,28.809,29.297,51.758,31.250,0
1514208613.130,55.176,37.598,37.598,54.688,42.969,0
1514208613.134,63.477,49.805,49.805,69.824,-22.461,0
1514208613.138,59.570,47.363,46.875,64.941,-15.625,0
1514208613.142,47.852,28.809,29.297,35.156,50.293,0
1514208613.146,54.688,34.668,36.133,33.691,58.594,0
1514208613.150,48.828,37.109,37.598,35.156,22.949,0
1514208613.154,39.551,27.832,24.414,20.020,-4.883,0
1514208613.158,35.645,30.273,20.020,19.043,31.738,0
1514208613.162,36.133,34.668,26.855,29.297,54.688,0
1514208613.165,41.992,35.645,34.180,35.156,-0.488,0
1514208613.169,46.387,42.969,38.086,41.504,-22.949,0
1514208613.173,46.875,41.016,33.691,39.062,34.668,0
1514208613.177,46.387,33.203,28.320,32.227,67.871,0
1514208613.181,60.547,36.621,42.480,42.480,45.410,0
1514208613.185,70.801,46.875,54.688,56.152,33.203,0
1514208613.189,61.035,54.199,50.781,59.082,39.551,0
1514208613.193,52.246,45.898,36.621,45.410,43.457,0
1514208613.197,45.898,28.809,26.367,30.762,67.871,0
1514208613.201,39.551,21.973,25.879,26.855,32.227,0
1514208613.205,39.551,20.508,29.297,25.391,-23.926,0
1514208613.208,39.062,16.602,22.949,19.043,34.668,0
1514208613.212,35.645,19.043,19.531,21.484,63.965,0
1514208613.216,45.898,32.715,38.086,47.363,59.570,0
1514208613.220,57.129,42.480,48.828,65.918,14.648,0
1514208613.224,52.734,39.062,43.457,67.383,14.160,0
1514208613.228,53.223,37.598,43.457,72.754,57.129,0
1514208613.232,74.219,44.434,51.270,79.590,26.855,0
1514208613.236,67.383,37.598,50.293,75.195,-2.441,0
1514208613.240,40.527,18.066,33.691,52.246,8.789,0
1514208613.244,41.504,17.578,32.227,51.270,63.965,0
1514208613.248,51.270,23.926,42.480,66.406,65.430,0
1514208613.251,64.941,30.762,54.688,76.660,14.648,0
1514208613.255,73.242,32.227,61.523,87.891,-20.508,0
1514208613.259,60.547,23.438,48.340,83.496,34.668,0
1514208613.263,59.082,26.367,51.270,88.867,79.102,0
1514208613.267,61.523,31.738,62.012,98.145,23.926,0
1514208613.271,38.574,22.949,49.805,79.590,-9.277,0
1514208613.275,26.855,12.695,39.551,59.570,14.648,0
1514208613.279,33.691,16.113,42.969,60.059,41.992,0
1514208613.283,34.668,17.578,44.922,60.059,36.133,0
1514208613.287,17.578,10.254,40.039,54.688,19.531,0
1514208613.290,13.184,12.207,39.062,52.734,43.945,0
1514208613.294,43.457,29.785,50.293,57.617,83.984,0
1514208613.298,48.340,33.691,56.641,58.105,14.648,0
1514208613.302,37.109,33.203,59.082,60.547,-49.316,0
1514208613.306,41.016,38.086,60.547,61.035,16.602,0
1514208613.310,40.527,32.715,53.223,47.852,55.664,0
1514208613.314,29.785,19.043,48.828,35.156,25.879,0
1514208613.318,13.672,14.648,42.969,25.391,1.953,0
1514208613.322,6.836,13.672,43.457,21.973,22.461,0
1514208613.326,-11.230,4.883,38.086,17.578,49.805,0
1514208613.330,-17.090,9.766,34.668,14.648,51.758,0
1514208613.333,1.953,19.531,39.062,19.531,39.551,0
1514208613.337,27.344,34.668,52.246,40.527,20.020,0
1514208613.341,40.039,39.551,62.500,47.363,27.344,0
1514208613.345,35.645,32.715,58.105,38.574,58.105,0
1514208613.349,32.227,30.762,54.688,39.551,38.086,0
1514208613.353,23.926,18.555,39.062,27.344,5.371,0
1514208613.357,17.578,3.906,23.438,13.184,30.762,0
1514208613.361,37.109,21.484,41.504,37.109,16.113,0
1514208613.365,49.316,41.016,61.035,59.570,20.508,0
1514208613.369,39.551,30.273,50.293,44.434,32.227,0
1514208613.373,44.434,21.973,43.945,44.434,21.973,0
1514208613.376,49.805,20.996,50.781,56.152,48.340,0
1514208613.380,46.875,21.484,48.828,55.176,28.320,0
1514208613.384,44.434,28.809,45.898,62.988,19.531,0
1514208613.388,44.922,25.879,41.016,59.082,7.812,0
1514208613.392,43.945,19.531,30.762,52.246,0.000,0
1514208613.396,46.875,21.973,40.527,65.430,55.176,0
1514208613.400,50.781,27.832,50.293,74.219,54.199,0
1514208613.404,51.270,31.250,45.410,72.266,-9.277,0
1514208613.408,48.828,29.785,41.992,61.035,-10.254,0
1514208613.412,53.223,35.156,50.293,57.617,37.598,0
1514208613.415,46.387,38.574,52.246,64.941,52.734,0
1514208613.419,37.598,41.016,51.270,72.754,34.180,0
1514208613.423,46.387,36.133,47.852,69.824,45.410,0
1514208613.427,45.898,25.879,41.992,63.477,61.523,0
1514208613.431,43.945,30.762,47.363,58.594,88.379,0
1514208613.435,54.199,42.969,52.246,59.082,47.852,0
1514208613.439,36.621,31.250,36.621,42.969,-31.738,0
1514208613.443,25.391,20.020,28.809,32.715,31.250,0
1514208613.447,36.133,24.902,45.410,46.387,61.523,0
1514208613.451,27.832,25.391,47.363,43.457,3.418,0
1514208613.455,29.785,31.250,45.410,39.551,4.395,0
1514208613.458,40.039,37.598,52.246,45.898,38.574,0
1514208613.462,29.785,34.668,42.969,36.621,38.574,0
1514208613.466,7.812,18.555,26.855,19.043,15.137,0
1514208613.470,16.602,14.648,31.738,29.297,6.836,0
1514208613.474,47.363,34.180,50.781,42.969,51.758,0
1514208613.478,48.340,39.551,49.805,39.551,60.547,0
1514208613.482,20.020,19.043,38.086,30.273,27.344,0
1514208613.486,12.695,20.996,44.434,41.992,-0.488,0
1514208613.490,40.039,46.875,62.500,72.266,17.578,0
1514208613.494,41.016,46.387,52.734,62.500,28.320,0
1514208613.498,30.273,34.668,35.645,40.527,22.461,0
1514208613.501,26.855,22.949,24.902,29.297,30.762,0
1514208613.505,24.902,20.508,19.531,19.531,43.945,0
1514208613.509,33.203,22.949,23.926,26.367,39.551,0
1514208613.513,47.852,30.762,33.691,45.410,33.203,0
1514208613.517,61.035,40.527,41.992,53.711,39.062,0
1514208613.521,68.359,46.387,43.457,60.547,15.625,0
1514208613.525,70.801,33.691,36.621,54.199,31.250,0
1514208613.529,70.312,32.227,35.645,50.293,39.551,0
1514208613.533,75.195,51.270,47.363,61.035,41.016,0
1514208613.537,64.453,46.875,47.852,65.918,18.555,0
1514208613.540,60.059,34.180,36.621,63.477,20.020,0
1514208613.544,57.129,29.785,22.949,52.246,78.125,0
1514208613.548,56.641,40.527,30.762,57.617,58.594,0
1514208613.552,69.824,54.199,48.828,71.777,8.301,0
1514208613.556,62.988,38.086,33.691,58.105,-8.301,0
1514208613.560,39.062,15.137,13.184,31.738,19.043,0
1514208613.564,23.438,8.301,6.836,19.043,57.129,0
1514208613.568,35.645,22.461,25.391,34.668,16.602,0
1514208613.572,60.547,41.016,50.293,59.082,-6.348,0
1514208613.576,66.406,34.180,46.387,56.152,21.973,0
1514208613.580,57.617,22.461,41.504,45.898,47.852,0
1514208613.583,41.504,21.973,37.598,41.504,17.090,0
1514208613.587,25.879,27.344,31.738,32.227,-57.129,0
1514208613.591,16.113,22.949,33.203,20.508,-10.742,0
1514208613.595,18.555,22.461,38.574,26.855,67.383,0
1514208613.599,30.273,26.367,47.852,40.039,18.555,0
1514208613.603,31.250,23.926,46.875,48.828,-38.574,0
1514208613.607,34.180,28.809,46.875,54.199,7.324,0
1514208613.611,41.504,31.250,49.316,53.711,62.988,0
1514208613.615,33.203,28.809,45.898,51.758,47.363,0
1514208613.619,45.410,39.551,54.199,59.082,26.855,0
1514208613.623,49.316,38.574,55.176,58.594,42.969,0
1514208613.626,18.555,17.090,33.203,34.668,49.316,0
1514208613.630,7.812,8.789,29.785,33.691,18.555,0
1514208613.634,31.738,18.555,42.969,50.293,-7.324,0
1514208613.638,32.715,14.648,38.574,46.875,25.391,0
1514208613.642,35.156,20.508,38.574,46.875,53.711,0
1514208613.646,42.480,30.273,46.875,65.918,62.500,0
1514208613.650,39.551,21.973,40.039,67.871,38.574,0
1514208613.654,48.340,20.996,43.457,65.430,9.766,0
1514208613.658,50.781,25.391,48.828,67.383,35.645,0
1514208613.662,54.199,20.020,42.480,58.594,48.340,0
1514208613.665,58.594,20.020,44.434,62.012,48.340,0
1514208613.669,48.828,30.273,48.340,64.941,24.902,0
1514208613.673,46.875,37.598,53.223,69.824,-4.883,0
1514208613.677,64.453,50.293,72.266,90.332,17.090,0
1514208613.681,76.172,53.711,79.102,91.797,32.715,0
1514208613.685,58.594,32.715,54.199,65.430,13.184,0
1514208613.689,29.785,17.090,32.715,39.062,23.438,0
1514208613.693,25.879,19.531,32.227,36.621,62.500,0
1514208613.697,41.016,31.738,42.480,55.664,73.730,0
1514208613.701,38.086,32.715,42.480,53.711,26.855,0
1514208613.705,32.715,25.391,38.086,42.969,-19.043,0
1514208613.708,42.480,25.879,38.574,42.480,15.137,0
1514208613.712,41.504,23.438,35.645,41.504,43.457,0
1514208613.716,45.898,28.809,39.551,44.922,28.809,0
1514208613.720,67.871,49.316,57.129,55.664,-27.832,0
1514208613.724,59.570,37.598,49.805,44.922,-15.137,0
1514208613.728,25.391,1.465,20.020,22.461,43.457,0
1514208613.732,7.324,0.977,12.207,13.184,11.230,0
1514208613.736,20.996,26.855,26.367,20.508,-28.809,0
1514208613.740,33.691,39.062,41.504,34.668,-0.488,0
1514208613.744,21.973,35.645,41.016,26.855,38.086,0
1514208613.748,19.043,28.809,33.203,15.625,41.992,0
1514208613.751,26.855,33.203,36.133,29.785,-3.418,0
1514208613.755,23.438,35.645,41.504,37.109,-28.320,0
1514208613.759,40.039,42.480,51.758,36.621,28.809,0
1514208613.763,43.457,41.016,48.340,30.273,52.734,0
1514208613.767,23.438,20.020,36.621,27.832,30.273,0
1514208613.771,26.855,19.531,40.039,29.785,1.465,0
1514208613.775,26.367,24.414,41.016,33.203,38.574,0
1514208613.779,21.484,10.742,36.133,38.086,76.172,0
1514208613.783,25.879,2.930,34.180,33.203,23.438,0
1514208613.787,41.992,14.648,42.480,47.852,6.348,0
1514208613.790,45.898,24.902,50.781,67.383,18.555,0
1514208613.794,44.434,26.367,47.363,70.801,50.781,0
1514208613.798,62.988,41.504,58.105,91.797,46.875,0
1514208613.802,67.871,46.875,63.477,99.609,2.930,0
1514208613.806,46.387,27.344,42.480,70.801,25.391,0
1514208613.810,41.016,30.273,41.992,61.523,61.035,0
1514208613.814,44.922,40.039,49.316,66.895,44.922,0
1514208613.818,48.340,39.551,52.246,62.988,33.691,0
1514208613.822,37.109,31.738,49.805,52.246,35.645,0
1514208613.826,25.879,22.461,38.574,41.992,12.207,0
1514208613.830,42.480,30.762,45.410,51.270,28.809,0
1514208613.833,37.598,24.902,41.504,48.340,39.551,0
1514208613.837,37.598,23.438,41.992,44.434,18.555,0
1514208613.841,61.523,33.203,56.641,62.988,40.039,0
1514208613.845,54.688,35.645,58.594,70.312,64.941,0
1514208613.849,23.926,34.668,48.828,55.176,41.504,0
1514208613.853,8.789,21.484,34.180,38.086,-4.395,0
1514208613.857,11.230,7.812,27.832,20.996,10.254,0
1514208613.861,22.461,13.184,33.691,18.066,41.504,0
1514208613.865,31.738,32.227,46.387,32.227,37.598,0
1514208613.869,22.461,32.715,43.945,27.832,-2.930,0
1514208613.873,23.926,22.949,35.156,20.020,-11.719,0
1514208613.876,46.387,24.902,39.551,28.809,53.223,0
1514208613.880,52.734,32.227,50.293,39.062,75.684,0
1514208613.884,38.086,31.250,41.992,28.320,22.949,0
1514208613.888,19.043,26.855,30.762,14.648,-5.859,0
1514208613.892,27.344,31.738,41.504,22.461,32.715,0
1514208613.896,31.738,29.297,41.016,22.461,45.898,0
1514208613.900,16.113,21.484,35.645,17.090,39.062,0
1514208613.904,17.090,14.648,41.992,18.066,38.574,0
1514208613.908,19.531,7.812,40.527,20.508,15.137,0
1514208613.912,20.508,21.484,43.945,36.133,43.945,0
1514208613.915,35.156,35.156,56.641,47.852,19.043,0
1514208613.919,42.969,32.715,60.059,50.293,18.555,0
1514208613.923,28.320,14.160,41.504,41.992,48.340,0
1514208613.927,21.973,4.395,34.180,41.504,52.246,0
1514208613.931,22.461,13.184,39.551,52.734,35.645,0
1514208613.935,36.133,21.484,46.387,57.617,7.324,0
1514208613.939,40.527,17.090,41.504,41.992,23.438,0
1514208613.943,28.809,8.301,28.809,28.809,50.293,0
1514208613.947,35.645,19.043,42.480,45.898,59.082,0
1514208613.951,41.992,29.297,52.246,59.082,34.668,0
1514208613.955,32.715,25.879,43.945,56.641,18.555,0
1514208613.958,26.855,21.484,45.410,59.570,8.301,0
1514208613.962,32.715,24.902,49.316,54.688,-11.230,0
1514208613.966,22.949,21.484,36.621,36.621,10.254,0
1514208613.970,20.020,7.324,31.250,40.039,42.480,0
1514208613.974,27.832,3.906,31.738,46.875,46.875,0
1514208613.978,32.715,3.906,26.367,35.156,31.250,0
1514208613.982,38.574,7.324,33.691,37.109,41.016,0
1514208613.986,43.457,25.879,47.852,49.805,35.156,0
1514208613.990,50.781,34.668,52.246,55.176,12.695,0
1514208613.994,52.246,37.598,48.340,56.641,42.480,0
1514208613.998,38.086,37.109,44.922,52.246,29.297,0
1514208614.001,20.996,22.949,32.227,32.227,8.301,0
1514208614.005,17.578,16.602,24.414,19.531,12.695,0
1514208614.009,21.973,19.043,27.344,17.090,13.672,0
1514208614.013,21.484,19.531,29.297,12.695,41.504,0
1514208614.017,30.273,27.344,34.180,16.602,14.648,0
1514208614.021,38.086,31.250,39.062,16.602,-23.926,0
1514208614.025,41.016,30.762,40.039,16.602,10.742,0
1514208614.029,42.480,28.320,31.738,11.719,78.125,0
1514208614.033,38.574,35.156,30.273,4.395,86.426,0
1514208614.037,50.293,45.410,38.086,7.812,44.922,0
1514208614.040,50.781,29.785,34.180,8.789,55.664,0
1514208614.044,31.738,17.578,21.484,1.465,76.172,0
1514208614.048,12.695,23.438,16.602,-6.836,55.176,0
1514208614.052,17.090,28.809,24.414,4.883,18.066,0
1514208614.056,26.855,31.738,35.645,14.648,5.859,0
1514208614.060,24.902,43.457,41.504,22.949,43.945,1
1514208614.064,31.738,61.523,46.387,35.645,49.316,0
1514208614.068,47.363,72.754,56.152,40.527,2.441,0
1514208614.072,38.086,58.105,46.387,29.785,15.137,0
1514208614.076,29.297,28.809,22.461,6.836,47.363,0
1514208614.080,37.109,22.949,23.926,11.230,64.941,0
1514208614.083,27.832,26.367,31.738,20.996,44.922,0
1514208614.087,15.625,23.926,25.391,22.949,38.086,0
1514208614.091,9.766,20.508,24.414,26.367,74.707,0
1514208614.095,10.742,22.461,32.227,26.855,97.168,0
1514208614.099,5.371,17.090,35.156,28.809,52.734,0
1514208614.103,15.137,18.555,36.621,35.156,28.809,0
1514208614.107,41.504,47.363,51.270,60.059,47.852,0
1514208614.111,47.363,54.199,62.988,72.266,43.457,0
1514208614.115,41.016,40.039,48.828,61.523,36.133,0
1514208614.119,33.691,32.715,37.598,58.594,24.414,0
1514208614.123,24.414,20.020,29.297,43.457,14.648,0
1514208614.126,18.555,18.555,22.949,28.320,50.293,0
1514208614.130,19.043,25.879,21.973,27.344,60.059,0
1514208614.134,21.973,30.273,24.902,31.738,30.762,0
1514208614.138,18.066,29.785,30.762,34.180,11.230,0
1514208614.142,15.625,27.832,29.297,23.926,32.227,0
1514208614.146,25.391,34.180,37.109,27.344,74.219,0
1514208614.150,41.992,46.387,51.270,42.969,38.574,0
1514208614.154,41.992,43.457,47.852,39.062,-17.090,0
1514208614.158,30.273,33.691,35.156,19.043,-6.836,0
1514208614.162,21.484,16.602,25.391,-1.465,46.387,0
1514208614.165,18.555,17.090,30.273,-3.418,33.203,0
1514208614.169,10.742,24.414,27.832,-0.488,-3.906,0
1514208614.173,-3.418,20.996,20.996,3.418,33.691,0
1514208614.177,6.836,28.320,28.809,18.555,44.434,0
1514208614.181,2.441,26.367,29.785,18.066,19.531,0
1514208614.185,9.766,40.039,46.387,29.297,9.277,0
1514208614.189,30.273,43.945,50.781,29.785,0.977,0
1514208614.193,27.344,34.668,41.016,14.648,58.105,0
1514208614.197,19.531,24.414,31.250,3.906,62.500,0
1514208614.201,15.137,20.020,26.367,-0.488,-7.812,0
1514208614.205,20.508,26.367,32.715,14.160,11.230,0
1514208614.208,16.602,19.531,30.762,16.113,75.195,0
1514208614.212,8.789,10.254,25.391,12.207,62.988,0
1514208614.216,-0.488,5.371,21.484,3.418,-3.906,0
1514208614.220,-4.395,8.301,22.461,-2.441,7.324,0
1514208614.224,7.812,19.531,35.645,19.531,45.898,0
1514208614.228,23.926,23.438,48.828,36.621,41.504,0
1514208614.232,26.367,20.508,50.293,42.969,23.926,0
1514208614.236,37.598,31.250,48.828,44.434,-2.930,0
1514208614.240,35.156,31.250,44.922,41.992,13.672,0
1514208614.244,20.020,16.602,35.156,38.574,50.293,0
1514208614.248,20.508,11.230,27.832,33.691,33.691,0
1514208614.251,20.020,16.602,32.715,38.086,44.922,0
1514208614.255,24.414,10.742,32.715,43.945,35.156,0
1514208614.259,32.715,1.465,25.391,40.039,14.648,0
1514208614.263,21.484,4.395,27.832,39.062,35.645,0
1514208614.267,27.832,23.438,40.039,45.898,16.113,0
1514208614.271,37.598,30.273,43.945,59.570,-1.465,0
1514208614.275,27.344,20.508,41.504,61.523,44.922,0
1514208614.279,27.832,19.043,43.945,49.805,81.055,0
1514208614.283,40.527,30.273,53.711,55.664,46.387,0
1514208614.287,25.391,22.461,43.457,48.340,4.395,0
1514208614.290,19.043,14.648,38.574,41.016,4.883,0
1514208614.294,26.855,21.484,43.945,43.945,36.133,0
1514208614.298,26.855,23.438,40.039,41.992,44.922,0
1514208614.302,35.645,28.320,43.945,47.363,30.762,0
1514208614.306,46.387,34.668,50.293,52.734,16.113,0
1514208614.310,51.758,38.574,51.270,62.012,38.574,0
1514208614.314,31.738,29.297,41.504,52.246,38.086,0
1514208614.318,0.488,9.766,22.461,26.855,-7.812,0
1514208614.322,25.391,20.996,31.738,37.109,-17.090,0
1514208614.326,53.711,28.809,43.945,51.758,34.180,0
1514208614.330,47.852,18.066,37.109,43.945,45.898,0
1514208614.333,33.691,23.926,33.691,30.273,-6.836,0
1514208614.337,30.762,33.691,37.109,29.785,-34.668,0
1514208614.341,46.875,40.039,50.293,51.270,8.789,0
1514208614.345,51.270,40.039,51.270,56.641,69.336,0
1514208614.349,38.086,32.715,42.480,47.852,41.016,0
1514208614.353,26.855,13.672,29.785,28.320,5.371,0
1514208614.357,34.668,5.859,32.715,30.762,45.410,0
1514208614.361,45.898,25.391,47.363,56.641,72.266,0
1514208614.365,46.875,38.574,51.270,68.359,37.109,0
1514208614.369,43.945,26.855,43.457,59.082,-8.789,0
1514208614.373,44.922,24.414,41.016,53.711,-1.953,0
1514208614.376,54.199,41.016,48.828,57.129,17.578,0
1514208614.380,55.176,42.969,50.781,59.570,14.160,0
1514208614.384,43.457,33.691,37.598,51.270,-17.090,0
1514208614.388,40.039,23.438,23.926,35.645,-1.953,0
1514208614.392,33.203,13.184,17.578,27.344,51.270,0
1514208614.396,35.645,22.949,31.250,42.480,84.961,0
1514208614.400,44.434,21.973,36.133,47.363,45.898,0
1514208614.404,41.504,18.066,34.180,41.504,9.277,0
1514208614.408,39.551,28.320,45.410,53.711,33.691,0
1514208614.412,50.781,31.738,52.734,59.570,63.477,0
1514208614.415,46.875,21.973,45.898,51.270,59.082,0
1514208614.419,43.457,27.832,50.293,51.270,38.574,0
1514208614.423,54.199,37.598,54.688,56.641,5.371,0
1514208614.427,43.457,20.996,40.039,50.293,-2.441,0
1514208614.431,23.438,9.277,29.297,34.668,27.344,0
1514208614.435,22.461,9.766,29.785,38.574,41.992,0
1514208614.439,41.016,26.367,43.945,53.711,5.371,0
1514208614.443,62.012,43.945,57.129,67.383,11.230,0
1514208614.447,59.570,29.297,55.176,59.570,45.898,0
1514208614.451,35.645,4.395,35.156,34.668,45.898,0
1514208614.455,39.551,18.066,38.086,47.363,31.738,0
1514208614.458,53.711,42.969,52.734,65.918,29.297,0
1514208614.462,52.246,36.621,46.875,60.059,54.688,0
1514208614.466,39.062,24.902,41.992,54.199,14.160,0
1514208614.470,22.461,7.324,31.738,44.922,-20.508,0
1514208614.474,24.414,2.441,29.785,41.504,5.371,0
1514208614.478,42.969,22.461,39.551,50.781,36.133,0
1514208614.482,52.246,32.715,44.434,53.223,11.230,0
1514208614.486,59.570,34.180,47.363,59.570,-13.184,0
1514208614.490,74.219,57.617,67.871,84.473,25.879,0
1514208614.494,66.406,63.477,69.336,84.961,57.129,0
1514208614.498,65.430,38.574,47.852,68.848,38.574,0
1514208614.501,66.895,28.320,40.527,61.523,10.742,0
1514208614.505,45.898,20.996,33.691,57.617,-0.488,0
1514208614.509,41.992,20.508,33.203,56.152,34.180,0
1514208614.513,46.875,18.066,30.273,50.781,37.109,0
1514208614.517,50.293,20.996,35.156,58.594,-29.785,0
1514208614.521,72.754,38.086,50.293,72.266,-38.574,0
1514208614.525,83.008,44.434,49.316,71.289,25.391,0
1514208614.529,77.637,41.016,50.293,64.941,33.691,0
1514208614.533,71.289,41.504,53.711,70.312,-25.391,0
1514208614.537,65.918,42.480,53.711,80.078,-27.832,0
1514208614.540,60.547,35.156,50.781,74.219,17.578,0
1514208614.544,56.641,36.621,51.270,66.895,52.246,0
1514208614.548,48.340,37.109,46.875,56.152,48.828,0
1514208614.552,39.551,24.902,38.086,40.039,12.695,0
1514208614.556,48.340,29.297,41.992,41.016,19.531,0
1514208614.560,60.059,41.016,45.898,55.176,50.781,0
1514208614.564,51.270,39.062,47.363,59.570,59.570,0
1514208614.568,41.504,35.645,46.875,50.293,31.250,0
1514208614.572,41.504,31.250,41.992,44.434,5.859,0
1514208614.576,32.715,17.578,33.203,35.645,18.066,0
1514208614.580,34.180,16.113,36.621,32.715,51.758,0
1514208614.583,50.781,33.691,51.758,49.316,45.898,0
1514208614.587,47.852,23.438,38.574,42.969,-0.977,0
1514208614.591,41.504,13.184,30.273,31.738,-7.812,0
1514208614.595,32.227,22.461,35.645,41.992,48.828,0
1514208614.599,25.391,33.203,40.527,52.734,25.391,0
1514208614.603,51.270,41.992,55.664,71.777,-24.414,0
1514208614.607,54.688,32.227,53.223,71.777,16.602,0
1514208614.611,40.039,26.367,45.410,56.641,44.434,0
1514208614.615,28.809,17.578,38.574,45.898,33.691,0
1514208614.619,30.762,16.602,37.598,47.852,-3.418,0
1514208614.623,34.668,19.043,42.480,52.246,-14.648,0
1514208614.626,41.504,26.855,49.316,60.059,67.871,0
1514208614.630,45.410,42.969,57.129,67.871,90.332,0
1514208614.634,31.738,21.484,44.434,51.758,22.461,0
1514208614.638,27.832,10.742,41.504,46.875,8.301,0
1514208614.642,36.133,25.391,51.270,54.199,51.270,0
1514208614.646,35.645,22.461,43.457,41.992,43.945,0
1514208614.650,27.344,15.625,31.250,33.691,1.953,0
1514208614.654,26.855,16.602,28.809,41.016,-22.949,0
1514208614.658,37.109,20.020,33.691,49.316,10.254,0
1514208614.662,41.016,16.602,37.598,49.316,41.016,0
1514208614.665,37.109,26.367,41.992,56.641,1.465,0
1514208614.669,40.527,42.969,51.270,73.242,1.465,0
1514208614.673,62.012,48.828,64.453,84.961,22.461,0
1514208614.677,59.082,36.621,58.105,69.824,37.598,0
1514208614.681,37.109,23.926,47.363,54.199,61.035,0
1514208614.685,25.879,18.555,44.922,52.246,55.664,0
1514208614.689,8.301,-5.859,29.785,33.691,22.461,0
1514208614.693,1.465,-14.648,23.438,18.066,33.691,0
1514208614.697,24.902,17.578,40.039,26.855,73.242,0
1514208614.701,38.574,34.668,50.293,34.180,33.203,0
1514208614.705,38.086,25.879,43.945,30.762,24.414,0
1514208614.708,39.062,26.855,42.969,38.086,52.246,0
1514208614.712,41.016,33.203,54.199,54.199,34.668,0
1514208614.716,48.340,37.598,60.547,57.617,30.762,0
1514208614.720,44.922,38.574,55.176,55.176,16.113,0
1514208614.724,27.344,17.578,34.668,32.715,3.418,0
1514208614.728,22.949,3.418,21.973,20.996,29.785,0
1514208614.732,37.109,16.113,33.691,26.367,18.555,0
1514208614.736,36.133,25.391,33.691,17.578,-18.066,0
1514208614.740,33.203,27.344,32.227,21.484,0.977,0
1514208614.744,46.387,29.297,37.598,35.156,44.922,0
1514208614.748,33.691,21.973,24.414,27.344,39.551,0
1514208614.751,39.062,26.367,27.344,26.855,0.488,0
1514208614.755,68.848,54.688,52.734,48.828,-6.348,0
1514208614.759,60.547,43.457,39.551,36.621,40.527,0
1514208614.763,39.551,24.414,20.996,21.484,54.199,0
1514208614.767,41.504,35.645,29.785,35.156,9.766,0
1514208614.771,32.715,28.809,27.344,36.621,4.883,0
1514208614.775,32.715,19.043,20.508,30.762,36.133,0
1514208614.779,41.504,26.367,28.809,40.039,60.059,0
1514208614.783,41.504,30.762,36.621,49.805,71.289,0
1514208614.787,48.828,35.156,39.062,51.270,18.555,0
1514208614.790,51.758,51.270,55.664,68.359,1.953,0
1514208614.794,64.941,64.941,70.312,82.520,52.246,0
1514208614.798,57.129,50.781,59.570,73.242,45.898,0
1514208614.802,40.527,27.832,47.363,55.176,-14.160,0
1514208614.806,40.527,19.043,35.156,34.180,1.465,0
1514208614.810,41.504,26.855,29.785,27.344,56.152,0
1514208614.814,46.387,41.016,41.992,49.316,48.340,0
1514208614.818,52.246,38.086,47.363,60.059,-0.488,0
1514208614.822,43.945,21.484,38.086,44.434,19.531,0
1514208614.826,35.156,19.531,36.133,43.457,69.824,0
1514208614.830,45.410,35.156,51.270,67.871,45.410,0
1514208614.833,58.105,44.922,60.547,78.125,25.391,0
1514208614.837,52.246,40.039,51.270,62.988,20.996,0
1514208614.841,47.363,31.738,41.504,55.664,40.527,0
1514208614.845,57.129,27.832,38.086,60.547,47.852,0
1514208614.849,44.434,23.438,31.250,57.129,23.926,0
1514208614.853,49.316,32.227,37.109,60.547,10.742,0
1514208614.857,70.312,44.922,51.270,72.266,6.836,0
1514208614.861,67.383,33.691,49.805,65.918,-6.836,0
1514208614.865,63.477,32.227,45.898,58.105,29.297,0
1514208614.869,63.477,42.969,49.805,66.895,44.922,0
1514208614.873,63.477,41.992,51.758,65.430,13.672,0
1514208614.876,60.547,37.109,52.246,62.012,36.133,0
1514208614.880,58.105,27.344,45.898,52.734,43.945,0
1514208614.884,52.246,25.391,41.992,41.992,39.062,0
1514208614.888,49.805,29.297,40.039,37.109,15.625,0
1514208614.892,45.410,27.832,36.621,32.227,22.461,0
1514208614.896,36.621,26.367,39.062,35.156,58.105,0
1514208614.900,31.250,29.785,46.387,42.480,47.363,0
1514208614.904,35.645,39.062,56.641,53.223,-5.859,0
1514208614.908,44.922,33.691,52.734,46.387,-10.742,0
1514208614.912,39.062,16.113,40.527,27.344,69.336,0
1514208614.915,33.691,16.113,45.898,27.832,64.941,0
1514208614.919,30.273,21.484,55.664,41.504,-12.207,0
1514208614.923,43.457,25.391,60.059,53.711,6.348,0
1514208614.927,54.688,26.855,56.641,56.641,82.031,0
1514208614.931,48.828,27.832,55.176,64.453,46.875,0
1514208614.935,55.176,37.598,61.523,67.383,-1.953,0
1514208614.939,49.316,28.809,52.734,51.758,20.996,0
1514208614.943,61.035,27.832,52.734,57.129,37.598,0
1514208614.947,65.430,27.344,51.758,62.500,29.785,0
1514208614.951,53.711,11.719,39.551,56.152,-15.625,0
1514208614.955,58.594,20.508,49.805,68.359,-5.371,0
1514208614.958,53.223,20.508,50.293,67.871,57.129,0
1514208614.962,54.199,18.066,51.758,73.242,65.918,0
1514208614.966,64.941,38.574,67.871,94.238,33.203,0
1514208614.970,50.781,34.180,57.129,77.637,-9.766,0
1514208614.974,44.434,30.762,57.617,82.031,14.160,0
1514208614.978,62.500,41.504,74.219,101.074,69.336,0
1514208614.982,39.062,25.391,56.641,75.684,50.781,0
1514208614.986,16.602,14.648,41.016,59.570,9.766,0
1514208614.990,29.785,9.277,39.551,60.547,10.254,0
1514208614.994,34.180,11.230,42.480,64.941,50.293,0
1514208614.998,41.504,29.297,55.176,79.590,28.320,0
1514208615.001,55.176,39.062,63.477,85.449,4.883,0
1514208615.005,44.922,25.391,48.828,64.453,36.133,0
1514208615.009,35.645,17.090,41.504,54.688,31.738,0
1514208615.013,46.387,33.203,55.664,68.848,24.902,0
1514208615.017,39.551,31.738,49.805,61.523,47.363,0
1514208615.021,26.855,21.973,35.645,43.457,15.137,0
1514208615.025,24.902,23.438,38.086,48.828,25.879,0
1514208615.029,32.715,27.832,39.062,52.734,68.359,0
1514208615.033,40.527,32.227,39.551,48.340,53.223,0
1514208615.037,42.969,32.227,43.945,48.828,11.230,0
1514208615.040,39.062,21.484,42.480,48.828,23.438,0
1514208615.044,43.945,29.297,47.852,55.176,47.363,0
1514208615.048,51.758,40.527,62.012,62.500,40.039,0
1514208615.052,48.828,40.527,66.406,64.453,-3.906,0
1514208615.056,32.227,36.133,47.363,49.316,19.531,0
1514208615.060,16.113,19.043,25.879,27.832,91.797,0
1514208615.064,28.809,23.926,35.645,37.598,78.125,0
1514208615.068,31.250,28.809,42.969,39.551,21.484,0
1514208615.072,22.461,18.066,33.203,23.926,-6.348,0
1514208615.076,32.715,25.391,38.086,31.250,22.461,0
1514208615.080,43.945,31.250,44.922,43.457,72.754,0
1514208615.083,38.574,23.438,35.156,45.410,44.922,0
1514208615.087,27.344,20.508,29.785,45.898,-18.555,0
1514208615.091,37.598,25.391,36.621,53.711,20.996,0
1514208615.095,75.684,45.898,59.082,78.125,73.242,0
1514208615.099,76.172,52.734,69.336,82.031,53.223,0
1514208615.103,48.340,33.203,50.293,49.316,7.812,0
1514208615.107,37.109,25.879,38.574,35.645,41.504,0
1514208615.111,29.297,19.043,33.203,31.738,89.355,0
1514208615.115,24.414,19.531,33.203,26.855,46.387,0
1514208615.119,33.691,26.855,41.504,36.621,15.137,0
1514208615.123,45.898,28.809,43.457,44.434,24.414,0
1514208615.126,49.316,32.715,41.504,47.852,0.000,0
1514208615.130,41.016,34.668,45.410,46.875,7.812,0
1514208615.134,40.039,36.133,53.223,42.969,1.953,0
1514208615.138,51.270,40.527,61.523,52.246,-5.859,0
1514208615.142,52.734,41.504,63.477,59.082,28.809,0
1514208615.146,42.480,28.809,53.711,48.340,10.254,0
1514208615.150,36.133,14.160,40.527,24.414,-9.766,0
1514208615.154,26.367,7.324,36.133,18.555,-5.859,0
1514208615.158,24.414,12.207,36.621,26.367,10.254,0
1514208615.162,30.762,20.020,41.504,26.855,27.344,0
1514208615.165,42.480,31.738,55.664,46.387,21.484,0
1514208615.169,44.434,26.855,52.734,54.199,14.160,0
1514208615.173,44.434,16.113,42.480,43.945,4.395,0
1514208615.177,57.617,28.320,48.828,56.152,16.602,0
1514208615.181,63.477,26.855,46.387,50.293,43.457,0
1514208615.185,50.293,13.672,39.062,38.086,22.461,0
1514208615.189,51.758,27.344,48.340,48.828,-26.855,0
1514208615.193,68.359,39.062,53.711,54.688,6.348,0
1514208615.197,72.754,34.668,54.199,59.082,61.523,0
1514208615.201,68.359,33.691,60.059,61.035,23.926,0
1514208615.205,74.219,31.738,57.617,55.176,-18.066,0
1514208615.208,70.801,34.180,48.828,53.223,10.742,0
1514208615.212,60.059,44.922,52.246,60.547,39.551,0
1514208615.216,56.152,46.875,53.711,59.570,46.387,0
1514208615.220,45.898,30.273,41.016,45.898,5.371,0
1514208615.224,43.945,22.949,38.574,42.969,0.488,0
1514208615.228,58.594,37.598,54.688,59.570,24.414,0
1514208615.232,64.453,39.551,59.082,67.871,16.602,0
1514208615.236,55.176,22.949,48.340,53.223,-9.766,0
1514208615.240,61.523,25.879,52.246,48.828,-18.555,0
1514208615.244,68.359,34.180,53.223,57.129,34.180,0
1514208615.248,46.387,25.879,46.387,56.641,33.691,0
1514208615.251,33.691,16.602,41.992,48.340,-13.184,0
1514208615.255,42.480,24.414,47.363,51.270,8.789,0
1514208615.259,49.805,33.203,57.617,61.523,61.523,0
1514208615.263,58.105,38.574,66.406,71.777,79.590,0
1514208615.267,56.641,35.645,63.965,69.336,9.277,0
1514208615.271,32.227,10.254,40.527,45.410,-5.859,0
1514208615.275,28.809,15.625,43.945,48.340,48.340,0
1514208615.279,34.668,19.043,49.316,52.734,52.246,0
1514208615.283,28.320,15.137,47.852,57.129,21.484,0
1514208615.287,26.855,20.020,53.223,63.965,21.484,0
1514208615.290,24.414,12.695,44.922,51.758,29.297,0
1514208615.294,21.973,13.672,45.898,45.898,34.180,0
1514208615.298,17.090,16.113,52.734,50.293,38.086,0
1514208615.302,42.969,20.020,60.547,62.500,22.949,0
1514208615.306,52.734,19.531,57.617,52.734,29.785,0
1514208615.310,30.273,15.137,49.316,41.016,34.668,0
1514208615.314,34.180,32.715,61.035,56.641,41.016,0
1514208615.318,16.602,27.344,52.734,51.270,22.949,0
1514208615.322,-1.465,3.418,33.203,29.785,1.953,0
1514208615.326,10.254,4.883,37.109,29.297,-0.977,0
1514208615.330,8.301,13.672,43.945,30.273,16.602,0
1514208615.333,5.859,9.277,40.039,22.461,32.227,2
1514208615.337,11.230,11.230,40.527,32.227,-7.324,0
1514208615.341,37.598,28.809,52.734,48.340,-9.277,0
1514208615.345,48.340,25.391,52.246,44.922,20.020,0
1514208615.349,40.039,20.996,45.898,29.785,36.133,0
1514208615.353,46.875,35.645,52.734,36.621,19.043,0
1514208615.357,54.199,38.086,60.059,57.129,16.602,0
1514208615.361,57.617,43.945,64.453,68.848,22.461,0
1514208615.365,39.062,33.203,50.781,46.387,11.230,0
1514208615.369,25.879,14.648,39.062,18.066,-7.812,0
1514208615.373,37.598,20.020,45.410,17.578,-6.348,0
1514208615.376,37.598,19.043,41.016,22.461,56.641,0
1514208615.380,37.598,19.531,48.828,29.297,64.453,0
1514208615.384,33.203,20.020,51.270,28.809,-8.301,0
1514208615.388,31.250,19.043,44.922,24.902,-41.504,0
1514208615.392,36.133,12.695,50.781,33.203,15.625,0
1514208615.396,51.270,25.391,71.289,53.223,55.664,0
1514208615.400,68.359,46.387,87.891,70.312,25.879,0
1514208615.404,65.918,41.504,78.613,68.848,0.000,0
1514208615.408,70.801,38.086,74.219,64.453,51.270,0
1514208615.412,54.199,29.297,68.848,60.059,65.918,0
1514208615.415,30.762,20.996,62.988,49.805,-11.719,0
1514208615.419,26.855,16.602,59.570,41.504,-24.414,0
1514208615.423,26.367,9.277,52.734,41.016,12.207,0
1514208615.427,27.344,9.766,56.641,44.922,47.852,0
1514208615.431,21.484,20.020,65.430,52.246,45.898,0
1514208615.435,30.762,31.250,74.219,58.105,12.695,0
1514208615.439,37.109,28.809,77.148,52.246,12.695,0
1514208615.443,34.180,22.949,68.359,42.969,47.363,0
1514208615.447,38.574,30.273,71.289,51.758,62.988,0
1514208615.451,27.832,30.273,72.754,55.664,35.156,0
1514208615.455,18.555,12.695,59.082,48.828,1.465,0
1514208615.458,20.020,8.789,46.387,35.645,2.930,0
1514208615.462,26.855,29.785,49.316,34.668,38.574,0
1514208615.466,33.691,31.738,48.828,36.621,59.570,0
1514208615.470,39.551,27.832,48.340,40.039,13.672,0
1514208615.474,31.738,20.508,44.922,38.086,5.859,0
1514208615.478,24.414,15.137,43.945,31.738,50.293,0
1514208615.482,31.250,26.367,55.664,39.062,82.031,0
1514208615.486,21.973,16.602,53.711,37.598,36.621,0
1514208615.490,24.902,6.836,51.758,32.715,-6.836,0
1514208615.494,28.809,20.020,55.664,39.551,40.527,0
1514208615.498,20.020,20.020,48.340,34.180,43.457,0
1514208615.501,13.672,13.184,43.945,27.344,-3.906,0
1514208615.505,20.996,19.043,51.758,35.156,-6.836,0
1514208615.509,38.086,23.438,58.105,38.574,32.715,0
1514208615.513,34.668,24.414,56.152,38.574,74.219,0
1514208615.517,29.785,22.949,54.688,33.691,50.293,0
1514208615.521,41.016,17.578,52.734,36.133,12.695,0
1514208615.525,40.039,12.207,46.875,36.621,39.062,0
1514208615.529,43.457,19.531,49.316,43.945,58.105,0
1514208615.533,53.711,30.273,57.617,59.570,40.527,0
1514208615.537,57.129,37.598,64.453,67.871,0.977,0
1514208615.540,58.105,32.715,62.012,67.871,7.324,0
1514208615.544,57.617,21.484,56.152,55.664,63.477,0
1514208615.548,48.828,26.367,61.523,55.176,25.391,0
1514208615.552,32.715,22.949,59.570,53.223,-27.344,0
1514208615.556,31.250,11.719,51.758,46.875,15.625,0
1514208615.560,33.691,4.883,46.387,39.062,64.941,0
1514208615.564,27.832,13.184,52.246,39.062,52.734,0
1514208615.568,37.109,33.203,67.383,56.641,13.184,0
1514208615.572,48.828,32.715,69.336,62.500,15.625,0
1514208615.576,64.941,34.180,65.918,61.523,46.387,0
1514208615.580,81.055,46.875,76.660,71.777,67.871,0
1514208615.583,74.707,46.387,79.102,65.430,11.230,0
1514208615.587,49.316,25.879,59.570,43.945,-21.484,0
1514208615.591,23.438,8.789,44.922,43.457,24.902,0
1514208615.595,10.742,7.812,37.598,39.062,46.875,0
1514208615.599,24.902,23.438,41.016,34.180,25.879,0
1514208615.603,18.066,29.785,50.293,35.645,-0.977,0
1514208615.607,12.695,20.508,45.898,33.203,6.348,0
1514208615.611,36.133,30.273,48.828,35.156,-1.465,0
1514208615.615,45.898,41.504,61.523,34.668,15.137,0
1514208615.619,43.457,35.645,61.035,24.902,29.785,0
1514208615.623,37.109,33.203,56.152,25.879,16.602,0
1514208615.626,42.480,36.621,59.082,30.762,26.367,0
1514208615.630,46.875,32.715,55.176,32.715,72.266,0
1514208615.634,40.039,34.180,49.316,28.809,65.918,0
1514208615.638,22.949,22.949,40.039,16.602,19.043,0
1514208615.642,15.625,12.207,37.109,17.090,41.016,0
1514208615.646,21.973,13.184,36.133,11.719,61.523,0
1514208615.650,19.531,16.113,35.645,13.184,12.207,0
1514208615.654,35.156,34.180,48.340,32.715,-21.973,0
1514208615.658,46.387,40.039,55.176,41.016,-5.371,0
1514208615.662,57.129,41.992,59.082,55.664,50.781,0
1514208615.665,69.824,49.805,73.730,72.266,73.730,0
1514208615.669,59.570,50.781,69.336,59.570,6.348,0
1514208615.673,42.969,33.691,43.457,36.133,-2.930,0
1514208615.677,24.414,12.207,25.879,20.996,59.082,0
1514208615.681,22.461,2.441,21.484,12.207,75.684,0
1514208615.685,28.809,4.883,22.461,13.184,32.227,0
1514208615.689,30.273,17.578,26.855,20.020,24.902,0
1514208615.693,47.852,25.879,37.109,39.062,53.711,0
1514208615.697,55.176,32.715,49.316,59.570,51.270,0
1514208615.701,49.805,43.457,55.176,73.242,-15.625,0
1514208615.705,60.059,52.734,60.059,79.590,-37.598,0
1514208615.708,66.406,53.711,62.988,75.684,35.645,0
1514208615.712,56.152,38.574,55.176,64.941,35.645,0
1514208615.716,44.434,26.367,45.898,45.898,23.926,0
1514208615.720,34.668,19.043,34.180,26.855,15.625,0
1514208615.724,40.039,21.484,37.109,24.902,24.414,0
1514208615.728,46.387,26.367,43.945,27.832,42.969,0
1514208615.732,30.762,12.695,38.086,18.066,35.645,0
1514208615.736,28.809,25.391,43.945,31.250,17.090,0
1514208615.740,28.320,42.480,53.223,46.875,5.859,0
1514208615.744,29.297,36.621,53.711,42.480,24.414,0
1514208615.748,36.133,35.645,50.293,45.898,-3.418,0
1514208615.751,29.785,30.762,37.598,35.645,2.930,0
1514208615.755,26.855,26.855,37.109,24.902,5.859,0
1514208615.759,38.086,33.691,47.852,26.367,3.906,0
1514208615.763,39.062,31.250,41.016,12.695,45.410,0
1514208615.767,17.090,15.137,24.414,-8.789,57.129,0
1514208615.771,21.973,21.973,32.227,1.465,26.367,0
1514208615.775,39.551,38.574,49.316,18.066,2.441,0
1514208615.779,24.414,29.785,41.016,13.184,57.617,0
1514208615.783,12.207,14.648,30.273,6.348,60.059,0
1514208615.787,26.367,27.832,43.457,20.508,9.277,0
1514208615.790,35.645,46.875,50.781,33.691,-10.254,0
1514208615.794,39.062,46.875,46.387,29.785,7.324,0
1514208615.798,46.875,35.156,48.828,33.203,43.457,0
1514208615.802,41.504,26.855,48.828,28.809,23.438,0
1514208615.806,35.156,33.691,47.363,25.391,13.672,0
1514208615.810,45.410,38.574,46.875,35.645,46.387,0
1514208615.814,41.992,29.297,37.109,38.086,50.781,0
1514208615.818,26.367,18.555,30.273,36.133,37.109,0
1514208615.822,23.926,20.996,31.738,34.668,-6.836,0
1514208615.826,43.945,33.691,43.945,51.270,11.230,0
1514208615.830,51.758,37.598,50.293,57.129,63.965,0
1514208615.833,17.578,19.043,29.785,34.668,13.184,3
1514208615.837,19.043,13.672,26.367,35.156,-23.438,0
1514208615.841,47.852,25.879,39.062,41.504,45.898,0
1514208615.845,49.316,23.438,40.527,44.922,88.867,0
1514208615.849,38.086,16.602,36.621,43.945,22.461,0
1514208615.853,48.828,27.344,41.504,47.363,-32.715,0
1514208615.857,56.641,24.902,43.457,55.664,0.000,0
1514208615.861,50.293,18.066,45.898,53.223,46.875,0
1514208615.865,51.758,26.367,49.316,38.574,50.293,0
1514208615.869,49.316,25.879,40.527,26.367,2.441,0
1514208615.873,41.016,23.438,28.320,16.602,2.441,0
1514208615.876,28.320,23.926,20.020,12.207,12.207,0
1514208615.880,16.602,22.949,19.043,20.508,-0.977,0
1514208615.884,16.113,30.273,31.250,28.809,-11.230,0
1514208615.888,14.648,39.062,47.852,45.898,-10.254,0
1514208615.892,13.184,35.645,42.969,42.480,13.672,0
1514208615.896,12.207,21.484,23.438,15.625,42.480,0
1514208615.900,5.371,16.113,20.020,8.301,26.367,0
1514208615.904,15.137,26.367,35.156,18.066,2.441,0
1514208615.908,35.645,47.852,57.617,35.645,17.578,0
1514208615.912,48.828,49.316,60.547,36.133,31.738,0
1514208615.915,26.855,25.391,35.645,8.301,56.152,0
1514208615.919,-3.418,10.742,20.020,-8.789,27.832,0
1514208615.923,2.930,8.789,18.066,-7.812,-21.973,0
1514208615.927,7.324,22.461,25.391,1.953,26.367,0
1514208615.931,0.000,28.320,32.227,10.254,86.426,0
1514208615.935,14.160,23.926,33.691,20.508,58.105,0
1514208615.939,36.133,39.551,44.434,35.156,8.301,0
1514208615.943,32.227,35.645,39.062,32.227,10.254,0
1514208615.947,19.531,20.020,27.344,26.855,62.500,0
1514208615.951,31.250,30.273,33.691,35.156,49.316,0
1514208615.955,36.621,44.434,47.363,47.852,14.160,0
1514208615.958,44.922,51.270,55.664,58.594,58.105,0
1514208615.962,43.945,40.039,47.852,49.316,97.656,0
1514208615.966,20.020,15.625,35.645,44.434,53.223,0
1514208615.970,22.461,15.625,37.109,51.270,-15.137,0
1514208615.974,31.738,31.250,44.434,61.035,-12.207,0
1514208615.978,32.715,33.691,40.039,58.105,49.316,0
1514208615.982,46.875,35.156,42.969,57.129,51.270,0
1514208615.986,54.199,29.785,45.410,52.734,-22.461,0
1514208615.990,45.898,20.996,39.551,45.410,-13.672,0
1514208615.994,49.316,29.297,54.688,66.406,43.457,0
1514208615.998,55.664,36.133,65.430,73.730,44.434,0
1514208616.001,43.457,32.715,49.805,56.152,15.137,0
1514208616.005,56.152,52.246,61.523,65.918,9.277,0
1514208616.009,69.824,58.105,72.266,67.383,48.828,0
1514208616.013,41.016,32.227,50.293,42.480,61.523,0
1514208616.017,16.602,16.113,34.180,28.809,22.461,0
1514208616.021,20.996,16.602,31.738,29.297,26.855,0
1514208616.025,24.902,19.043,30.273,27.344,62.500,0
1514208616.029,13.672,16.602,32.715,26.367,75.684,0
1514208616.033,18.555,24.902,43.945,28.320,37.598,0
1514208616.037,21.973,32.227,43.945,25.391,1.465,0
1514208616.040,22.949,33.203,41.992,23.438,-3.418,0
1514208616.044,37.109,44.434,56.641,34.180,16.602,0
1514208616.048,35.645,44.434,53.223,26.855,32.715,0
1514208616.052,30.273,41.016,48.340,13.672,10.254,0
1514208616.056,16.602,34.180,44.434,4.883,4.883,0
1514208616.060,-7.812,11.719,27.344,-2.441,45.410,0
1514208616.064,-23.438,14.648,20.996,0.488,76.172,0
1514208616.068,-15.137,34.668,29.297,8.789,36.621,0
1514208616.072,0.977,35.156,33.203,15.625,-4.395,0
1514208616.076,15.137,34.180,33.691,20.508,-13.184,0
1514208616.080,33.691,46.875,47.363,36.133,11.719,0
1514208616.083,47.363,55.176,60.547,54.199,42.480,0
1514208616.087,41.504,40.527,48.828,53.711,4.883,0
1514208616.091,23.926,23.926,27.832,32.227,-13.672,0
1514208616.095,24.902,21.973,22.949,19.043,53.223,0
1514208616.099,49.316,37.109,44.434,43.945,52.246,0
1514208616.103,56.641,50.781,58.594,60.547,4.883,0
1514208616.107,44.922,41.504,49.805,43.945,13.672,0
1514208616.111,36.621,25.391,37.109,36.621,70.312,0
1514208616.115,38.086,21.973,37.109,45.410,93.262,0
1514208616.119,43.945,30.273,49.316,58.105,-2.930,0
1514208616.123,34.180,31.250,45.898,55.664,-5.859,0
1514208616.126,35.156,32.715,46.387,54.688,44.434,0
1514208616.130,39.551,37.109,51.270,60.059,22.461,0
1514208616.134,26.855,30.273,41.016,53.223,-9.766,0
1514208616.138,23.926,14.648,35.156,46.387,-14.648,0
1514208616.142,41.992,14.648,34.668,47.363,50.293,0
1514208616.146,62.500,33.203,37.109,54.688,60.059,0
1514208616.150,68.848,39.062,45.410,58.594,16.602,0
1514208616.154,68.359,36.621,52.734,59.570,3.418,0
1514208616.158,54.688,29.785,45.410,56.152,-8.301,0
1514208616.162,38.086,28.809,37.109,51.758,1.953,0
1514208616.165,51.758,45.410,51.758,61.035,24.902,0
1514208616.169,45.410,41.504,54.688,57.129,-38.086,0
1514208616.173,21.484,20.996,38.086,36.133,-30.762,0
1514208616.177,19.531,17.090,33.691,28.320,29.297,0
1514208616.181,32.227,20.508,39.062,33.691,17.578,0
1514208616.185,34.180,21.484,38.086,33.691,15.137,0
1514208616.189,37.598,24.414,42.969,39.062,0.488,0
1514208616.193,44.434,27.832,53.223,50.293,3.906,0
1514208616.197,36.133,29.297,52.246,49.805,36.133,0
1514208616.201,41.992,36.621,57.617,59.082,41.992,0
1514208616.205,46.387,35.156,61.523,71.289,8.789,0
1514208616.208,52.246,33.203,60.059,59.570,-1.953,0
1514208616.212,48.828,32.715,52.734,42.969,27.832,0
1514208616.216,28.320,21.484,42.969,35.645,25.879,0
1514208616.220,18.555,11.719,34.180,27.344,-18.066,0
1514208616.224,14.160,10.254,29.297,28.320,-12.207,0
1514208616.228,13.184,13.184,34.668,29.785,42.480,0
1514208616.232,27.832,22.461,42.480,32.715,66.895,0
1514208616.236,39.551,26.855,50.293,45.898,-1.465,0
1514208616.240,33.691,20.508,51.758,52.246,-6.348,0
1514208616.244,28.320,21.973,44.922,46.875,53.711,0
1514208616.248,40.527,26.855,46.387,48.340,88.379,0
1514208616.251,38.574,29.785,53.223,62.500,62.500,0
1514208616.255,31.738,33.203,52.734,69.824,-3.906,0
1514208616.259,30.273,32.715,46.875,59.570,21.973,0
1514208616.263,16.602,21.484,35.645,43.457,57.129,0
1514208616.267,12.695,18.066,34.668,43.457,31.250,0
1514208616.271,15.137,22.461,41.016,44.922,-4.395,0
1514208616.275,38.574,29.297,49.805,54.688,-3.418,0
1514208616.279,49.316,25.391,49.805,58.594,61.035,0
1514208616.283,33.691,21.973,47.363,50.781,60.059,0
1514208616.287,49.805,39.062,60.547,68.848,12.207,0
1514208616.290,62.500,42.480,59.082,69.336,43.945,0
1514208616.294,55.664,42.969,52.734,67.383,83.984,0
1514208616.298,59.570,55.176,67.383,87.402,70.801,0
1514208616.302,61.035,49.805,62.988,82.520,1.465,0
1514208616.306,33.203,30.273,39.062,53.223,-8.789,0
1514208616.310,33.691,20.508,31.250,36.133,54.199,0
1514208616.314,61.035,35.156,42.480,46.387,71.777,0
1514208616.318,56.152,40.527,45.898,48.828,35.156,0
1514208616.322,54.199,25.391,36.621,36.621,31.738,0
1514208616.326,64.453,27.344,42.969,48.828,65.430,0
1514208616.330,70.801,42.969,54.688,68.359,44.922,0
1514208616.333,65.430,44.434,46.875,67.383,21.484,4
1514208616.337,45.898,32.227,35.156,48.340,14.160,0
1514208616.341,61.035,34.180,42.480,46.387,25.391,0
1514208616.345,83.008,46.875,51.270,61.523,59.570,0
1514208616.349,85.449,54.199,52.734,71.289,41.016,0
1514208616.353,71.289,51.758,47.852,62.988,-8.301,0
1514208616.357,55.176,41.016,37.109,46.875,-12.695,0
1514208616.361,62.012,38.086,34.668,47.852,-6.836,0
1514208616.365,60.547,38.574,42.969,57.617,-3.418,0
1514208616.369,61.523,43.457,57.617,71.289,2.930,0
1514208616.373,67.871,50.293,66.895,83.008,-4.395,0
1514208616.376,72.754,50.781,74.707,87.402,19.531,0
1514208616.380,64.941,39.062,65.918,72.754,60.547,0
1514208616.384,43.457,23.438,48.340,55.176,54.688,0
1514208616.388,49.316,22.461,52.246,57.129,25.879,0
1514208616.392,55.176,25.391,55.176,60.059,22.461,0
1514208616.396,57.617,29.297,57.129,63.477,43.945,0
1514208616.400,45.898,20.020,51.270,57.129,55.176,0
1514208616.404,33.203,21.484,52.246,57.129,0.000,0
1514208616.408,50.781,34.180,67.383,65.918,-23.926,0
1514208616.412,41.992,23.926,62.988,63.965,46.387,0
1514208616.415,39.062,29.785,63.965,67.871,47.852,0
1514208616.419,47.363,34.668,71.289,75.195,-7.324,0
1514208616.423,51.758,30.762,66.895,76.172,-12.207,0
1514208616.427,53.223,28.320,62.012,68.848,27.832,0
1514208616.431,50.293,27.832,62.988,68.848,34.668,0
1514208616.435,48.828,32.715,65.430,78.613,-7.324,0
1514208616.439,43.945,33.203,60.059,70.801,-24.414,0
1514208616.443,65.918,39.551,62.500,75.195,-3.906,0
1514208616.447,67.383,39.062,60.059,83.984,39.062,0
1514208616.451,51.758,34.180,52.734,75.195,25.391,0
1514208616.455,58.105,35.156,58.594,74.707,-5.371,0
1514208616.458,53.711,34.180,58.105,76.172,23.926,0
1514208616.462,49.805,26.855,48.828,66.406,35.156,0
1514208616.466,70.312,35.156,57.129,67.871,-0.488,0
1514208616.470,62.500,35.156,51.270,67.871,-7.812,0
1514208616.474,54.199,26.367,40.039,60.059,32.715,0
1514208616.478,73.242,44.434,57.617,80.078,27.832,0
1514208616.482,60.547,50.293,54.688,77.148,45.410,0
1514208616.486,43.457,32.227,32.227,52.246,21.484,0
1514208616.490,59.082,39.551,42.969,64.941,3.418,0
1514208616.494,68.848,51.270,56.152,72.266,34.668,0
1514208616.498,58.105,31.250,44.434,55.176,37.598,0
1514208616.501,47.852,18.555,34.668,40.527,41.016,0
1514208616.505,38.086,16.602,29.785,39.062,8.301,0
1514208616.509,41.016,25.879,38.086,57.129,-4.883,0
1514208616.513,67.383,43.457,54.199,72.266,40.039,0
1514208616.517,71.289,50.781,63.477,67.871,60.547,0
1514208616.521,74.707,60.547,75.195,72.754,23.926,0
1514208616.525,60.547,40.527,54.199,58.594,27.344,0
1514208616.529,35.156,19.043,39.551,45.898,25.879,0
1514208616.533,31.738,21.973,47.852,50.781,8.789,0
1514208616.537,37.109,21.484,51.758,45.898,-0.977,0
1514208616.540,33.203,25.879,58.594,46.387,-33.203,0
1514208616.544,19.043,20.996,49.316,41.504,39.062,0
1514208616.548,18.555,14.648,40.039,35.645,90.820,0
1514208616.552,12.207,17.578,42.969,37.598,-0.977,0
1514208616.556,27.832,26.367,50.781,46.387,-27.832,0
1514208616.560,51.758,47.363,68.359,60.059,33.203,0
1514208616.564,55.664,59.570,77.637,67.383,55.176,0
1514208616.568,46.387,44.922,59.082,50.781,34.180,0
1514208616.572,31.250,28.809,37.109,27.832,3.418,0
1514208616.576,36.133,32.715,44.434,30.762,44.922,0
1514208616.580,35.645,33.203,48.340,41.504,61.523,0
1514208616.583,19.531,12.207,33.691,36.621,0.977,0
1514208616.587,11.230,9.277,31.250,34.668,-24.902,0
1514208616.591,25.879,28.809,37.109,42.969,6.836,0
1514208616.595,41.504,38.086,41.504,48.828,40.527,0
1514208616.599,41.016,40.039,42.969,53.711,56.641,0
1514208616.603,47.852,41.504,44.922,55.176,26.855,0
1514208616.607,62.012,45.410,50.293,59.570,13.184,0
1514208616.611,74.219,48.828,51.758,68.359,41.016,0
1514208616.615,72.266,48.828,46.875,68.359,25.391,0
1514208616.619,41.992,32.715,28.809,49.316,18.555,0
1514208616.623,29.297,18.555,20.996,41.016,37.109,0
1514208616.626,43.945,23.926,31.738,45.898,71.289,0
1514208616.630,57.129,39.062,43.457,57.129,66.895,0
1514208616.634,54.199,41.992,45.898,62.500,13.184,0
1514208616.638,45.898,24.414,30.273,50.781,-5.371,0
1514208616.642,50.293,25.391,30.762,54.688,33.203,0
1514208616.646,42.480,27.832,33.203,53.223,70.312,0
1514208616.650,28.809,28.320,33.203,45.898,51.758,0
1514208616.654,33.203,44.922,52.734,61.035,23.926,0
1514208616.658,45.410,39.062,52.246,64.453,10.254,0
1514208616.662,39.551,31.738,44.922,54.688,51.758,0
1514208616.665,30.762,30.273,37.598,41.016,70.801,0
1514208616.669,17.578,20.020,24.414,24.414,31.250,0
1514208616.673,15.625,17.090,25.391,23.926,15.625,0
1514208616.677,29.785,18.555,30.762,25.879,20.996,0
1514208616.681,17.578,19.043,29.297,17.578,57.129,0
1514208616.685,21.484,30.762,45.410,34.668,27.832,0
1514208616.689,30.762,31.738,52.246,41.992,-26.855,0
1514208616.693,33.691,34.180,50.781,39.062,10.254,0
1514208616.697,36.621,41.504,57.617,40.527,61.523,0
1514208616.701,34.668,38.086,51.758,25.879,44.434,0
1514208616.705,28.320,28.809,40.527,9.766,-28.809,0
1514208616.708,37.109,20.996,34.668,1.953,9.277,0
1514208616.712,56.641,32.715,38.574,8.301,95.215,0
1514208616.716,39.551,26.855,29.297,3.906,66.406,0
1514208616.720,26.367,15.625,23.438,1.465,5.371,0
1514208616.724,38.574,26.367,35.156,17.090,-16.113,0
1514208616.728,49.805,38.086,45.898,36.621,30.273,0
1514208616.732,42.969,33.203,40.039,35.156,62.012,0
1514208616.736,45.410,37.598,41.016,36.621,-12.207,0
1514208616.740,51.270,40.039,44.434,43.945,-20.508,0
1514208616.744,48.340,35.645,44.434,47.852,31.738,0
1514208616.748,53.711,36.133,47.363,57.617,17.090,0
1514208616.751,46.387,32.715,40.039,53.223,-27.832,0
1514208616.755,39.551,29.785,35.156,49.316,-5.859,0
1514208616.759,32.227,27.832,29.785,41.504,31.738,0
1514208616.763,27.344,23.926,22.949,30.762,51.758,0
1514208616.767,36.133,26.855,25.879,33.203,9.766,0
1514208616.771,40.039,33.203,33.203,38.086,-24.414,0
1514208616.775,47.852,37.109,43.457,44.434,52.246,0
1514208616.779,56.152,38.086,49.805,54.688,66.406,0
1514208616.783,48.828,24.414,45.898,48.828,10.742,0
1514208616.787,52.246,30.762,52.246,49.316,3.418,0
1514208616.790,55.176,41.504,60.547,60.059,25.879,0
1514208616.794,31.738,27.832,46.387,43.457,54.199,0
1514208616.798,15.137,23.926,43.457,39.551,27.832,0
1514208616.802,18.066,31.738,54.199,44.922,-8.789,0
1514208616.806,20.020,23.438,46.875,40.039,13.184,0
1514208616.810,28.809,21.484,46.875,43.457,16.113,0
1514208616.814,30.273,28.320,56.641,48.340,34.668,0
1514208616.818,11.230,20.020,50.293,31.738,21.973,0
1514208616.822,7.812,14.648,41.992,14.648,-9.277,0
1514208616.826,22.461,11.230,36.621,17.578,22.949,0
1514208616.830,29.785,17.090,39.551,21.484,63.965,0
1514208616.833,24.414,21.973,41.016,12.695,50.293,5
1514208616.837,32.227,26.367,44.922,14.648,2.441,0
1514208616.841,35.645,21.484,41.992,16.113,3.418,0
1514208616.845,30.762,15.137,39.551,19.043,28.809,0
1514208616.849,37.109,24.414,39.062,16.602,47.363,0
1514208616.853,24.414,30.762,37.109,15.137,33.691,0
1514208616.857,38.574,36.133,46.875,24.414,-4.883,0
1514208616.861,55.664,43.457,46.875,21.484,6.836,0
1514208616.865,47.363,50.781,47.363,23.438,34.180,0
1514208616.869,31.738,32.227,38.574,24.902,-0.488,0
1514208616.873,24.902,19.531,26.367,13.672,-12.207,0
1514208616.876,31.250,21.484,23.926,3.906,47.852,0
1514208616.880,47.363,30.762,30.273,8.789,75.684,0
1514208616.884,55.664,45.410,40.527,15.625,33.691,0
1514208616.888,50.293,47.852,44.922,24.414,20.996,0
1514208616.892,37.598,36.133,31.738,20.996,38.574,0
1514208616.896,30.273,20.996,23.438,16.113,45.410,0
1514208616.900,46.387,38.086,41.992,35.645,32.227,0
1514208616.904,65.430,62.012,60.059,58.105,-20.020,0
1514208616.908,61.523,49.316,47.852,53.711,-2.930,0
1514208616.912,36.133,29.297,32.227,32.227,26.855,0
1514208616.915,33.691,30.762,25.391,19.043,-1.465,0
1514208616.919,46.875,42.480,23.926,20.020,-18.066,0
1514208616.923,46.387,47.852,25.391,27.344,2.930,0
1514208616.927,44.922,41.992,24.902,33.691,35.645,0
1514208616.931,36.133,32.715,23.438,34.668,65.430,0
1514208616.935,27.344,29.297,20.508,29.297,42.969,0
1514208616.939,35.645,35.645,23.438,29.297,10.742,0
1514208616.943,51.758,50.781,36.621,40.527,28.809,0
1514208616.947,60.059,51.758,40.527,36.621,54.688,0
1514208616.951,44.434,40.527,30.273,24.414,60.547,0
1514208616.955,29.297,40.039,26.855,28.809,17.578,0
1514208616.958,35.156,42.969,31.738,35.156,25.879,0
1514208616.962,40.039,35.645,30.273,25.391,61.035,0
1514208616.966,31.250,25.391,18.066,4.395,41.992,0
1514208616.970,22.949,26.855,18.555,10.254,26.855,0
1514208616.974,40.039,44.434,41.504,41.016,-4.883,0
1514208616.978,41.992,42.480,43.457,40.039,12.207,0
1514208616.982,30.273,37.109,30.762,23.438,48.340,0
1514208616.986,26.367,35.645,25.391,21.973,25.879,0
1514208616.990,29.785,36.133,29.785,26.855,27.832,0
1514208616.994,55.176,53.711,45.410,45.410,53.223,0
1514208616.998,47.363,48.828,37.598,40.527,47.852,0
1514208617.001,33.203,30.762,23.438,20.508,25.879,0
1514208617.005,40.527,29.785,21.484,18.066,11.230,0
1514208617.009,33.691,29.297,17.578,19.043,67.383,0
1514208617.013,39.551,33.203,24.902,25.879,80.566,0
1514208617.017,54.199,46.387,34.668,41.992,22.461,0
1514208617.021,50.293,41.992,26.855,34.180,-12.695,0
1514208617.025,54.688,33.691,20.020,21.484,-14.648,0
1514208617.029,53.711,38.574,21.484,23.438,54.199,0
1514208617.033,60.059,50.781,27.832,32.715,52.246,0
1514208617.037,59.570,49.805,32.227,37.598,8.789,0
1514208617.040,40.527,37.598,27.344,35.156,32.227,0
1514208617.044,39.062,35.156,26.855,38.086,64.453,0
1514208617.048,35.645,31.250,25.391,39.551,56.152,0
1514208617.052,32.715,32.227,26.855,43.457,3.906,0
1514208617.056,44.922,36.133,34.180,45.410,15.137,0
1514208617.060,43.945,30.273,32.715,43.457,57.129,0
1514208617.064,36.133,33.203,34.668,47.852,39.062,0
1514208617.068,31.738,41.016,40.039,61.035,11.230,0
1514208617.072,28.320,33.203,36.133,62.500,-12.207,0
1514208617.076,35.156,29.785,36.133,53.711,-6.348,0
1514208617.080,34.668,30.273,38.574,50.781,35.156,0
1514208617.083,27.832,27.832,35.156,52.246,25.391,0
1514208617.087,34.668,26.855,39.062,52.734,-12.207,0
1514208617.091,38.574,22.461,40.039,47.852,18.555,0
1514208617.095,38.086,31.738,49.805,60.059,43.945,0
1514208617.099,19.043,24.414,43.945,54.199,36.133,0
1514208617.103,6.836,17.090,36.133,49.316,35.156,0
1514208617.107,9.277,30.273,48.828,64.453,50.781,0
1514208617.111,14.648,24.902,48.828,51.758,48.340,0
1514208617.115,12.695,6.836,30.273,28.809,35.645,0
1514208617.119,15.625,11.719,31.738,29.297,51.758,0
1514208617.123,32.227,27.832,48.828,44.434,22.949,0
1514208617.126,31.250,24.902,49.316,46.387,23.926,0
1514208617.130,20.020,16.602,42.480,43.945,45.410,0
1514208617.134,17.090,23.438,44.922,44.922,2.930,0
1514208617.138,18.066,25.391,44.434,34.180,-20.508,0
1514208617.142,17.578,15.137,38.086,27.832,9.277,0
1514208617.146,20.996,15.625,38.086,30.273,49.316,0
1514208617.150,40.527,35.645,56.152,50.293,56.152,0
1514208617.154,36.133,35.645,61.035,65.430,1.953,0
1514208617.158,21.973,20.020,46.875,53.711,-10.742,0
1514208617.162,27.832,23.438,51.270,46.387,63.965,0
1514208617.165,32.715,19.043,45.410,36.133,52.246,0
1514208617.169,33.203,16.113,35.645,26.855,16.602,0
1514208617.173,39.062,22.461,43.457,35.645,32.715,0
1514208617.177,54.688,32.227,53.223,49.316,50.781,0
1514208617.181,48.828,29.297,43.945,43.945,47.852,0
1514208617.185,34.180,22.461,27.832,25.391,14.648,0
1514208617.189,40.039,20.996,25.391,25.879,-3.418,0
1514208617.193,60.059,30.273,40.527,45.898,25.879,0
1514208617.197,68.848,49.316,55.176,52.734,36.621,0
1514208617.201,48.340,42.969,50.781,53.711,-20.508,0
1514208617.205,31.250,32.715,44.922,53.223,-27.832,0
1514208617.208,42.969,31.250,41.016,51.270,42.480,0
1514208617.212,33.691,24.902,33.691,45.898,71.289,0
1514208617.216,21.484,20.996,28.320,39.551,29.785,0
1514208617.220,40.527,31.738,36.133,44.434,-6.348,0
1514208617.224,46.875,40.039,42.969,47.852,38.086,0
1514208617.228,41.504,36.133,38.086,45.410,67.871,0
1514208617.232,36.133,32.227,32.227,40.039,45.410,0
1514208617.236,37.109,31.250,34.668,45.898,2.441,0
1514208617.240,44.434,31.250,38.574,49.316,1.953,0
1514208617.244,47.852,34.668,41.016,48.340,26.855,0
1514208617.248,53.223,42.480,45.410,54.688,25.391,0
1514208617.251,44.434,40.527,43.945,54.688,30.762,0
1514208617.255,60.059,55.176,61.035,62.500,20.508,0
1514208617.259,75.195,62.012,71.777,61.523,47.852,0
1514208617.263,38.574,37.598,47.852,41.992,57.129,0
1514208617.267,20.508,24.414,31.250,23.926,53.711,0
1514208617.271,16.602,19.531,28.320,16.602,27.832,0
1514208617.275,13.184,21.484,34.668,28.320,19.531,0
1514208617.279,20.508,27.344,40.039,30.762,36.621,0
1514208617.283,13.672,25.879,35.645,21.484,24.414,0
1514208617.287,5.371,21.484,33.691,24.902,6.348,0
1514208617.290,19.531,24.414,39.551,30.273,-3.906,0
1514208617.294,30.273,29.785,45.410,33.203,34.668,0
1514208617.298,30.762,36.133,52.246,37.109,65.918,0
1514208617.302,26.367,41.504,52.734,30.273,22.949,0
1514208617.306,20.508,29.785,38.574,20.508,12.695,0
1514208617.310,18.555,18.555,29.297,16.113,57.617,0
1514208617.314,27.832,31.738,44.434,35.156,73.730,0
1514208617.318,36.133,49.316,62.012,60.059,36.133,0
1514208617.322,29.785,42.969,55.176,54.688,11.230,0
1514208617.326,25.391,29.785,41.504,44.434,33.203,0
1514208617.330,15.137,17.578,36.621,43.457,59.082,0
1514208617.333,9.277,13.672,34.180,40.527,34.668,0
1514208617.337,25.879,20.508,35.645,37.109,-3.906,0
1514208617.341,38.086,25.879,43.457,37.109,25.391,0
1514208617.345,35.156,34.180,48.340,47.852,61.035,0
1514208617.349,41.016,39.551,51.270,56.641,18.555,0
1514208617.353,41.504,38.086,48.828,54.688,0.000,0
1514208617.357,34.668,30.762,41.992,52.246,33.203,0
1514208617.361,35.156,22.949,37.598,46.387,69.824,0
1514208617.365,43.457,31.250,42.969,48.828,62.500,0
1514208617.369,43.945,38.086,47.363,56.152,26.855,0
1514208617.373,45.898,29.297,39.062,46.875,29.785,0
1514208617.376,51.270,31.250,41.504,42.969,34.180,0
1514208617.380,40.039,30.273,39.551,38.574,26.367,0
1514208617.384,35.645,28.320,33.203,34.668,14.160,0
1514208617.388,40.039,35.645,35.156,31.738,11.230,0
1514208617.392,38.086,35.645,36.133,29.785,15.137,0
1514208617.396,51.270,50.781,50.293,56.641,26.855,0
1514208617.400,43.945,50.781,50.293,55.664,44.434,0
1514208617.404,29.297,29.785,32.715,29.785,47.852,0
1514208617.408,31.738,23.438,31.738,20.508,2.930,0
1514208617.412,30.273,24.414,38.086,24.414,33.203,0
1514208617.415,37.109,27.344,39.551,22.461,49.316,0
1514208617.419,26.855,29.785,41.504,22.461,4.395,0
1514208617.423,27.832,31.738,46.387,32.227,-8.301,0
1514208617.427,42.969,35.156,45.898,30.273,5.859,0
1514208617.431,28.809,27.832,44.922,30.762,52.734,0
1514208617.435,16.602,21.484,49.316,33.203,49.316,0
1514208617.439,18.555,22.461,51.270,37.109,-1.465,0
1514208617.443,23.438,20.508,48.828,41.504,19.531,0
1514208617.447,23.926,21.484,42.969,38.574,63.965,0
1514208617.451,19.043,19.531,43.457,37.598,27.344,0
1514208617.455,4.395,17.578,41.992,30.273,-18.555,0
1514208617.458,16.113,26.367,52.734,30.273,22.461,0
1514208617.462,39.062,37.598,64.453,43.945,76.660,0
1514208617.466,23.438,28.320,54.688,41.504,44.434,0
1514208617.470,9.766,29.785,46.387,37.598,-4.883,0
1514208617.474,16.602,32.715,43.945,37.109,19.531,0
1514208617.478,27.344,25.391,38.574,28.320,70.801,0
1514208617.482,30.273,19.531,34.180,25.879,83.984,0
1514208617.486,21.973,25.879,34.180,20.996,11.719,0
1514208617.490,11.230,31.738,22.949,6.348,0.000,0
1514208617.494,13.672,31.738,19.531,8.789,65.918,0
1514208617.498,26.855,40.039,28.809,16.113,47.852,0
1514208617.501,26.367,43.457,29.297,18.066,28.809,0
1514208617.505,31.250,45.410,32.227,28.320,43.457,0
1514208617.509,55.664,58.594,45.410,44.434,60.547,0
1514208617.513,70.312,68.359,61.523,61.035,81.543,0
1514208617.517,52.734,60.059,60.059,55.176,37.598,0
1514208617.521,31.250,41.992,40.527,24.414,6.836,0
1514208617.525,13.184,20.020,21.973,-3.418,21.973,0
1514208617.529,7.324,20.508,23.438,0.000,37.109,0
1514208617.533,9.766,28.320,29.785,7.324,26.855,0
1514208617.537,15.625,30.762,29.297,1.953,10.742,0
1514208617.540,25.879,25.391,29.297,8.789,3.906,0
1514208617.544,33.691,23.926,31.250,13.184,20.508,0
1514208617.548,35.156,39.062,33.691,16.602,30.273,0
1514208617.552,37.109,41.504,39.551,26.367,37.109,0
1514208617.556,37.109,44.434,48.340,37.109,10.254,0
1514208617.560,36.133,48.340,48.828,32.227,5.371,0
1514208617.564,37.598,40.527,41.016,18.555,38.086,0
1514208617.568,39.062,40.039,41.504,22.949,23.438,0
1514208617.572,35.156,35.156,41.504,29.297,5.859,0
1514208617.576,21.484,21.973,28.320,17.578,8.301,0
1514208617.580,25.391,19.531,23.926,23.438,57.617,0
1514208617.583,29.785,26.367,33.203,42.480,79.590,0
1514208617.587,32.715,33.691,40.039,42.480,20.996,0
1514208617.591,45.410,40.039,47.363,46.875,9.766,0
1514208617.595,41.992,37.598,44.434,42.969,69.336,0
1514208617.599,47.852,40.039,46.387,41.016,86.914,0
1514208617.603,68.359,55.664,59.570,67.383,25.391,0
1514208617.607,58.594,48.828,49.805,63.965,-4.883,0
1514208617.611,34.180,23.926,29.785,42.969,36.621,0
1514208617.615,33.203,22.461,27.832,39.551,48.340,0
1514208617.619,45.898,39.062,38.086,47.363,-16.602,0
1514208617.623,49.316,40.527,36.621,51.270,-26.367,0
1514208617.626,57.129,34.180,31.738,47.852,47.363,0
1514208617.630,69.824,39.551,37.598,56.152,79.590,0
1514208617.634,70.312,41.016,41.992,54.199,14.160,0
1514208617.638,66.895,34.180,39.062,48.340,-19.043,0
1514208617.642,65.918,35.156,36.621,55.664,37.109,0
1514208617.646,53.223,26.855,37.109,52.246,44.922,0
1514208617.650,55.176,35.156,50.293,61.035,44.922,0
1514208617.654,59.570,54.688,65.430,83.984,13.184,0
1514208617.658,54.688,48.340,61.035,85.938,17.090,0
1514208617.662,40.039,26.367,40.039,59.570,77.637,0
1514208617.665,39.551,27.832,42.480,59.082,39.551,0
1514208617.669,52.246,42.969,58.105,76.172,3.418,0
1514208617.673,48.828,37.598,52.246,67.871,14.648,0
1514208617.677,41.992,24.414,43.457,48.340,48.828,0
1514208617.681,38.086,17.578,38.574,39.551,63.477,0
1514208617.685,39.062,20.996,37.598,49.316,35.645,0
1514208617.689,41.992,24.414,40.039,56.152,40.039,0
1514208617.693,55.176,30.762,42.969,62.988,61.035,0
1514208617.697,63.965,41.504,50.293,71.777,89.844,0
1514208617.701,65.430,39.062,54.688,75.195,76.172,0
1514208617.705,47.852,31.250,48.340,68.359,20.508,0
1514208617.708,45.898,31.738,41.504,56.152,25.391,0
1514208617.712,57.129,33.203,41.992,54.688,47.363,0
1514208617.716,48.340,29.297,41.016,51.758,36.133,0
1514208617.720,38.574,29.785,43.457,43.945,10.254,0
1514208617.724,41.992,30.762,47.852,42.969,30.762,0
1514208617.728,62.012,32.715,50.781,50.781,71.777,0
1514208617.732,66.406,34.180,49.805,51.270,62.988,0
1514208617.736,58.594,34.668,42.969,41.504,30.762,0
1514208617.740,57.617,38.086,38.574,36.133,16.113,0
1514208617.744,74.707,51.270,56.641,55.664,41.016,0
1514208617.748,71.289,56.152,64.941,63.477,81.055,0
1514208617.751,43.457,36.133,39.551,39.551,29.297,0
1514208617.755,35.645,27.344,27.344,29.785,-39.062,0
1514208617.759,32.227,25.879,27.832,31.738,-7.324,0
1514208617.763,35.645,18.066,27.832,36.133,51.758,0
1514208617.767,33.203,19.043,23.438,38.574,25.391,0
1514208617.771,60.059,36.133,36.621,57.617,-16.602,0
1514208617.775,70.312,40.527,47.852,62.988,11.230,0
1514208617.779,57.129,36.133,43.945,52.734,75.195,0
1514208617.783,61.523,35.645,42.480,53.711,43.457,0
1514208617.787,64.453,38.086,45.410,56.641,-24.414,0
1514208617.790,68.848,43.945,50.293,64.941,-11.719,0
1514208617.794,80.078,51.758,59.082,81.055,62.012,0
1514208617.798,63.477,42.969,55.664,73.730,56.152,0
1514208617.802,26.855,20.996,32.227,53.223,-7.324,0
1514208617.806,24.902,7.324,24.902,50.781,15.137,0
1514208617.810,39.551,10.254,32.715,60.059,45.898,0
1514208617.814,47.852,24.902,47.852,72.754,39.062,0
1514208617.818,48.340,24.902,46.875,75.684,17.578,0
1514208617.822,49.316,24.414,45.410,75.684,22.949,0
1514208617.826,58.105,33.203,53.711,77.148,35.156,0
1514208617.830,67.871,44.922,62.988,88.379,44.922,0
1514208617.833,69.336,53.223,73.730,100.098,27.832,0
1514208617.837,56.641,41.504,62.012,92.285,8.789,0
1514208617.841,53.223,31.738,50.293,83.496,34.668,0
1514208617.845,52.246,27.832,42.969,71.289,46.387,0
1514208617.849,43.945,26.367,42.969,65.430,33.203,0
1514208617.853,40.039,31.250,48.828,68.848,8.789,0
1514208617.857,29.297,22.461,37.109,61.523,-13.184,0
1514208617.861,29.785,12.695,30.762,56.152,3.906,0
1514208617.865,43.945,18.555,36.133,60.547,15.625,0
1514208617.869,45.898,22.949,34.668,59.570,35.645,0
1514208617.873,60.059,41.504,55.664,73.242,5.371,0
1514208617.876,75.684,55.176,76.172,86.426,38.086,0
1514208617.880,58.105,37.109,60.547,65.430,93.750,0
1514208617.884,34.668,24.414,38.574,43.945,43.945,0
1514208617.888,19.531,20.508,31.738,38.086,-12.695,0
1514208617.892,20.508,21.484,38.574,38.574,11.719,0
1514208617.896,23.438,25.391,41.504,42.480,32.715,0
1514208617.900,32.227,26.855,39.062,44.922,-19.531,0
1514208617.904,35.156,22.461,37.598,37.598,-68.359,0
1514208617.908,39.062,23.438,40.039,41.504,-27.832,0
1514208617.912,45.410,25.391,37.598,44.434,39.062,0
1514208617.915,36.621,17.090,33.691,36.133,52.246,0
1514208617.919,65.430,37.109,57.617,54.199,-8.789,0
1514208617.923,94.727,72.266,83.008,87.402,-63.965,0
1514208617.927,59.570,47.852,55.176,75.684,-7.324,0
1514208617.931,19.043,7.812,21.973,44.922,30.762,0
1514208617.935,19.531,10.254,21.484,40.039,-0.488,0
1514208617.939,38.574,21.484,30.762,45.898,3.906,0
1514208617.943,54.688,26.367,42.480,62.500,34.180,0
1514208617.947,52.246,23.438,45.410,63.965,73.242,0
1514208617.951,45.410,20.508,43.945,62.988,24.902,0
1514208617.955,37.109,20.508,47.363,59.570,-30.762,0
1514208617.958,32.227,14.160,49.316,48.828,28.320,0
1514208617.962,41.992,29.785,59.570,59.570,62.988,0
1514208617.966,61.523,56.641,76.660,80.078,29.785,0
1514208617.970,67.383,53.711,76.660,84.473,8.789,0
1514208617.974,53.223,38.086,57.129,69.824,24.902,0
1514208617.978,39.551,26.367,38.574,53.223,51.758,0
1514208617.982,33.691,15.137,29.785,44.922,54.199,0
1514208617.986,34.668,7.324,27.344,45.410,15.625,0
1514208617.990,53.711,17.578,34.180,55.176,1.465,0
1514208617.994,63.965,26.855,36.133,56.152,30.762,0
1514208617.998,53.711,33.691,41.504,60.547,43.945,0
1514208618.001,51.270,45.410,54.688,74.707,43.945,0
1514208618.005,54.688,41.504,55.664,72.266,13.184,0
1514208618.009,65.918,44.434,64.941,82.031,-1.953,0
1514208618.013,65.430,40.527,63.477,82.031,50.293,0
1514208618.017,50.781,28.320,44.922,64.453,27.344,0
1514208618.021,52.734,24.414,47.363,66.406,-17.578,0
1514208618.025,58.594,21.484,49.316,63.477,-6.348,0
1514208618.029,42.480,19.531,35.645,46.875,12.207,0
1514208618.033,23.438,12.695,27.832,36.621,16.602,0
1514208618.037,29.297,14.160,32.715,40.527,23.926,0
1514208618.040,45.898,25.879,41.992,49.805,15.137,0
1514208618.044,62.012,37.598,51.758,60.059,1.465,0
1514208618.048,65.430,54.199,62.012,69.336,43.457,0
1514208618.052,58.105,57.129,63.477,74.707,41.016,0
1514208618.056,43.457,41.504,49.316,65.918,24.902,0
1514208618.060,44.922,35.156,43.945,54.688,42.480,0
1514208618.064,45.898,21.484,37.598,43.945,64.453,0
1514208618.068,39.551,19.043,30.273,50.293,62.012,0
1514208618.072,42.480,19.531,32.715,61.523,20.996,0
1514208618.076,47.852,16.113,32.227,53.223,47.852,0
1514208618.080,48.340,24.414,37.109,54.688,56.641,0
1514208618.083,40.527,25.391,35.645,58.594,-2.441,0
1514208618.087,38.574,25.879,34.668,58.594,-40.527,0
1514208618.091,53.223,38.574,45.898,63.477,-10.742,0
1514208618.095,53.711,41.992,46.875,60.059,70.801,0
1514208618.099,48.828,36.133,43.945,58.594,57.617,0
1514208618.103,39.551,24.902,39.062,59.570,-15.625,0
1514208618.107,29.297,20.020,32.227,55.176,9.766,0
1514208618.111,45.898,31.738,43.457,58.105,41.992,0
1514208618.115,43.457,31.250,45.898,54.688,37.109,0
1514208618.119,33.203,23.926,34.668,42.969,26.367,0
1514208618.123,48.340,27.832,34.180,44.922,33.691,0
1514208618.126,53.711,24.902,34.180,51.270,35.156,0
1514208618.130,69.824,37.598,43.457,65.430,46.387,0
1514208618.134,76.660,58.105,53.711,81.055,35.645,0
1514208618.138,44.434,36.133,39.551,58.105,30.762,0
1514208618.142,25.391,21.484,31.250,42.480,20.508,0
1514208618.146,25.879,26.855,35.645,47.363,43.457,0
1514208618.150,27.344,27.344,36.133,39.062,18.555,0
1514208618.154,21.973,25.391,34.668,29.785,-33.203,0
1514208618.158,19.043,30.762,36.621,38.574,-13.672,0
1514208618.162,33.203,32.715,42.480,47.852,24.414,0
1514208618.165,37.109,26.367,40.039,41.016,20.508,0
1514208618.169,29.785,25.391,39.551,37.598,8.301,0
1514208618.173,38.086,31.738,50.781,45.410,-14.648,0
1514208618.177,35.156,32.715,47.363,37.109,20.508,0
1514208618.181,25.391,22.461,35.156,23.926,61.523,0
1514208618.185,30.273,21.973,37.598,29.297,12.207,0
1514208618.189,38.086,30.762,43.457,40.039,-5.371,0
1514208618.193,45.410,29.297,41.504,41.992,4.883,0
1514208618.197,48.340,39.551,47.363,46.875,38.574,0
1514208618.201,44.434,48.828,61.523,59.082,35.645,0
1514208618.205,28.320,25.879,46.875,41.992,-3.418,0
1514208618.208,17.090,4.883,24.414,25.879,22.949,0
1514208618.212,29.785,21.484,39.062,38.086,71.777,0
1514208618.216,31.250,30.273,46.875,35.156,47.852,0
1514208618.220,24.414,21.484,37.109,21.973,-7.324,0
1514208618.224,31.250,22.949,39.062,21.484,21.484,0
1514208618.228,30.273,30.762,42.969,39.551,78.613,0
1514208618.232,24.414,35.156,47.363,43.945,65.918,0
1514208618.236,36.133,44.434,55.664,41.992,-1.465,0
1514208618.240,45.898,36.133,50.293,37.109,-4.883,0
1514208618.244,43.457,18.066,41.504,35.156,35.645,0
1514208618.248,45.410,26.367,45.410,42.969,38.574,0
1514208618.251,42.480,27.344,47.363,45.898,11.230,0
1514208618.255,38.086,22.949,44.434,44.922,-2.930,0
1514208618.259,35.156,32.715,45.898,40.527,16.602,0
1514208618.263,31.250,29.785,39.551,35.156,32.715,0
1514208618.267,37.598,32.715,46.875,43.945,19.531,0
1514208618.271,55.664,44.434,62.988,62.012,15.625,0
1514208618.275,58.594,41.992,58.105,63.477,62.500,0
1514208618.279,48.340,29.785,56.152,60.547,51.758,0
1514208618.283,45.410,29.785,62.988,63.477,-11.230,0
1514208618.287,47.852,37.109,62.012,69.824,0.977,0
1514208618.290,36.621,26.367,53.711,63.477,18.066,0
1514208618.294,25.391,20.996,46.387,53.223,51.270,0
1514208618.298,27.344,32.715,48.828,57.617,67.871,0
1514208618.302,25.391,32.227,50.293,57.617,18.555,0
1514208618.306,32.715,29.297,48.340,52.246,8.789,0
1514208618.310,57.129,44.434,62.012,63.477,69.336,0
1514208618.314,62.988,45.410,62.988,67.871,91.309,0
1514208618.318,52.246,36.621,58.105,70.312,48.340,0
1514208618.322,45.410,33.691,52.246,67.383,13.672,0
1514208618.326,41.992,28.320,43.457,59.570,16.602,0
1514208618.330,57.129,36.621,50.781,71.777,58.594,0
1514208618.333,76.660,61.035,66.406,90.332,75.195,0
1514208618.337,74.219,64.941,69.336,90.332,10.254,0
1514208618.341,62.012,43.457,50.781,62.012,-14.648,0
1514208618.345,52.246,26.367,30.762,39.062,31.250,0
1514208618.349,59.570,37.109,39.062,53.711,67.383,0
1514208618.353,72.266,52.734,52.734,70.801,42.969,0
1514208618.357,75.195,51.758,49.805,59.082,-5.371,0
1514208618.361,66.895,40.039,41.016,45.410,22.461,0
1514208618.365,50.293,36.621,38.086,36.621,63.965,0
1514208618.369,61.523,42.969,38.086,34.180,48.340,0
1514208618.373,78.125,49.316,44.922,45.898,-6.348,0
1514208618.376,73.730,50.781,48.828,48.340,36.133,0
1514208618.380,46.387,35.645,36.133,34.180,87.891,0
1514208618.384,41.016,33.691,32.715,31.250,28.320,0
1514208618.388,52.734,45.410,39.551,38.086,12.207,0
1514208618.392,59.082,42.480,46.875,49.316,45.898,0
1514208618.396,59.570,33.691,42.969,45.898,87.402,0
1514208618.400,55.664,39.551,34.180,37.109,79.590,0
1514208618.404,47.363,39.062,30.762,36.133,-9.277,0
1514208618.408,57.129,35.156,34.180,38.574,1.465,0
1514208618.412,71.289,42.480,43.945,43.945,76.172,0
1514208618.415,55.176,46.875,43.945,36.621,38.574,0
1514208618.419,42.969,45.410,35.156,25.879,-3.418,0
1514208618.423,37.109,44.922,34.668,27.832,21.484,0
1514208618.427,32.227,44.922,38.574,29.785,42.969,0
1514208618.431,29.297,38.574,34.180,27.344,57.617,0
1514208618.435,21.973,26.855,28.320,23.926,20.508,0
1514208618.439,12.695,22.461,28.320,24.414,-8.301,0
1514208618.443,26.367,33.203,38.574,48.340,27.832,0
1514208618.447,44.922,47.363,50.293,66.895,41.504,0
1514208618.451,40.039,49.805,59.082,69.336,29.297,0
1514208618.455,34.180,44.922,57.129,59.082,13.184,0
1514208618.458,27.344,33.203,36.133,44.922,-6.836,0
1514208618.462,21.973,25.391,27.832,44.434,25.879,0
1514208618.466,14.648,31.250,29.785,41.992,56.641,0
1514208618.470,23.438,35.645,33.203,45.898,20.508,0
1514208618.474,39.062,32.227,40.527,51.758,19.043,0
1514208618.478,46.875,36.133,42.480,54.199,29.785,0
1514208618.482,51.758,43.945,44.922,62.012,56.152,0
1514208618.486,45.410,41.992,49.805,65.430,63.965,0
1514208618.490,63.477,53.711,66.406,76.172,24.414,0
1514208618.494,80.566,66.895,81.543,86.426,43.457,0
1514208618.498,40.039,39.551,56.641,62.012,68.359,0
1514208618.501,11.230,17.578,31.250,42.969,46.875,0
1514208618.505,8.789,23.926,23.926,26.855,-35.645,0
1514208618.509,25.391,35.156,31.738,27.832,-7.812,0
1514208618.513,41.992,34.180,41.016,39.551,78.613,0
1514208618.517,37.598,40.527,45.410,39.551,62.988,0
1514208618.521,56.152,50.781,51.758,49.316,13.184,0
1514208618.525,69.824,44.922,43.945,44.922,6.836,0
1514208618.529,62.988,33.691,35.645,31.738,76.172,0
1514208618.533,40.039,28.809,30.273,21.484,63.965,0
1514208618.537,45.410,45.410,41.992,33.203,31.738,0
1514208618.540,68.848,63.965,60.547,52.246,52.734,0
1514208618.544,41.504,38.086,35.645,34.180,74.707,0
1514208618.548,23.438,19.043,19.531,21.973,62.988,0
1514208618.552,44.434,36.133,34.180,36.621,14.160,0
1514208618.556,56.641,47.363,39.551,36.621,23.926,0
1514208618.560,60.547,46.875,43.457,35.156,43.945,0
1514208618.564,56.641,45.898,43.457,27.832,28.320,0
1514208618.568,35.645,36.133,38.574,25.879,11.719,0
1514208618.572,34.668,40.039,39.062,41.016,7.324,0
1514208618.576,36.621,55.176,38.086,47.852,3.906,0
1514208618.580,43.945,44.922,34.180,41.504,16.602,0
1514208618.583,51.758,45.410,39.551,46.875,55.176,0
1514208618.587,43.457,42.969,41.992,52.734,42.969,0
1514208618.591,37.598,29.297,34.180,39.551,27.832,0
1514208618.595,47.363,30.273,37.598,39.551,38.086,0
1514208618.599,49.805,31.738,40.039,46.387,48.340,0
1514208618.603,39.551,26.855,35.156,39.062,6.836,0
1514208618.607,50.781,37.598,42.480,41.504,-9.277,0
1514208618.611,56.641,45.898,50.293,54.199,5.371,0
1514208618.615,46.875,34.668,41.016,43.945,11.230,0
1514208618.619,68.359,47.363,51.270,52.734,20.508,0
1514208618.623,66.406,60.547,61.035,64.941,-13.184,0
1514208618.626,42.969,45.898,50.293,54.688,9.766,0
1514208618.630,46.875,30.762,37.109,44.922,48.340,0
1514208618.634,28.320,19.531,32.715,35.156,48.340,0
1514208618.638,21.484,27.344,33.203,25.391,20.996,0
1514208618.642,47.852,42.480,43.945,37.598,24.414,0
1514208618.646,47.852,41.016,43.945,41.992,79.102,0
1514208618.650,40.527,39.551,36.621,30.762,52.246,0
1514208618.654,56.152,54.199,51.758,40.039,0.488,0
1514208618.658,49.805,40.527,47.363,36.133,8.301,0
1514208618.662,32.715,19.043,37.598,30.273,70.312,0
1514208618.665,39.062,28.809,43.457,45.410,68.359,0
1514208618.669,31.738,24.414,32.715,41.016,17.090,0
1514208618.673,34.180,30.273,34.180,40.527,8.301,0
1514208618.677,57.129,51.758,52.246,62.500,13.672,0
1514208618.681,51.270,39.062,43.945,60.059,38.086,0
1514208618.685,37.598,25.879,30.762,47.363,11.230,0
1514208618.689,40.527,40.527,39.551,61.523,-12.695,0
1514208618.693,47.852,52.734,53.223,71.289,14.160,0
1514208618.697,35.156,40.039,36.621,44.434,18.555,0
1514208618.701,20.996,28.809,18.066,21.484,27.832,0
1514208618.705,27.832,39.062,33.691,35.645,-3.418,0
1514208618.708,42.480,46.875,43.945,38.086,29.785,0
1514208618.712,32.715,40.039,36.621,20.996,66.895,0
1514208618.716,18.555,37.598,26.855,13.672,25.879,0
1514208618.720,18.555,35.156,24.902,14.648,26.367,0
1514208618.724,29.785,33.203,28.809,19.531,40.039,0
1514208618.728,33.691,39.062,34.668,25.391,58.594,0
1514208618.732,36.621,46.387,39.062,28.809,73.242,0
1514208618.736,44.434,57.617,43.945,34.180,50.781,0
1514208618.740,49.316,59.082,43.945,33.203,-5.371,0
1514208618.744,39.062,42.969,31.250,21.484,29.297,0
1514208618.748,24.902,33.691,22.949,11.719,62.012,0
1514208618.751,40.527,32.715,26.367,17.090,15.137,0
1514208618.755,55.664,34.668,32.715,25.391,11.230,0
1514208618.759,51.270,31.738,25.879,13.184,44.434,0
1514208618.763,40.039,27.832,19.531,2.441,62.500,0
1514208618.767,35.645,40.527,26.367,10.254,64.453,0
1514208618.771,61.035,59.082,47.852,42.969,23.438,0
1514208618.775,62.500,57.617,56.641,53.223,17.090,0
1514208618.779,42.969,38.086,38.574,36.621,59.570,0
1514208618.783,30.273,25.391,29.785,37.109,43.457,0
1514208618.787,31.250,28.809,36.133,48.828,8.789,0
1514208618.790,35.156,29.785,42.969,57.617,-12.207,0
1514208618.794,35.645,27.344,43.457,58.105,18.555,0
1514208618.798,31.250,31.738,45.898,58.105,68.359,0
1514208618.802,30.762,34.180,47.852,54.688,39.551,0
1514208618.806,37.109,40.039,54.199,55.664,1.953,0
1514208618.810,30.273,29.785,48.828,48.828,53.223,0
1514208618.814,28.809,20.020,39.062,41.016,86.426,0
1514208618.818,32.715,27.344,43.457,44.922,26.367,0
1514208618.822,21.973,26.855,43.945,49.316,2.441,0
1514208618.826,25.879,28.320,46.387,51.270,22.949,0
1514208618.830,34.668,26.367,47.363,50.781,50.293,0
1514208618.833,24.902,22.461,41.016,46.387,20.508,0
1514208618.837,17.578,20.020,35.156,42.969,-30.762,0
1514208618.841,26.367,19.531,39.551,50.293,0.488,0
1514208618.845,31.250,19.531,43.457,52.734,60.059,0
1514208618.849,43.945,29.785,51.270,59.570,50.293,0
1514208618.853,53.223,37.598,56.641,65.918,21.484,0
1514208618.857,42.480,35.156,51.270,61.035,59.570,0
1514208618.861,25.879,31.738,46.875,57.617,86.426,0
1514208618.865,19.043,20.996,34.668,42.480,55.664,0
1514208618.869,27.344,23.926,34.180,42.969,29.785,0
1514208618.873,28.320,26.855,41.016,48.828,38.574,0
1514208618.876,27.832,24.902,39.062,40.039,41.016,0
1514208618.880,20.508,23.926,33.691,39.062,29.297,0
1514208618.884,19.531,22.461,39.062,45.410,1.953,0
1514208618.888,24.414,22.461,43.457,42.969,33.691,0
1514208618.892,25.391,23.926,44.434,45.410,60.547,0
1514208618.896,31.738,24.902,44.922,50.293,41.504,0
1514208618.900,32.715,21.973,35.156,39.551,52.734,0
1514208618.904,39.062,32.227,40.527,47.363,15.625,0
1514208618.908,44.922,34.668,40.039,49.805,-19.043,0
1514208618.912,43.457,30.762,28.809,35.156,4.395,0
1514208618.915,42.969,33.691,30.762,36.133,41.992,0
1514208618.919,49.316,42.969,50.781,52.734,20.020,0
1514208618.923,55.176,55.176,70.801,72.266,7.812,0
1514208618.927,49.805,33.691,52.734,56.641,16.113,0
1514208618.931,26.855,13.184,28.809,31.738,35.156,0
1514208618.935,27.344,18.555,27.832,35.156,39.062,0
1514208618.939,40.527,20.996,27.832,33.691,-9.766,0
1514208618.943,35.156,28.809,25.879,23.438,8.789,0
1514208618.947,39.062,39.062,27.832,29.785,64.453,0
1514208618.951,36.133,34.668,31.738,32.715,35.645,0
1514208618.955,39.062,32.715,41.016,41.016,-6.836,0
1514208618.958,46.875,39.062,46.875,49.316,19.531,0
1514208618.962,41.504,34.180,44.434,39.551,67.871,0
1514208618.966,29.785,32.227,45.898,38.086,55.176,0
1514208618.970,29.785,38.086,48.340,40.527,-12.207,0
1514208618.974,45.410,45.410,48.340,40.527,-17.090,0
1514208618.978,48.340,40.039,39.551,35.645,39.062,0
1514208618.982,43.457,28.809,28.809,30.273,20.996,0
1514208618.986,38.086,26.855,31.250,26.855,-16.113,0
1514208618.990,32.227,31.250,38.086,24.414,-5.371,0
1514208618.994,36.133,36.621,37.109,28.320,29.785,0
1514208618.998,40.039,33.203,34.668,30.273,37.109,0
1514208619.001,36.133,24.414,31.738,26.367,15.137,0
1514208619.005,19.043,24.414,22.949,23.926,-0.488,0
1514208619.009,28.320,34.668,24.902,28.320,18.066,0
1514208619.013,44.922,41.992,33.203,36.133,32.227,0
1514208619.017,23.438,32.227,26.367,30.762,17.090,0
1514208619.021,13.184,28.320,24.902,29.297,-0.488,0
1514208619.025,20.996,28.320,26.367,37.598,2.441,0
1514208619.029,26.855,25.879,22.949,33.691,21.973,0
1514208619.033,47.852,42.969,42.969,55.664,-22.949,0
1514208619.037,53.711,50.293,55.664,71.289,-11.230,0
1514208619.040,50.293,42.480,47.363,63.477,21.484,0
1514208619.044,32.715,26.855,30.273,49.316,11.230,0
1514208619.048,30.762,38.574,34.180,55.176,19.043,0
1514208619.052,47.363,55.664,44.922,68.848,0.488,0
1514208619.056,31.250,34.668,25.391,44.434,-9.277,0
1514208619.060,23.926,23.926,20.996,32.227,31.250,0
1514208619.064,24.414,25.391,26.367,37.598,48.828,0
1514208619.068,30.273,29.785,33.203,45.410,5.859,0
1514208619.072,39.062,46.875,44.922,52.246,-0.488,0
1514208619.076,44.922,49.805,42.480,45.410,-6.836,0
1514208619.080,42.969,32.715,30.273,29.785,8.789,0
1514208619.083,38.086,31.250,27.344,27.832,33.691,0
1514208619.087,31.738,41.992,29.297,40.039,14.160,0
1514208619.091,35.156,38.574,34.668,44.434,28.809,0
1514208619.095,42.480,37.598,37.109,41.992,39.062,0
1514208619.099,37.598,38.086,31.250,37.598,14.648,0
1514208619.103,19.043,28.809,19.531,20.996,-12.695,0
1514208619.107,24.902,37.598,27.344,16.113,-13.184,0
1514208619.111,47.852,56.152,47.852,29.785,19.043,0
1514208619.115,58.594,61.523,55.176,41.992,52.734,0
1514208619.119,45.410,45.898,45.898,32.715,30.762,0
1514208619.123,20.996,19.043,22.949,7.812,19.531,0
1514208619.126,21.973,14.160,22.949,9.766,55.664,0
1514208619.130,35.645,28.809,39.551,31.250,84.473,0
1514208619.134,29.785,38.086,39.551,37.109,34.180,0
1514208619.138,14.160,29.297,27.344,24.902,-12.695,0
1514208619.142,30.762,39.062,34.180,29.785,51.270,0
1514208619.146,46.387,49.805,44.922,35.645,71.777,0
1514208619.150,50.781,52.246,45.898,40.527,50.781,0
1514208619.154,48.340,60.059,46.875,54.199,25.879,0
1514208619.158,32.715,41.016,32.227,34.668,22.461,0
1514208619.162,32.715,29.297,25.391,19.531,51.270,0
1514208619.165,37.109,38.574,34.180,22.949,13.672,0
1514208619.169,46.387,42.480,42.480,36.621,-0.977,0
1514208619.173,48.340,39.062,40.039,49.805,20.020,0
1514208619.177,40.039,25.879,32.715,39.551,22.461,0
1514208619.181,44.922,29.297,39.062,38.574,53.223,0
1514208619.185,55.176,44.434,58.105,60.059,49.316,0
1514208619.189,58.594,47.363,61.035,70.312,33.691,0
1514208619.193,57.129,46.387,50.781,66.406,49.316,0
1514208619.197,38.574,37.598,39.551,51.270,74.707,0
1514208619.201,26.855,33.203,38.086,46.875,50.293,0
1514208619.205,46.387,41.016,50.781,56.641,-2.930,0
1514208619.208,40.039,36.621,43.945,53.711,-3.418,0
1514208619.212,27.344,29.297,32.227,45.898,16.113,0
1514208619.216,34.180,27.832,35.156,47.363,32.715,0
1514208619.220,62.988,48.828,56.152,67.383,12.207,0
1514208619.224,85.938,67.871,69.336,82.520,-1.953,0
1514208619.228,67.871,53.223,51.758,64.453,28.809,0
1514208619.232,52.246,41.504,36.621,45.898,40.527,0
1514208619.236,27.344,30.762,23.438,31.250,28.320,0
1514208619.240,32.715,33.691,24.414,37.109,-1.465,0
1514208619.244,48.828,35.156,36.621,53.223,41.504,0
1514208619.248,46.387,36.621,41.504,55.176,114.258,0
1514208619.251,46.387,44.922,38.574,48.828,81.543,0
1514208619.255,42.969,42.969,33.203,40.527,17.090,0
1514208619.259,61.035,54.199,42.480,55.176,34.668,0
1514208619.263,69.824,58.105,53.711,58.594,78.613,0
1514208619.267,47.363,45.898,41.016,40.039,53.223,0
1514208619.271,44.922,45.410,37.109,41.504,20.508,0
1514208619.275,50.293,39.551,39.062,45.410,57.617,0
1514208619.279,47.852,28.320,31.738,35.645,95.215,0
1514208619.283,41.992,37.598,34.668,28.809,50.781,0
1514208619.287,34.668,47.363,39.062,26.855,-19.531,0
1514208619.290,28.809,33.691,31.738,17.578,7.324,0
1514208619.294,41.504,36.133,37.109,31.738,61.035,0
1514208619.298,58.105,52.734,53.223,52.734,50.781,0
1514208619.302,49.316,43.457,47.852,45.898,19.531,0
1514208619.306,38.086,14.160,31.738,32.715,27.832,0
1514208619.310,41.992,12.695,34.180,37.598,39.551,0
1514208619.314,42.969,36.621,51.270,57.129,17.090,0
1514208619.318,34.668,28.320,41.992,44.922,-0.977,0
1514208619.322,43.945,30.762,52.734,52.734,11.719,0
1514208619.326,56.152,47.852,69.824,71.289,27.344,0
1514208619.330,38.086,29.785,44.434,45.898,41.992,0
1514208619.333,17.578,22.949,40.039,43.945,34.180,0
1514208619.337,28.320,32.715,56.641,59.570,24.902,0
1514208619.341,32.227,32.715,54.688,54.199,17.578,0
1514208619.345,26.855,26.855,45.898,42.969,20.996,0
1514208619.349,19.531,12.695,38.574,34.180,57.617,0
1514208619.353,18.555,4.883,34.180,34.668,56.641,0
1514208619.357,32.715,16.602,41.992,38.574,34.180,0
1514208619.361,41.992,23.438,41.992,38.086,24.414,0
1514208619.365,51.270,27.832,41.992,45.410,54.199,0
1514208619.369,71.777,47.852,66.406,69.336,63.965,0
1514208619.373,72.266,49.316,67.871,66.895,14.648,0
1514208619.376,53.223,30.762,44.434,53.223,52.246,0
1514208619.380,50.781,32.715,49.805,64.941,85.938,0
1514208619.384,54.688,40.527,61.523,74.707,51.270,0
1514208619.388,55.664,33.691,48.828,56.152,0.488,0
1514208619.392,64.453,33.203,43.945,44.922,-5.371,0
1514208619.396,58.105,27.344,38.086,40.039,42.480,0
1514208619.400,35.645,24.414,31.738,40.527,51.270,0
1514208619.404,41.504,31.738,41.504,50.781,7.812,0
1514208619.408,62.500,46.387,47.852,66.406,20.996,0
1514208619.412,61.523,44.434,41.504,60.059,64.941,0
1514208619.415,54.688,38.574,36.621,44.922,78.125,0
1514208619.419,71.289,60.059,55.176,67.871,37.598,0
1514208619.423,78.125,61.035,64.453,84.961,24.414,0
1514208619.427,54.688,33.203,40.527,57.617,65.918,0
1514208619.431,47.852,24.414,30.762,43.945,72.266,0
1514208619.435,63.477,39.551,45.410,61.035,31.250,0
1514208619.439,59.570,48.828,47.852,61.035,-13.184,0
1514208619.443,62.012,46.387,44.922,59.570,30.273,0
1514208619.447,76.660,51.270,52.734,66.895,74.219,0
1514208619.451,82.520,64.941,64.453,75.195,16.113,0
1514208619.455,69.824,43.457,54.199,63.477,-5.371,0
1514208619.458,62.012,33.691,41.992,50.293,51.270,0
1514208619.462,75.684,53.223,49.316,63.965,66.895,0
1514208619.466,60.059,44.434,41.992,53.223,35.645,0
1514208619.470,54.199,42.480,38.574,55.664,17.578,0
1514208619.474,64.453,47.363,43.457,68.359,19.043,0
1514208619.478,51.270,36.133,40.039,57.129,49.805,0
1514208619.482,45.410,41.016,50.293,58.105,62.500,0
1514208619.486,51.270,47.852,58.594,63.965,20.508,0
1514208619.490,50.293,40.039,54.199,59.082,-1.465,0
1514208619.494,56.152,42.480,59.082,62.012,32.227,0
1514208619.498,65.918,44.922,61.035,60.547,49.316,0
1514208619.501,62.012,43.457,57.129,55.664,28.320,0
1514208619.505,50.781,40.527,47.363,48.828,8.789,0
1514208619.509,46.387,31.738,40.527,46.875,23.926,0
1514208619.513,49.316,31.250,42.480,55.664,48.828,0
1514208619.517,53.223,34.668,45.410,59.082,29.297,0
1514208619.521,51.758,29.785,42.969,56.152,-10.742,0
1514208619.525,49.316,30.273,41.504,56.641,-3.906,0
1514208619.529,54.688,42.969,53.711,69.336,17.578,0
1514208619.533,65.430,47.363,60.059,75.195,11.230,0
1514208619.537,47.852,33.203,46.387,72.266,-12.207,0
1514208619.540,37.109,21.484,40.527,61.035,-23.926,0
1514208619.544,56.641,25.391,47.852,57.129,7.324,0
1514208619.548,71.777,42.969,60.059,66.406,33.203,0
1514208619.552,60.547,48.828,58.105,60.059,16.602,0
1514208619.556,44.434,35.156,46.875,52.734,4.395,0
1514208619.560,48.828,25.879,45.898,50.781,4.883,0
1514208619.564,72.754,35.645,56.641,63.477,47.852,0
1514208619.568,77.148,41.992,63.965,70.312,10.254,0
1514208619.572,77.148,46.387,67.383,70.801,-46.387,0
1514208619.576,83.984,44.922,61.523,67.383,-5.859,0
1514208619.580,69.824,33.691,47.852,53.711,12.695,0
1514208619.583,56.152,33.203,51.270,60.059,-32.227,0
1514208619.587,52.246,44.434,57.129,71.777,-69.824,0
1514208619.591,48.828,40.039,44.922,66.895,-24.414,0
1514208619.595,40.039,20.508,33.203,54.199,30.273,0
1514208619.599,35.645,23.438,34.180,50.293,25.391,0
1514208619.603,45.410,30.762,40.527,51.758,-21.484,0
1514208619.607,49.316,24.414,46.387,50.781,-14.160,0
1514208619.611,48.340,22.949,45.410,52.246,21.484,0
1514208619.615,62.012,40.527,52.246,58.594,22.461,0
1514208619.619,64.941,47.363,63.477,67.383,-32.715,0
1514208619.623,68.848,47.363,65.430,65.430,-29.297,0
1514208619.626,66.895,47.363,52.246,56.641,11.230,0
1514208619.630,42.969,32.715,36.133,40.527,-1.465,0
1514208619.634,17.090,16.113,21.973,24.414,-42.480,0
1514208619.638,11.719,15.625,19.043,29.297,-3.906,0
1514208619.642,23.926,27.344,30.273,37.109,22.949,0
1514208619.646,29.297,28.320,35.645,32.715,9.277,0
1514208619.650,34.180,33.203,36.133,30.273,29.297,0
1514208619.654,30.762,39.062,34.668,25.879,-11.719,0
1514208619.658,24.414,30.273,38.574,30.762,-34.180,0
1514208619.662,16.113,28.320,41.504,31.250,4.395,0
1514208619.665,17.090,36.133,40.039,30.273,37.109,0
1514208619.669,33.203,35.645,46.875,33.203,31.738,0
1514208619.673,26.367,27.832,41.504,29.297,-35.645,0
1514208619.677,39.062,33.691,45.410,37.109,-16.602,0
1514208619.681,48.828,34.668,50.781,34.180,47.363,0
1514208619.685,29.297,34.180,41.992,24.902,43.457,0
1514208619.689,28.809,32.227,41.016,33.691,0.488,0
1514208619.693,24.902,28.809,39.551,40.527,-25.391,0
1514208619.697,26.367,37.109,44.434,55.176,39.551,0
1514208619.701,42.480,44.922,52.734,68.848,40.039,0
1514208619.705,50.293,46.875,49.316,60.547,-5.859,0
1514208619.708,39.062,39.551,40.527,53.223,7.812,0
1514208619.712,27.832,31.250,31.250,48.828,44.922,0
1514208619.716,20.996,23.438,24.414,45.410,41.992,0
1514208619.720,19.531,23.926,26.367,48.340,14.648,0
1514208619.724,24.414,32.227,31.250,44.922,9.277,0
1514208619.728,40.039,44.434,42.480,54.688,61.523,0
1514208619.732,38.574,42.969,40.527,56.152,52.734,0
1514208619.736,38.086,35.645,36.621,57.129,-50.781,0
1514208619.740,57.617,38.574,43.945,62.012,-20.996,0
1514208619.744,57.617,39.551,36.621,56.641,50.781,0
1514208619.748,42.480,32.715,23.926,43.945,43.457,0
1514208619.751,41.504,34.668,25.391,33.203,-7.812,0
1514208619.755,51.758,38.086,32.227,41.504,-15.625,0
1514208619.759,48.828,29.297,20.508,30.273,27.344,0
1514208619.763,41.992,25.391,11.719,15.137,60.059,0
1514208619.767,34.180,25.879,15.625,22.949,36.133,0
1514208619.771,39.062,30.273,18.066,29.785,7.812,0
1514208619.775,50.293,38.086,22.461,24.902,41.992,0
1514208619.779,50.293,41.992,27.832,22.949,49.805,0
1514208619.783,62.988,55.176,41.504,38.574,39.062,0
1514208619.787,53.711,58.105,44.922,41.504,15.625,0
1514208619.790,36.133,40.527,30.762,40.527,17.090,0
1514208619.794,42.969,33.691,20.996,44.434,50.781,0
1514208619.798,29.785,29.297,19.043,39.551,62.988,0
1514208619.802,11.230,23.926,17.578,34.180,42.969,0
1514208619.806,22.461,25.879,14.648,29.785,39.062,0
1514208619.810,34.180,24.902,19.531,36.621,69.824,0
1514208619.814,37.109,28.809,29.785,49.316,76.172,0
1514208619.818,51.270,44.922,42.480,63.965,40.039,0
1514208619.822,44.922,36.621,42.969,64.453,8.789,0
1514208619.826,25.879,19.043,27.832,44.434,14.160,0
1514208619.830,27.344,22.461,22.461,44.434,66.895,0
1514208619.833,39.551,33.691,40.527,66.895,91.309,0
1514208619.837,41.016,30.273,37.598,62.988,28.809,0
1514208619.841,36.621,22.461,29.297,55.176,19.531,0
1514208619.845,36.133,20.996,31.250,52.246,70.312,0
1514208619.849,38.086,27.832,29.297,45.410,78.613,0
1514208619.853,36.621,23.438,26.367,40.039,34.180,0
1514208619.857,44.922,21.973,34.668,44.922,10.254,0
1514208619.861,70.312,45.410,52.734,58.105,49.805,0
1514208619.865,65.430,46.387,49.316,46.875,61.035,0
1514208619.869,40.527,30.762,36.133,28.809,-1.953,0
1514208619.873,41.992,31.250,40.039,30.273,-37.109,0
1514208619.876,40.527,30.762,38.086,36.621,2.441,0
1514208619.880,38.086,28.809,37.598,37.598,58.594,0
1514208619.884,35.645,33.691,50.781,43.457,44.434,0
1514208619.888,35.645,38.574,54.688,51.270,-1.953,0
1514208619.892,40.039,30.762,45.898,47.852,9.766,0
1514208619.896,32.715,23.438,39.062,36.133,10.742,0
1514208619.900,31.250,21.973,38.574,30.273,-12.695,0
1514208619.904,32.227,13.184,39.062,23.926,-17.578,0
1514208619.908,33.691,21.484,39.062,18.555,30.273,0
1514208619.912,22.461,30.762,33.691,11.719,56.152,0
1514208619.915,16.602,23.926,30.273,7.324,11.719,0
1514208619.919,31.250,23.926,43.457,27.344,-28.320,0
1514208619.923,44.434,34.180,45.898,38.086,-27.344,0
1514208619.927,51.270,41.504,46.875,37.598,20.996,0
1514208619.931,44.922,35.645,51.270,35.156,26.855,0
1514208619.935,41.016,34.180,47.363,35.645,24.414,0
1514208619.939,33.691,30.762,42.480,37.109,17.090,0
1514208619.943,23.926,23.926,31.738,21.973,6.836,0
1514208619.947,36.621,33.203,33.203,23.926,28.809,0
1514208619.951,29.297,24.414,29.785,27.344,11.230,0
1514208619.955,21.484,12.207,26.855,27.832,-16.113,0
1514208619.958,27.832,23.438,33.203,33.203,-31.250,0
1514208619.962,29.297,31.250,35.645,33.691,-9.766,0
1514208619.966,30.762,27.832,38.086,32.715,27.832,0
1514208619.970,32.227,28.320,39.551,37.598,-33.203,0
1514208619.974,35.645,35.156,45.898,48.828,-51.758,0
1514208619.978,37.598,31.738,43.945,37.598,8.301,0
1514208619.982,49.805,32.227,48.828,40.527,32.715,0
1514208619.986,45.410,33.691,46.387,48.828,20.996,0
1514208619.990,40.527,41.992,44.922,43.457,2.441,0
1514208619.994,49.805,48.828,50.781,48.340,31.738,0
1514208619.998,43.457,35.645,48.340,47.852,53.711,0
1514208620.001,34.180,32.715,45.898,49.805,41.504,0
1514208620.005,29.785,32.715,38.086,48.828,-0.488,0
1514208620.009,39.551,29.785,38.574,47.363,12.207,0
1514208620.013,46.387,23.926,37.598,43.457,72.754,0
1514208620.017,31.738,20.508,33.691,41.016,71.289,0
1514208620.021,34.180,31.250,41.504,49.805,26.855,0
1514208620.025,50.293,36.621,44.434,56.152,35.156,0
1514208620.029,45.410,31.738,37.109,52.246,87.402,0
1514208620.033,49.805,42.480,46.387,59.082,44.922,0
1514208620.037,57.129,41.016,45.898,57.617,10.254,0
1514208620.040,37.598,21.484,25.879,37.109,41.504,0
1514208620.044,41.992,16.602,33.691,36.133,39.551,0
1514208620.048,69.824,25.879,55.664,59.570,22.461,0
1514208620.052,73.242,43.457,61.035,65.918,-2.441,0
1514208620.056,57.129,43.457,49.316,50.781,5.371,0
1514208620.060,35.156,29.297,34.180,43.457,42.480,0
1514208620.064,34.180,32.227,36.133,51.758,43.457,0
1514208620.068,47.852,40.527,44.434,58.594,11.230,0
1514208620.072,39.062,26.367,35.645,41.992,13.184,0
1514208620.076,40.039,21.484,31.738,41.504,39.062,0
1514208620.080,59.082,35.645,46.387,62.500,62.012,0
1514208620.083,47.363,40.527,48.828,62.012,58.105,0
1514208620.087,27.832,29.785,38.574,52.734,-6.348,0
1514208620.091,35.156,23.926,32.227,53.223,2.930,0
1514208620.095,46.875,39.062,42.480,62.988,37.109,0
1514208620.099,60.547,60.547,61.035,75.684,24.414,0
1514208620.103,56.152,40.039,46.387,63.477,26.367,0
1514208620.107,32.715,16.602,22.949,41.504,-6.348,0
1514208620.111,46.875,29.785,33.203,50.781,5.859,0
1514208620.115,74.707,62.500,52.734,72.754,70.801,0
1514208620.119,58.594,56.152,48.828,66.895,50.293,0
1514208620.123,40.527,23.438,33.203,46.875,9.766,0
1514208620.126,38.086,23.926,25.391,42.480,52.246,0
1514208620.130,36.133,31.250,29.297,46.387,66.895,0
1514208620.134,42.480,28.320,37.598,53.223,32.715,0
1514208620.138,49.316,30.762,39.062,55.664,2.930,0
1514208620.142,51.270,32.715,38.574,52.734,27.344,0
1514208620.146,53.223,34.668,43.457,57.617,72.266,0
1514208620.150,55.176,37.109,44.922,60.059,53.223,0
1514208620.154,52.734,47.852,56.152,66.895,11.230,0
1514208620.158,56.152,48.340,57.129,64.941,-3.418,0
1514208620.162,43.945,26.855,31.250,40.039,54.199,0
1514208620.165,37.598,28.809,31.250,31.250,87.402,0
1514208620.169,43.945,35.156,42.969,45.410,20.508,0
1514208620.173,43.457,18.555,33.203,39.551,30.273,0
1514208620.177,60.059,22.949,37.109,42.969,62.500,0
1514208620.181,72.266,47.363,51.270,63.477,34.180,0
1514208620.185,68.848,47.852,47.363,66.406,14.648,0
1514208620.189,69.336,39.551,39.062,58.594,13.184,0
1514208620.193,79.590,48.340,44.434,66.406,36.621,0
1514208620.197,77.637,53.223,47.363,73.242,53.223,0
1514208620.201,65.918,41.992,43.457,71.777,4.395,0
1514208620.205,67.383,39.551,42.969,72.266,3.906,0
1514208620.208,62.988,35.156,33.203,53.223,37.109,0
1514208620.212,49.805,21.484,25.879,36.133,49.316,0
1514208620.216,54.688,32.227,40.527,52.246,64.941,0
1514208620.220,66.406,51.270,53.711,72.266,31.250,0
1514208620.224,56.641,47.363,46.387,65.430,42.969,0
1514208620.228,43.457,30.273,34.180,52.734,88.867,0
1514208620.232,54.199,30.273,36.621,53.711,80.566,0
1514208620.236,57.617,43.457,45.410,57.617,44.922,0
1514208620.240,53.223,49.805,48.340,61.035,14.648,0
1514208620.244,67.871,50.781,43.945,59.570,48.340,0
1514208620.248,64.453,46.875,44.922,62.988,86.426,0
1514208620.251,44.434,37.109,44.434,62.012,65.430,0
1514208620.255,45.410,34.668,42.480,54.199,25.391,0
1514208620.259,40.039,35.156,43.945,56.152,10.742,0
1514208620.263,33.203,35.645,42.969,60.547,53.711,0
1514208620.267,41.016,34.668,41.504,58.105,73.730,0
1514208620.271,38.086,25.391,37.598,51.758,41.504,0
1514208620.275,48.828,35.156,39.551,58.594,34.180,0
1514208620.279,60.059,42.480,41.016,57.129,65.430,0
1514208620.283,42.480,35.156,30.273,38.086,84.961,0
1514208620.287,27.832,27.344,25.879,33.203,64.453,0
1514208620.290,33.691,25.391,34.180,43.945,11.230,0
1514208620.294,43.945,25.879,40.527,52.246,34.668,0
1514208620.298,56.641,27.344,47.852,65.430,86.426,0
1514208620.302,67.871,39.062,61.035,78.613,49.805,0
1514208620.306,62.012,46.387,63.477,72.754,35.156,0
1514208620.310,57.617,44.434,53.711,55.664,74.707,0
1514208620.314,53.223,41.504,44.434,46.387,99.121,0
1514208620.318,50.293,48.340,46.387,44.434,57.129,0
1514208620.322,36.133,44.922,39.062,34.180,21.484,0
1514208620.326,29.785,30.762,20.508,18.066,38.574,0
1514208620.330,42.480,26.855,23.926,15.625,57.617,0
1514208620.333,35.156,28.320,34.180,22.461,31.250,0
1514208620.337,34.180,35.645,36.133,29.785,1.465,0
1514208620.341,53.223,49.805,41.016,39.551,18.555,0
1514208620.345,54.688,51.758,51.270,41.992,58.105,0
1514208620.349,57.617,44.434,62.012,42.480,37.109,0
1514208620.353,54.199,45.898,55.176,35.645,16.602,0
1514208620.357,44.922,39.062,37.109,18.555,48.340,0
1514208620.361,36.133,38.086,28.320,12.695,59.570,0
1514208620.365,25.879,33.203,24.414,19.531,70.801,0
1514208620.369,33.691,30.273,32.227,32.715,54.199,0
1514208620.373,40.527,35.645,44.922,49.316,18.066,0
1514208620.376,54.199,41.016,51.270,60.059,31.250,0
1514208620.380,55.664,41.504,54.688,63.965,42.480,0
1514208620.384,46.875,44.434,57.129,60.059,24.414,0
1514208620.388,45.898,50.293,44.434,52.734,23.438,0
1514208620.392,26.367,34.668,21.484,39.551,49.316,0
1514208620.396,23.438,32.227,19.531,32.715,50.781,0
1514208620.400,34.180,38.574,29.785,37.109,41.016,0
1514208620.404,33.691,36.133,35.156,39.062,41.016,0
1514208620.408,40.527,28.809,35.156,36.621,14.648,0
1514208620.412,43.945,32.715,37.598,39.062,29.297,0
1514208620.415,27.344,31.738,35.156,40.527,75.195,0
1514208620.419,27.344,27.344,40.527,47.363,34.180,0
1514208620.423,49.316,46.387,61.035,66.895,-21.484,0
1514208620.427,40.527,35.645,53.711,64.941,21.484,0
1514208620.431,20.996,10.254,37.598,48.828,70.801,0
1514208620.435,23.438,29.297,44.922,43.945,37.109,0
1514208620.439,37.598,43.457,58.105,56.641,1.465,0
1514208620.443,51.758,39.551,59.570,58.105,13.184,0
1514208620.447,41.016,32.227,47.852,41.504,36.133,0
1514208620.451,31.250,31.738,52.246,42.480,31.738,0
1514208620.455,39.551,40.527,61.523,46.875,-20.020,0
1514208620.458,49.805,38.086,61.523,46.387,-47.852,0
1514208620.462,63.477,32.227,60.547,48.340,36.621,0
1514208620.466,47.852,30.762,52.246,35.645,52.246,0
1514208620.470,27.832,27.832,44.922,30.762,-24.902,0
1514208620.474,34.668,25.879,47.852,33.691,-10.254,0
1514208620.478,33.691,20.996,44.434,29.785,45.410,0
1514208620.482,48.828,35.156,47.852,41.992,33.691,0
1514208620.486,49.805,44.922,58.105,48.828,3.418,0
1514208620.490,42.969,25.391,44.434,36.133,-7.324,0
1514208620.494,52.734,17.090,39.062,37.109,19.531,0
1514208620.498,43.457,19.531,40.039,42.480,43.457,0
1514208620.501,39.551,31.250,46.875,52.734,6.836,0
1514208620.505,48.340,36.621,58.105,70.312,-28.809,0
1514208620.509,60.547,40.527,61.035,76.172,9.277,0
1514208620.513,69.336,41.016,67.871,79.590,29.785,0
1514208620.517,59.082,17.578,57.129,68.359,22.461,0
1514208620.521,54.199,16.602,49.805,54.199,-4.883,0
1514208620.525,59.570,32.227,51.758,57.617,-3.906,0
1514208620.529,56.152,37.109,53.711,65.430,22.949,0
1514208620.533,45.410,25.879,51.270,63.965,10.254,0
1514208620.537,31.250,11.719,34.180,50.781,-8.789,0
1514208620.540,27.344,10.742,32.227,55.176,-5.371,0
1514208620.544,25.391,8.301,38.574,64.453,45.410,0
1514208620.548,24.414,19.043,50.293,72.754,65.918,0
1514208620.552,37.598,25.879,59.570,78.125,14.160,0
1514208620.556,43.945,24.902,62.012,80.078,-13.672,0
1514208620.560,47.852,26.367,56.152,72.754,12.207,0
1514208620.564,49.805,25.391,47.363,55.176,27.832,0
1514208620.568,49.316,29.785,56.152,58.594,19.043,0
1514208620.572,55.176,32.227,66.895,70.801,2.930,0
1514208620.576,39.062,7.324,57.129,57.617,11.719,0
1514208620.580,14.648,-3.418,37.598,36.621,40.527,0
1514208620.583,4.883,8.789,27.832,21.973,29.785,0
1514208620.587,20.508,19.531,40.527,26.367,-15.625,0
1514208620.591,31.250,20.508,44.922,32.715,-7.812,0
1514208620.595,40.039,20.020,45.410,43.945,84.473,0
1514208620.599,54.688,34.668,68.359,66.406,104.980,0
1514208620.603,56.641,44.922,74.707,65.918,29.297,0
1514208620.607,44.922,35.156,57.129,45.410,4.395,0
1514208620.611,48.340,36.621,59.570,47.363,20.996,0
1514208620.615,43.945,27.344,53.711,41.016,70.312,0
1514208620.619,16.113,8.301,35.156,22.949,25.879,0
1514208620.623,5.371,6.836,30.762,24.414,-33.691,0
1514208620.626,15.625,12.695,36.133,26.855,16.113,0
1514208620.630,19.531,13.184,42.480,26.367,82.520,0
1514208620.634,32.715,24.902,56.152,44.434,57.617,0
1514208620.638,53.223,44.434,68.848,54.688,17.090,0
1514208620.642,45.410,38.574,57.617,48.340,64.453,0
1514208620.646,31.250,16.113,38.086,37.598,95.215,0
1514208620.650,36.621,11.719,40.527,34.180,72.754,0
1514208620.654,45.410,21.973,46.875,35.156,47.363,0
1514208620.658,41.504,26.855,37.598,27.344,59.570,0
1514208620.662,49.805,33.691,46.387,41.016,69.824,0
1514208620.665,44.922,33.691,54.199,57.129,33.691,0
1514208620.669,38.574,33.691,50.293,56.152,10.742,0
1514208620.673,44.434,28.809,47.852,53.711,55.176,0
1514208620.677,41.992,22.949,41.504,42.480,96.680,0
1514208620.681,38.574,19.531,40.527,37.109,58.105,0
1514208620.685,50.293,14.648,47.363,47.363,41.992,0
1514208620.689,64.941,25.391,56.152,52.734,50.781,0
1514208620.693,41.016,22.949,47.363,45.898,61.523,0
1514208620.697,15.625,7.324,27.832,26.855,88.379,0
1514208620.701,29.785,11.230,36.621,41.016,59.082,0
1514208620.705,55.176,32.715,54.688,63.965,23.926,0
1514208620.708,55.176,39.062,51.758,47.852,11.230,0
1514208620.712,41.016,32.227,47.852,41.016,20.996,0
1514208620.716,33.203,25.391,44.434,42.969,41.016,0
1514208620.720,25.879,16.602,35.645,30.762,31.250,0
1514208620.724,31.738,20.996,41.016,34.180,27.832,0
1514208620.728,43.457,24.902,42.480,37.598,59.570,0
1514208620.732,37.598,17.578,33.203,20.996,95.215,0
1514208620.736,16.602,13.184,29.785,13.672,73.730,0
1514208620.740,19.043,16.113,39.062,30.762,56.641,0
1514208620.744,40.527,29.297,53.223,43.457,68.359,0
1514208620.748,49.316,37.598,60.547,43.457,79.102,0
1514208620.751,38.086,27.344,47.363,36.621,60.547,0
1514208620.755,16.602,13.184,28.320,18.066,10.742,0
1514208620.759,26.855,12.695,36.133,30.762,16.113,0
1514208620.763,36.133,25.879,44.922,32.715,72.754,0
1514208620.767,24.414,20.996,38.574,19.043,42.480,0
1514208620.771,32.715,14.648,40.039,33.203,-18.555,0
1514208620.775,29.785,23.438,41.504,44.922,9.277,0
1514208620.779,17.578,26.855,34.668,40.039,55.664,0
1514208620.783,16.113,30.273,41.504,37.109,32.715,0
1514208620.787,5.859,24.902,43.945,41.016,14.648,0
1514208620.790,17.578,9.766,35.156,30.273,20.508,0
1514208620.794,31.738,7.812,32.715,26.367,33.203,0
1514208620.798,34.180,20.996,39.551,39.551,45.410,0
1514208620.802,43.457,28.320,45.898,49.316,3.418,0
1514208620.806,35.156,29.785,40.039,39.551,-12.207,0
1514208620.810,14.160,20.020,24.414,19.043,26.855,0
1514208620.814,16.113,12.695,20.020,18.066,50.781,0
1514208620.818,14.648,11.719,21.484,13.184,28.320,0
1514208620.822,20.508,23.438,39.062,28.320,24.902,0
1514208620.826,37.109,51.270,57.129,51.758,38.086,0
1514208620.830,23.438,38.086,40.039,30.273,60.547,0
1514208620.833,18.066,21.973,26.855,20.508,31.250,0
1514208620.837,21.484,23.926,25.391,16.602,-6.836,0
1514208620.841,11.719,18.555,20.020,4.883,-7.812,0
1514208620.845,8.301,17.090,31.738,10.742,21.484,0
1514208620.849,2.930,20.508,35.156,15.625,39.062,0
1514208620.853,9.766,30.273,38.086,20.020,7.324,0
1514208620.857,23.438,34.668,44.922,14.648,-7.812,0
1514208620.861,16.602,27.832,36.621,8.789,-14.160,0
1514208620.865,9.277,24.902,31.250,11.719,37.598,0
1514208620.869,26.367,37.598,50.293,32.715,29.785,0
1514208620.873,22.949,38.086,45.898,25.879,-13.184,0
1514208620.876,10.254,30.762,26.855,9.277,-5.859,0
1514208620.880,14.648,18.066,26.855,7.812,0.977,0
1514208620.884,11.230,17.578,26.855,4.883,14.648,0
1514208620.888,18.555,29.785,30.762,17.090,-4.395,0
1514208620.892,21.484,17.578,27.344,20.508,-28.809,0
1514208620.896,17.090,13.672,23.926,27.344,-4.395,0
1514208620.900,27.832,25.879,38.086,39.551,24.414,0
1514208620.904,35.156,37.109,49.805,40.527,-0.488,0
1514208620.908,31.250,38.086,41.992,39.062,-35.156,0
1514208620.912,33.203,37.598,34.180,41.016,32.715,0
1514208620.915,34.668,41.992,37.598,42.480,39.551,0
1514208620.919,47.852,46.875,47.852,57.617,-14.648,0
1514208620.923,41.992,37.109,40.039,56.152,-2.441,0
1514208620.927,23.926,20.508,22.949,42.480,30.273,0
1514208620.931,43.945,23.926,32.227,55.176,31.738,0
1514208620.935,56.152,43.457,42.480,65.918,-36.133,0
1514208620.939,51.758,46.387,40.039,68.848,-64.941,0
1514208620.943,58.105,40.527,39.062,67.383,3.906,0
1514208620.947,50.781,37.598,33.203,56.152,29.297,0
1514208620.951,40.527,28.320,22.949,38.574,7.812,0
1514208620.955,37.598,30.762,26.855,37.598,-8.301,0
1514208620.958,40.527,25.391,28.320,44.922,34.668,0
1514208620.962,53.711,35.645,42.969,54.199,65.430,0
1514208620.966,59.570,60.547,60.059,66.895,31.738,0
1514208620.970,36.621,38.574,40.039,42.480,10.742,0
1514208620.974,32.227,30.762,33.203,33.203,20.508,0
1514208620.978,51.270,41.016,36.621,36.621,36.621,0
1514208620.982,42.969,33.691,31.250,24.902,28.320,0
1514208620.986,31.250,28.320,36.621,25.391,5.859,0
1514208620.990,38.574,35.645,37.109,24.902,23.438,0
1514208620.994,28.809,29.297,30.762,18.066,47.363,0
1514208620.998,20.996,25.879,41.016,24.902,32.227,0
1514208621.001,18.066,32.715,46.875,41.016,29.785,0
1514208621.005,8.789,17.578,31.250,25.391,31.738,0
1514208621.009,12.207,16.113,26.367,6.348,20.020,0
1514208621.013,14.160,29.297,36.133,8.301,11.719,0
1514208621.017,22.461,35.645,46.875,22.461,21.973,0
1514208621.021,22.461,39.062,52.246,32.227,31.738,0
1514208621.025,22.949,38.086,53.223,26.855,54.688,0
1514208621.029,32.227,28.320,50.781,22.949,62.012,0
1514208621.033,26.855,25.879,46.875,23.926,25.879,0
1514208621.037,26.367,26.855,42.480,30.762,-15.625,0
1514208621.040,24.414,24.414,34.180,26.855,-44.434,0
1514208621.044,26.367,29.297,31.250,24.414,7.812,0
1514208621.048,31.738,27.344,33.691,33.203,85.449,0
1514208621.052,33.203,28.809,43.457,50.781,22.461,0
1514208621.056,44.922,37.109,58.105,64.941,-52.734,0
1514208621.060,40.039,21.973,47.852,55.664,32.227,0
1514208621.064,25.879,19.043,29.785,45.898,73.730,0
1514208621.068,33.691,32.227,40.039,53.711,20.996,0
1514208621.072,41.016,38.086,48.340,58.105,-7.324,0
1514208621.076,37.109,31.250,41.992,51.270,33.691,0
1514208621.080,43.457,33.691,40.527,45.410,75.195,0
1514208621.083,47.363,32.715,42.480,45.898,36.133,0
1514208621.087,41.016,19.531,33.691,34.180,-2.930,0
1514208621.091,49.805,26.367,22.949,22.461,27.344,0
1514208621.095,60.059,42.480,32.227,30.762,88.379,0
1514208621.099,52.734,36.133,32.715,31.738,46.875,0
1514208621.103,42.480,24.414,28.320,23.926,5.371,0
1514208621.107,34.668,24.414,27.832,18.066,17.090,0
1514208621.111,38.086,35.645,31.738,30.762,14.648,0
1514208621.115,46.875,41.016,43.945,48.340,41.504,0
1514208621.119,46.875,39.551,46.875,48.340,27.344,0
1514208621.123,56.641,52.734,63.965,59.082,0.488,0
1514208621.126,54.688,47.852,66.406,61.035,15.625,0
1514208621.130,31.250,20.996,41.016,35.156,26.367,0
1514208621.134,18.555,10.742,28.320,16.113,19.043,0
1514208621.138,16.602,17.090,28.809,13.672,10.742,0
1514208621.142,27.344,31.738,35.645,22.461,13.672,0
1514208621.146,26.367,21.484,36.621,26.855,49.316,0
1514208621.150,7.812,2.930,30.273,12.207,62.988,0
1514208621.154,7.324,8.301,31.250,6.836,14.160,0
1514208621.158,22.949,27.832,45.898,26.367,-1.953,0
1514208621.162,36.133,37.598,53.711,39.062,15.137,0
1514208621.165,34.180,30.273,46.875,33.203,48.340,0
1514208621.169,31.250,41.992,53.711,36.621,31.250,0
1514208621.173,46.875,41.016,62.988,52.734,-15.137,0
1514208621.177,56.152,20.508,48.828,48.828,33.691,0
1514208621.181,48.340,20.996,32.715,34.668,64.941,0
1514208621.185,43.457,28.320,28.320,29.297,15.625,0
1514208621.189,41.504,30.273,31.250,35.645,-21.973,0
1514208621.193,48.340,25.391,37.598,49.316,-20.508,0
1514208621.197,54.688,24.902,42.969,53.711,49.316,0
1514208621.201,54.688,41.016,57.617,73.242,61.035,0
1514208621.205,45.898,29.785,40.527,62.500,-3.418,0
1514208621.208,29.785,15.625,18.066,28.320,12.207,0
1514208621.212,47.363,30.762,26.855,34.180,43.945,0
1514208621.216,65.430,49.316,39.551,55.664,25.391,0
1514208621.220,57.617,42.969,45.410,56.152,-35.156,0
1514208621.224,62.012,37.109,48.340,46.387,-27.832,0
1514208621.228,54.688,38.086,39.551,42.480,47.363,0
1514208621.232,44.922,36.133,37.598,37.598,47.852,0
1514208621.236,42.969,29.785,31.738,25.391,8.301,0
1514208621.240,41.992,27.832,29.785,28.809,0.977,0
1514208621.244,49.316,35.645,43.457,41.016,29.785,0
1514208621.248,45.898,25.391,37.598,36.133,49.316,0
1514208621.251,33.203,18.555,24.902,19.531,25.879,0
1514208621.255,47.363,36.133,32.715,34.668,0.488,0
1514208621.259,57.129,45.898,42.480,47.852,-0.488,0
1514208621.263,41.016,33.203,31.250,26.855,38.086,0
1514208621.267,42.480,37.109,36.133,33.203,47.363,0
1514208621.271,55.176,50.293,51.270,51.270,-25.879,0
1514208621.275,43.945,47.852,39.551,41.504,-41.504,0
1514208621.279,43.457,44.434,37.109,35.156,-1.953,0
1514208621.283,49.316,39.062,40.527,33.691,-10.742,0
1514208621.287,43.457,34.180,31.250,27.344,-9.277,0
1514208621.290,50.293,36.621,30.762,21.973,-8.301,0
1514208621.294,54.688,40.527,35.156,23.438,13.672,0
1514208621.298,59.570,39.551,39.062,32.227,21.484,0
1514208621.302,45.410,27.344,34.668,20.996,19.531,0
1514208621.306,41.992,31.738,38.086,17.578,7.812,0
1514208621.310,59.082,52.734,51.758,43.945,11.230,0
1514208621.314,65.430,51.270,49.316,46.387,14.648,0
1514208621.318,56.641,39.551,43.457,36.621,7.812,0
1514208621.322,30.273,24.414,36.133,35.156,-1.465,0
1514208621.326,33.691,22.949,32.715,35.156,-14.160,0
1514208621.330,44.434,32.715,43.457,42.969,23.438,0
1514208621.333,40.039,33.203,55.176,59.082,53.223,0
1514208621.337,26.855,30.273,47.363,50.293,26.855,0
1514208621.341,25.879,29.297,43.945,48.828,2.930,0
1514208621.345,37.109,33.691,49.316,57.129,86.426,0
1514208621.349,36.621,40.039,53.223,52.246,89.355,0
1514208621.353,29.785,42.969,53.223,51.270,11.230,0
1514208621.357,23.438,35.645,47.852,47.363,3.418,0
1514208621.361,19.531,29.785,44.922,42.969,42.480,0
1514208621.365,9.766,22.949,36.133,29.785,61.523,0
1514208621.369,9.277,22.461,37.109,31.738,14.648,0
1514208621.373,16.113,25.879,42.969,45.410,-10.254,0
1514208621.376,33.203,31.250,51.270,51.758,41.016,0
1514208621.380,38.086,34.668,60.059,59.570,82.031,0
1514208621.384,36.621,46.387,69.336,70.312,57.129,0
1514208621.388,36.133,42.969,70.312,67.383,10.254,0
1514208621.392,17.090,16.602,54.688,44.922,34.180,0
1514208621.396,14.648,9.766,47.852,42.969,73.730,0
1514208621.400,20.508,16.602,47.363,42.969,69.824,0
1514208621.404,17.090,23.926,47.363,43.945,35.156,0
1514208621.408,26.367,25.391,50.781,46.387,39.062,0
1514208621.412,25.879,24.902,52.734,52.246,105.469,0
1514208621.415,26.367,35.156,58.594,71.777,87.402,0
1514208621.419,39.062,48.340,67.871,77.148,41.016,0
1514208621.423,44.434,37.109,57.617,62.500,31.250,0
1514208621.427,25.391,16.602,37.598,40.039,49.316,0
1514208621.431,25.879,29.785,45.410,45.410,85.938,0
1514208621.435,32.227,34.180,51.758,52.246,42.480,0
1514208621.439,34.180,26.367,49.805,50.293,4.395,0
1514208621.443,40.527,23.438,38.574,35.156,3.418,0
1514208621.447,32.227,24.414,29.297,21.484,32.715,0
1514208621.451,37.109,44.434,47.363,45.898,62.988,0
1514208621.455,56.152,59.570,62.500,63.477,42.480,0
1514208621.458,55.176,56.152,58.594,66.895,40.527,0
1514208621.462,39.062,36.133,37.598,54.199,30.762,0
1514208621.466,31.738,22.949,20.020,38.574,46.387,0
1514208621.470,29.785,27.344,20.020,37.598,41.016,0
1514208621.474,49.805,45.410,37.598,49.316,-3.418,0
1514208621.478,58.594,46.387,41.504,60.059,36.133,0
1514208621.482,45.410,32.227,32.227,59.570,78.613,0
1514208621.486,41.016,40.527,34.180,64.941,39.551,0
1514208621.490,59.570,46.387,44.922,79.590,4.395,0
1514208621.494,88.867,54.199,56.641,90.332,25.879,0
1514208621.498,70.801,50.293,47.852,82.031,69.824,0
1514208621.501,44.922,35.156,31.250,67.383,14.160,0
1514208621.505,41.016,34.180,29.785,59.570,-26.367,0
1514208621.509,43.945,39.551,36.621,58.594,-4.883,0
1514208621.513,45.898,43.945,40.039,70.312,64.941,0
1514208621.517,38.086,30.273,35.645,69.824,96.191,0
1514208621.521,43.457,29.785,37.109,69.824,11.719,0
1514208621.525,58.594,32.227,39.551,69.824,7.324,0
1514208621.529,57.617,32.715,40.527,60.059,47.852,0
1514208621.533,43.945,40.039,43.457,64.941,11.719,0
1514208621.537,28.809,34.668,38.574,67.383,0.488,0
1514208621.540,13.184,32.227,35.156,56.641,4.883,0
1514208621.544,11.719,31.250,36.621,47.852,37.109,0
1514208621.548,23.438,22.461,33.203,34.668,59.082,0
1514208621.552,35.645,27.344,37.598,36.133,-7.324,0
1514208621.556,44.434,34.180,41.016,48.828,-11.230,0
1514208621.560,35.645,19.531,26.855,43.457,51.758,0
1514208621.564,43.945,31.250,40.039,53.711,55.176,0
1514208621.568,58.594,44.434,61.523,71.289,36.133,0
1514208621.572,42.969,20.996,41.992,50.781,17.578,0
1514208621.576,23.926,20.996,30.273,30.762,-14.160,0
1514208621.580,22.949,25.879,36.621,31.250,-1.465,0
1514208621.583,21.973,20.996,35.645,26.367,8.789,0
1514208621.587,17.578,21.973,31.250,23.438,-3.906,0
1514208621.591,32.227,30.762,36.133,26.367,17.578,0
1514208621.595,57.617,46.875,53.711,40.527,42.480,0
1514208621.599,52.246,44.922,51.270,40.039,10.742,0
1514208621.603,42.480,35.156,39.551,23.926,-12.207,0
1514208621.607,31.738,26.367,30.273,14.160,2.441,0
1514208621.611,22.949,25.879,28.320,20.508,8.301,0
1514208621.615,36.621,28.320,38.574,34.668,12.695,0
1514208621.619,41.016,23.438,42.480,38.574,-2.930,0
1514208621.623,31.250,27.344,31.738,37.598,-21.973,0
1514208621.626,33.203,31.250,22.949,31.738,17.578,0
1514208621.630,58.594,39.551,36.621,42.480,40.039,0
1514208621.634,80.566,60.059,62.012,69.824,-1.953,0
1514208621.638,60.547,49.805,57.617,64.941,-27.344,0
1514208621.642,35.645,27.344,35.645,53.223,-4.395,0
1514208621.646,48.340,29.785,37.598,70.312,38.086,0
1514208621.650,51.270,24.902,35.156,61.523,42.969,0
1514208621.654,42.969,29.785,38.574,62.500,-5.859,0
1514208621.658,52.734,39.551,51.270,81.055,-50.781,0
1514208621.662,59.082,25.391,45.898,72.266,14.648,0
1514208621.665,53.711,26.367,43.945,73.242,52.246,0
1514208621.669,52.734,43.945,50.293,72.266,5.859,0
1514208621.673,50.293,40.527,49.316,65.918,-11.719,0
1514208621.677,42.480,22.949,39.551,59.082,35.645,0
1514208621.681,35.645,24.414,25.879,42.480,65.430,0
1514208621.685,44.434,38.086,30.762,45.898,40.527,0
1514208621.689,52.734,36.133,46.387,55.176,20.508,0
1514208621.693,40.527,24.414,35.645,48.828,9.277,0
1514208621.697,47.852,23.438,38.574,57.129,8.789,0
1514208621.701,57.617,33.203,53.711,70.801,-23.438,0
1514208621.705,57.129,39.062,55.176,71.289,-48.828,0
1514208621.708,55.664,37.109,54.199,70.312,8.301,0
1514208621.712,47.363,27.832,41.016,60.547,48.828,0
1514208621.716,33.691,13.184,29.297,45.410,49.805,0
1514208621.720,19.531,7.324,28.320,46.875,38.574,0
1514208621.724,29.297,14.648,37.598,61.035,30.762,0
1514208621.728,50.781,25.391,52.246,70.312,29.785,0
1514208621.732,54.688,29.785,60.059,73.242,36.133,0
1514208621.736,43.457,30.762,62.012,66.895,-0.488,0
1514208621.740,41.504,37.109,62.500,62.500,-3.906,0
1514208621.744,46.875,31.738,56.641,56.152,27.344,0
1514208621.748,41.992,20.508,54.199,41.992,38.086,0
1514208621.751,25.879,16.113,54.688,36.133,36.133,0
1514208621.755,16.113,14.160,46.875,29.785,-3.418,0
1514208621.759,15.137,16.113,41.504,26.367,-1.465,0
1514208621.763,24.414,19.531,46.875,36.133,61.035,0
1514208621.767,38.574,29.297,56.152,49.316,50.781,0
1514208621.771,38.574,35.156,61.523,59.570,15.625,0
1514208621.775,42.480,31.250,53.711,62.012,39.551,0
1514208621.779,58.594,33.203,50.781,59.082,74.219,0
1514208621.783,64.941,28.809,58.105,71.289,73.242,0
1514208621.787,56.641,18.555,55.664,73.242,32.715,0
1514208621.790,50.293,24.902,51.758,66.406,-6.348,0
1514208621.794,43.945,24.414,42.480,63.477,7.812,0
1514208621.798,31.738,16.602,35.645,63.477,76.172,0
1514208621.802,47.852,34.180,52.246,79.102,49.316,0
1514208621.806,57.129,41.016,61.523,81.055,-18.555,0
1514208621.810,51.270,22.461,46.875,65.430,26.367,0
1514208621.814,64.941,25.879,54.688,65.430,91.309,0
1514208621.818,59.570,28.320,59.570,61.523,42.480,0
1514208621.822,47.852,20.508,47.852,55.176,-10.254,0
1514208621.826,52.734,35.156,56.641,66.406,26.367,0
