timestamps,TP9,AF7,AF8,TP10,Right AUX,Marker0
1514104741.536,12.207,43.457,39.551,35.156,28.320,0
1514104741.540,8.789,34.668,37.109,29.297,22.949,0
1514104741.544,20.020,41.016,38.086,21.973,47.852,0
1514104741.548,16.113,48.340,33.203,-2.441,28.809,0
1514104741.552,20.508,42.480,40.039,17.578,-7.324,0
1514104741.556,28.320,36.133,49.316,39.062,5.859,0
1514104741.560,20.020,32.227,42.969,22.461,6.348,0
1514104741.564,21.973,41.992,41.992,16.113,-6.836,0
1514104741.568,25.391,48.828,49.805,26.855,-24.902,0
1514104741.571,21.484,44.434,46.387,26.855,-2.441,0
1514104741.575,24.902,47.363,41.016,12.207,13.672,0
1514104741.579,26.367,50.293,42.969,8.789,2.441,0
1514104741.583,27.832,46.875,39.062,9.277,24.902,0
1514104741.587,35.156,51.758,41.992,26.367,32.227,0
1514104741.591,34.668,49.805,42.480,43.457,91.797,0
1514104741.595,32.715,43.945,41.504,38.086,63.477,0
1514104741.599,38.574,42.969,48.340,36.133,22.461,0
1514104741.603,35.156,42.480,46.387,35.645,35.645,0
1514104741.607,21.484,44.922,40.527,25.879,44.922,0
1514104741.611,12.207,43.457,32.715,23.438,70.312,0
1514104741.614,16.113,38.574,33.691,31.250,7.812,0
1514104741.618,27.832,43.945,38.086,35.156,-14.160,0
1514104741.622,24.414,48.340,32.227,31.738,13.672,0
1514104741.626,25.391,36.621,34.180,27.832,39.062,0
1514104741.630,35.156,31.738,41.504,23.438,56.641,0
1514104741.634,30.273,34.180,40.039,17.090,30.762,0
1514104741.638,18.066,29.785,32.227,19.531,24.902,0
1514104741.642,23.438,34.180,33.691,34.180,25.879,0
1514104741.646,33.691,45.898,40.039,41.016,22.461,0
1514104741.650,34.668,46.387,40.039,29.785,11.230,0
1514104741.654,25.879,34.668,36.621,16.113,42.480,0
1514104741.657,23.926,33.203,36.133,11.719,23.926,0
1514104741.661,22.461,35.156,33.203,13.184,17.578,0
1514104741.665,24.414,36.133,29.297,19.531,26.855,0
1514104741.669,19.043,30.273,32.715,28.809,14.160,0
1514104741.673,6.836,24.414,34.180,31.738,65.918,0
1514104741.677,13.184,30.762,35.645,34.668,69.336,0
1514104741.681,19.531,34.180,34.668,25.391,30.762,0
1514104741.685,24.414,34.180,28.809,15.137,22.949,0
1514104741.689,25.879,32.715,32.227,22.949,54.688,0
1514104741.693,26.855,35.156,39.551,32.715,61.523,0
1514104741.696,33.691,41.504,40.527,29.297,51.270,0
1514104741.700,30.273,39.062,39.551,21.973,39.551,0
1514104741.704,24.902,28.809,34.668,10.254,37.598,0
1514104741.708,31.738,26.855,34.180,3.906,74.219,0
1514104741.712,26.855,27.832,34.180,12.207,65.918,0
1514104741.716,21.484,36.133,31.250,11.719,11.230,0
1514104741.720,23.926,40.527,28.809,8.789,17.090,0
1514104741.724,16.113,29.297,29.297,13.672,53.711,0
1514104741.728,25.879,33.203,32.227,20.996,53.711,0
1514104741.732,46.875,44.434,46.875,33.691,27.832,0
1514104741.736,40.039,42.480,51.758,33.203,55.176,0
1514104741.739,35.156,35.156,41.016,20.508,57.129,0
1514104741.743,25.391,30.762,25.879,6.348,45.410,0
1514104741.747,11.719,25.879,17.578,5.859,15.137,0
1514104741.751,14.648,21.973,21.973,12.695,4.395,0
1514104741.755,21.484,22.461,24.902,8.301,29.785,0
1514104741.759,24.414,27.832,33.203,18.066,17.578,0
1514104741.763,27.832,35.645,39.551,36.621,8.789,0
1514104741.767,28.320,25.879,33.691,32.715,-9.277,0
1514104741.771,14.648,13.184,29.297,21.973,-11.230,0
1514104741.775,0.977,18.066,25.879,20.020,1.465,0
1514104741.779,8.789,25.879,29.785,20.508,28.320,0
1514104741.782,14.160,31.250,34.668,14.648,61.035,0
1514104741.786,10.742,30.273,33.203,6.348,68.359,0
1514104741.790,12.695,30.762,29.785,-3.906,41.016,0
1514104741.794,12.695,40.039,28.320,-1.465,0.488,0
1514104741.798,13.672,32.227,27.344,5.371,-6.348,0
1514104741.802,19.043,22.461,25.879,2.441,14.648,0
1514104741.806,23.438,30.273,29.297,10.254,0.488,0
1514104741.810,23.926,34.180,27.832,14.160,-1.465,0
1514104741.814,20.996,27.344,19.531,5.859,-5.859,0
1514104741.818,37.109,33.691,25.391,17.578,-0.488,0
1514104741.821,50.781,47.363,32.715,34.180,33.203,0
1514104741.825,45.410,46.875,36.621,47.363,59.570,0
1514104741.829,47.852,51.270,39.062,41.016,60.059,0
1514104741.833,55.664,59.082,28.809,25.879,0.000,0
1514104741.837,58.105,55.176,24.414,31.738,-13.672,0
1514104741.841,66.406,47.852,24.902,39.551,44.434,0
1514104741.845,68.359,41.016,25.391,35.156,24.414,0
1514104741.849,65.918,39.551,29.297,38.574,-11.719,0
1514104741.853,65.918,42.480,27.832,45.410,0.488,0
1514104741.857,69.824,51.270,36.621,53.223,36.133,0
1514104741.861,67.871,60.059,38.086,47.852,56.152,0
1514104741.864,59.082,52.246,29.297,31.250,61.035,0
1514104741.868,66.406,44.434,28.809,30.273,48.828,0
1514104741.872,73.730,50.293,34.180,43.457,1.953,0
1514104741.876,72.266,50.293,32.715,47.852,14.160,0
1514104741.880,69.336,46.875,28.809,50.781,50.781,0
1514104741.884,59.570,48.340,30.273,45.410,27.344,0
1514104741.888,59.082,59.082,36.621,35.156,-11.719,0
1514104741.892,60.547,62.012,36.621,35.156,13.672,0
1514104741.896,52.734,52.734,33.203,33.203,-1.465,0
1514104741.900,48.828,50.781,32.227,32.227,-20.996,0
1514104741.904,48.828,48.828,31.250,29.785,5.859,0
1514104741.907,45.410,50.781,36.133,30.762,36.621,0
1514104741.911,50.781,56.152,37.109,36.133,28.809,0
1514104741.915,49.805,54.199,40.527,39.551,-6.836,0
1514104741.919,57.129,56.152,50.781,47.363,41.504,0
1514104741.923,57.617,57.617,43.945,45.410,45.410,0
1514104741.927,38.574,50.781,31.738,27.344,40.527,0
1514104741.931,37.598,50.781,32.227,20.996,58.105,0
1514104741.935,44.434,53.223,40.527,26.855,3.906,0
1514104741.939,43.457,40.039,42.480,40.527,0.488,0
1514104741.943,29.297,28.809,33.691,29.297,35.645,0
1514104741.946,33.691,42.480,37.109,28.809,54.199,0
1514104741.950,44.434,50.293,45.410,45.410,60.547,0
1514104741.954,43.457,45.898,44.922,31.250,50.781,0
1514104741.958,46.387,53.223,46.875,26.855,31.250,0
1514104741.962,53.711,53.223,43.457,38.086,64.941,0
1514104741.966,57.617,47.363,42.480,43.457,69.824,0
1514104741.970,41.504,35.156,39.551,36.133,24.902,0
1514104741.974,31.738,26.367,38.086,33.691,52.734,0
1514104741.978,38.086,38.086,38.574,44.434,61.035,0
1514104741.982,43.457,38.086,35.645,50.781,41.504,0
1514104741.986,40.039,37.598,36.621,44.434,-22.949,0
1514104741.989,47.852,50.293,41.504,35.156,-29.297,0
1514104741.993,57.129,51.758,42.480,40.527,43.457,0
1514104741.997,47.852,43.945,34.180,44.434,45.410,0
1514104742.001,49.316,30.273,33.691,40.527,14.160,0
1514104742.005,55.176,28.809,41.992,41.504,39.551,0
1514104742.009,44.922,41.504,42.480,45.410,67.871,0
1514104742.013,37.109,49.316,42.480,42.480,9.277,0
1514104742.017,38.574,41.016,36.133,31.250,-3.906,0
1514104742.021,41.504,31.738,28.809,16.113,-11.230,0
1514104742.025,32.227,34.180,25.879,4.883,31.738,0
1514104742.029,24.902,40.527,28.320,11.230,47.363,0
1514104742.032,34.668,42.969,35.645,17.090,-10.742,0
1514104742.036,33.691,47.363,41.504,23.438,13.184,0
1514104742.040,17.090,49.805,35.645,23.926,39.551,0
1514104742.044,21.973,34.668,24.414,19.043,49.805,0
1514104742.048,22.461,26.367,27.344,20.996,3.418,0
1514104742.052,20.508,32.715,29.785,15.137,-0.977,0
1514104742.056,32.227,39.551,33.203,12.207,63.965,0
1514104742.060,17.578,30.762,26.855,4.395,43.457,0
1514104742.064,15.137,33.203,27.832,13.184,26.855,0
1514104742.068,22.949,45.410,39.062,35.156,23.926,0
1514104742.071,16.602,41.016,37.598,29.297,25.879,0
1514104742.075,20.508,41.992,31.250,15.137,10.254,0
1514104742.079,27.832,42.969,26.367,1.953,1.465,0
1514104742.083,26.367,36.133,22.461,-6.348,53.223,0
1514104742.087,27.344,36.621,23.438,-6.348,57.129,0
1514104742.091,27.832,35.645,22.949,0.000,80.078,0
1514104742.095,31.738,29.297,26.855,19.043,78.613,0
1514104742.099,32.715,34.668,34.180,38.086,62.012,0
1514104742.103,28.809,37.109,29.785,35.156,52.246,0
1514104742.107,37.598,37.598,25.391,31.250,20.508,0
1514104742.111,38.574,45.898,27.344,29.297,17.090,0
1514104742.114,41.992,50.781,28.809,23.438,4.883,0
1514104742.118,42.969,47.852,27.344,42.480,9.766,0
1514104742.122,43.457,43.945,29.785,49.316,64.941,0
1514104742.126,47.852,36.621,35.156,37.109,70.801,0
1514104742.130,45.898,30.273,32.227,28.320,25.879,0
1514104742.134,41.992,37.109,28.809,26.855,-3.906,0
1514104742.138,40.527,40.527,26.855,28.809,-19.531,0
1514104742.142,41.016,41.504,30.762,29.785,20.996,0
1514104742.146,33.691,40.527,30.273,21.484,27.832,0
1514104742.150,38.086,44.922,30.273,29.297,-3.418,0
1514104742.154,54.199,51.270,42.480,47.363,41.016,0
1514104742.157,50.781,37.109,43.945,40.527,52.734,0
1514104742.161,40.527,28.320,36.621,22.949,40.527,1
1514104742.165,35.645,33.691,29.297,18.066,67.383,0
1514104742.169,36.621,33.691,27.344,26.367,37.109,0
1514104742.173,33.203,30.273,27.344,20.508,37.598,0
1514104742.177,11.230,31.250,26.855,14.648,98.633,0
1514104742.181,7.812,37.598,32.227,20.996,56.152,0
1514104742.185,22.949,53.223,41.992,22.461,-4.883,0
1514104742.189,30.273,57.129,41.992,22.461,56.152,0
1514104742.193,20.996,28.320,34.668,20.996,40.039,0
1514104742.196,16.113,13.672,28.809,10.742,-1.465,0
1514104742.200,18.555,18.555,24.902,-0.977,7.812,0
1514104742.204,12.695,29.297,23.926,0.000,21.484,0
1514104742.208,8.789,40.039,25.879,8.789,28.809,0
1514104742.212,19.531,38.086,32.715,13.672,41.992,0
1514104742.216,20.996,36.133,41.504,8.789,36.621,0
1514104742.220,19.531,39.062,39.551,6.836,26.367,0
1514104742.224,23.926,31.250,34.668,3.906,73.730,0
1514104742.228,24.902,21.973,34.668,6.836,66.406,0
1514104742.232,28.320,33.691,39.551,24.414,53.711,0
1514104742.236,31.250,37.109,37.109,25.879,71.289,0
1514104742.239,35.156,33.691,33.203,26.367,37.598,0
1514104742.243,38.574,40.039,39.062,34.668,23.926,0
1514104742.247,37.598,35.645,36.133,23.926,31.250,0
1514104742.251,28.809,42.480,34.180,27.344,35.156,0
1514104742.255,26.855,41.504,26.367,32.715,31.250,0
1514104742.259,32.227,25.879,25.391,37.109,33.203,0
1514104742.263,35.645,28.320,35.156,48.340,15.625,0
1514104742.267,33.691,46.387,42.480,64.453,27.832,0
1514104742.271,37.109,48.340,38.574,50.293,16.602,0
1514104742.275,32.227,25.879,29.785,7.812,29.297,0
1514104742.279,20.996,21.484,25.391,7.812,43.457,0
1514104742.282,23.438,28.809,24.902,17.090,7.812,0
1514104742.286,27.344,32.227,34.668,19.531,14.648,0
1514104742.290,22.949,37.109,38.574,25.391,19.531,0
1514104742.294,19.531,38.086,42.969,24.902,24.414,0
1514104742.298,21.973,38.574,42.969,3.906,17.578,0
1514104742.302,13.672,34.668,27.832,-6.836,33.691,0
1514104742.306,14.160,25.879,30.273,12.207,57.129,0
1514104742.310,21.973,28.809,36.133,20.508,106.934,0
1514104742.314,15.137,35.156,27.344,5.859,94.727,0
1514104742.318,14.648,39.551,22.949,-3.906,25.879,0
1514104742.321,18.555,38.574,29.785,1.953,42.480,0
1514104742.325,20.508,35.645,36.621,3.906,42.969,0
1514104742.329,16.602,41.016,35.645,-0.488,8.301,0
1514104742.333,20.508,38.086,34.180,3.418,19.043,0
1514104742.337,21.484,27.344,28.809,1.465,44.922,0
1514104742.341,19.531,31.250,28.320,7.324,27.344,0
1514104742.345,2.930,30.762,28.320,6.348,27.344,0
1514104742.349,4.883,38.574,41.504,5.371,3.906,0
1514104742.353,26.855,49.805,51.758,9.277,-32.715,0
1514104742.357,23.438,33.691,40.039,-2.441,26.855,0
1514104742.361,12.695,21.973,31.738,-3.418,39.062,0
1514104742.364,20.996,34.668,30.273,6.836,-13.672,0
1514104742.368,30.273,32.715,25.879,0.488,16.602,0
1514104742.372,21.973,20.020,22.949,0.977,24.414,0
1514104742.376,19.043,26.367,28.809,18.066,-1.953,0
1514104742.380,20.996,38.086,36.621,23.438,24.902,0
1514104742.384,27.832,52.246,39.551,25.391,22.461,0
1514104742.388,27.344,50.781,35.645,23.926,44.434,0
1514104742.392,23.926,24.414,31.250,20.508,49.316,0
1514104742.396,24.902,20.020,29.297,12.695,14.160,0
1514104742.400,23.926,32.227,32.715,17.090,21.973,0
1514104742.404,24.902,41.016,33.691,21.484,39.551,0
1514104742.407,19.531,41.992,30.762,11.230,46.875,0
1514104742.411,20.508,32.715,27.344,7.812,48.340,0
1514104742.415,25.879,28.809,31.250,13.184,24.414,0
1514104742.419,22.949,36.621,35.156,17.090,33.691,0
1514104742.423,20.996,36.621,35.156,14.160,113.281,0
1514104742.427,20.508,24.414,28.809,12.207,102.539,0
1514104742.431,17.578,20.996,29.297,18.066,22.949,0
1514104742.435,28.320,29.297,36.621,28.320,37.109,0
1514104742.439,34.668,45.898,38.086,28.809,102.051,0
1514104742.443,17.090,44.922,40.039,33.691,66.406,0
1514104742.446,1.953,31.738,39.062,27.832,21.973,0
1514104742.450,5.371,29.297,33.203,16.113,3.418,0
1514104742.454,16.602,27.832,29.297,11.230,-11.719,0
1514104742.458,25.879,29.785,36.621,25.391,58.594,0
1514104742.462,24.414,33.691,41.992,34.180,14.648,0
1514104742.466,19.043,41.016,39.062,20.020,1.953,0
1514104742.470,16.602,38.574,36.133,10.254,74.219,0
1514104742.474,18.066,36.621,32.715,0.488,64.941,0
1514104742.478,27.832,39.062,34.668,13.184,53.711,0
1514104742.482,21.973,35.156,31.738,19.043,51.758,0
1514104742.486,27.344,31.738,26.855,21.484,37.109,0
1514104742.489,30.762,32.715,26.855,26.367,45.410,0
1514104742.493,29.785,38.086,31.250,20.020,42.969,0
1514104742.497,34.180,33.691,37.109,23.926,6.836,0
1514104742.501,20.508,26.367,32.715,22.949,50.781,0
1514104742.505,16.113,27.344,29.785,19.531,85.938,0
1514104742.509,15.625,39.062,36.621,31.250,74.707,0
1514104742.513,19.531,45.898,38.086,25.391,4.395,0
1514104742.517,36.621,41.992,44.434,10.254,-10.742,0
1514104742.521,40.527,42.969,45.898,10.742,72.754,0
1514104742.525,35.156,40.039,37.598,11.719,40.039,0
1514104742.529,30.273,33.203,39.062,12.207,9.277,0
1514104742.532,26.855,32.227,36.621,14.160,28.809,0
1514104742.536,16.113,32.715,31.738,16.113,31.250,0
1514104742.540,9.766,25.879,32.715,18.066,23.438,0
1514104742.544,0.977,23.926,29.785,19.043,11.230,0
1514104742.548,2.441,41.504,34.668,30.762,4.395,0
1514104742.552,16.602,45.898,37.109,34.668,43.945,0
1514104742.556,17.578,30.273,36.133,36.133,62.988,0
1514104742.560,19.043,22.461,37.598,40.039,38.574,0
1514104742.564,15.625,18.066,30.762,30.273,50.781,0
1514104742.568,14.160,26.855,30.273,23.926,26.367,0
1514104742.571,13.672,26.367,27.832,15.137,-0.488,0
1514104742.575,22.949,31.250,38.086,15.625,74.707,0
1514104742.579,22.461,48.340,44.922,23.438,37.598,0
1514104742.583,11.230,40.527,36.621,21.484,-26.367,0
1514104742.587,-1.465,23.926,26.367,13.184,9.277,0
1514104742.591,3.906,11.719,21.484,9.766,54.688,0
1514104742.595,16.602,22.461,31.250,19.531,60.059,0
1514104742.599,21.973,31.250,36.621,21.973,53.223,0
1514104742.603,15.625,25.391,33.203,16.602,31.738,0
1514104742.607,18.066,32.715,40.527,30.273,70.801,0
1514104742.611,17.090,32.715,40.039,35.645,57.129,0
1514104742.614,9.766,35.645,30.762,26.367,34.180,0
1514104742.618,13.672,42.480,31.250,29.785,62.012,0
1514104742.622,9.277,31.250,30.762,23.438,64.453,0
1514104742.626,5.859,18.066,27.832,12.207,69.336,0
1514104742.630,5.859,19.043,30.762,4.395,27.832,0
1514104742.634,10.742,20.020,33.203,-0.977,26.367,0
1514104742.638,11.230,23.926,33.691,2.441,49.805,0
1514104742.642,20.996,35.156,39.551,21.484,38.086,0
1514104742.646,28.320,43.945,32.227,30.273,41.504,0
1514104742.650,21.973,37.109,23.438,29.297,70.312,0
1514104742.654,20.020,27.344,31.250,37.598,76.172,0
1514104742.657,28.809,27.344,30.762,29.785,67.871,0
1514104742.661,29.785,27.344,32.227,29.785,70.312,0
1514104742.665,24.414,27.832,36.621,36.621,43.457,0
1514104742.669,23.438,28.320,34.668,30.762,21.484,0
1514104742.673,13.672,26.367,25.879,17.578,21.484,0
1514104742.677,17.090,37.598,26.855,20.020,29.297,0
1514104742.681,30.762,46.387,34.668,27.344,35.156,0
1514104742.685,27.832,40.039,29.297,20.020,26.855,0
1514104742.689,33.203,39.551,32.227,29.297,32.227,0
1514104742.693,27.344,30.762,39.551,30.762,14.648,0
1514104742.696,18.555,24.414,38.086,20.996,25.879,0
1514104742.700,25.391,39.551,37.109,20.508,42.969,0
1514104742.704,14.648,44.434,38.574,21.484,49.805,0
1514104742.708,20.996,33.203,31.250,21.484,70.801,0
1514104742.712,41.016,38.574,31.738,28.809,73.730,0
1514104742.716,39.551,31.738,37.109,24.902,45.898,0
1514104742.720,41.016,36.621,41.504,33.691,42.480,0
1514104742.724,30.762,36.133,40.039,43.457,48.828,0
1514104742.728,8.789,20.996,29.785,25.391,28.320,0
1514104742.732,9.277,26.855,30.762,11.719,47.852,0
1514104742.736,16.602,33.691,36.133,10.742,26.367,0
1514104742.739,18.555,36.621,35.156,15.137,16.113,0
1514104742.743,23.438,35.156,36.133,15.137,59.570,0
1514104742.747,30.273,38.086,37.109,5.859,41.992,0
1514104742.751,21.973,36.621,31.250,2.441,81.055,0
1514104742.755,4.395,24.902,27.344,9.277,108.398,0
1514104742.759,12.695,23.926,41.504,16.602,85.449,0
1514104742.763,9.766,21.973,41.992,5.371,102.539,0
1514104742.767,2.930,28.320,35.645,3.906,74.707,0
1514104742.771,10.742,46.875,41.504,19.043,86.426,0
1514104742.775,6.348,42.969,41.504,21.973,110.352,0
1514104742.779,6.348,29.297,39.062,15.625,61.523,0
1514104742.782,12.207,24.414,41.016,11.230,34.180,0
1514104742.786,19.043,22.949,40.039,10.254,60.059,0
1514104742.790,10.254,23.926,34.180,12.207,109.375,0
1514104742.794,5.859,23.926,33.691,21.973,95.703,0
1514104742.798,24.902,24.414,45.898,28.320,60.547,0
1514104742.802,35.156,42.969,51.270,22.949,76.660,0
1514104742.806,32.227,49.316,44.434,23.926,108.398,0
1514104742.810,35.156,40.527,37.109,26.855,113.281,0
1514104742.814,22.949,18.555,27.832,20.508,79.102,0
1514104742.818,21.484,15.625,27.832,13.184,53.711,0
1514104742.821,30.762,39.062,39.062,28.809,56.152,0
1514104742.825,35.156,38.086,47.363,47.363,70.801,0
1514104742.829,44.922,36.621,48.340,46.875,43.945,0
1514104742.833,40.039,35.645,41.016,28.320,38.086,0
1514104742.837,37.598,30.762,40.527,15.625,58.594,0
1514104742.841,28.809,37.598,41.016,20.020,61.035,0
1514104742.845,15.137,34.180,35.645,22.949,60.547,0
1514104742.849,18.066,29.297,35.156,16.602,83.984,0
1514104742.853,23.926,34.180,39.062,23.438,83.984,0
1514104742.857,35.156,34.668,38.086,28.320,55.176,0
1514104742.861,40.527,34.180,40.527,24.902,44.922,0
1514104742.864,22.949,23.926,30.762,13.672,67.871,0
1514104742.868,18.555,20.020,30.273,6.836,62.500,0
1514104742.872,26.367,33.203,39.062,14.160,58.105,0
1514104742.876,17.578,34.180,33.691,8.301,48.828,0
1514104742.880,15.625,32.715,32.227,8.301,46.387,0
1514104742.884,25.391,39.062,40.039,22.949,27.832,0
1514104742.888,19.043,36.133,42.480,19.043,26.855,0
1514104742.892,18.066,37.598,33.691,-1.465,80.566,0
1514104742.896,8.789,35.645,32.227,-1.465,65.918,0
1514104742.900,0.488,20.508,32.715,5.859,45.898,0
1514104742.904,6.836,13.672,24.902,-3.418,79.590,0
1514104742.907,15.137,22.949,31.250,3.418,105.469,0
1514104742.911,15.625,37.109,47.852,16.602,104.004,0
1514104742.915,18.555,50.781,46.875,22.949,79.590,0
1514104742.919,23.926,46.875,39.551,20.020,62.500,0
1514104742.923,0.977,28.320,34.180,6.348,86.914,0
1514104742.927,-7.324,23.926,32.715,12.207,103.027,0
1514104742.931,6.348,21.973,36.133,23.438,38.086,0
1514104742.935,8.301,21.973,34.668,23.926,5.371,0
1514104742.939,10.254,28.809,34.180,20.996,58.594,0
1514104742.943,22.461,24.902,37.109,21.973,65.918,0
1514104742.946,27.832,24.902,41.016,31.738,49.316,0
1514104742.950,28.809,28.809,41.016,41.504,68.359,0
1514104742.954,18.066,31.250,36.621,31.738,73.730,0
1514104742.958,11.230,38.574,41.504,23.438,49.805,0
1514104742.962,15.625,39.551,42.969,29.297,25.391,0
1514104742.966,17.578,31.250,39.062,32.227,35.156,0
1514104742.970,24.902,29.785,46.387,37.598,54.199,0
1514104742.974,29.297,32.227,43.945,22.461,54.199,0
1514104742.978,20.996,26.367,35.645,14.160,32.227,0
1514104742.982,19.043,22.949,35.645,22.461,44.434,0
1514104742.986,27.344,25.391,35.645,24.414,62.012,0
1514104742.989,21.973,15.137,30.762,18.066,27.344,0
1514104742.993,23.926,19.043,36.133,27.344,4.883,0
1514104742.997,25.879,35.645,50.781,40.039,10.254,0
1514104743.001,18.555,40.039,51.270,37.109,24.414,0
1514104743.005,16.602,38.574,38.574,29.785,47.852,0
1514104743.009,20.508,26.367,32.227,24.902,73.730,0
1514104743.013,20.020,15.625,35.156,17.090,62.988,0
1514104743.017,14.160,15.625,33.691,7.812,33.203,0
1514104743.021,5.859,14.648,31.250,0.977,18.066,0
1514104743.025,6.348,20.020,40.039,8.301,28.320,0
1514104743.029,9.277,42.480,53.223,21.484,56.152,0
1514104743.032,0.000,40.527,44.434,16.602,36.621,0
1514104743.036,0.000,16.602,32.715,6.348,47.852,0
1514104743.040,3.906,19.043,38.086,11.230,84.473,0
1514104743.044,6.836,29.297,39.062,21.484,78.613,0
1514104743.048,0.977,24.414,31.738,20.020,53.223,0
1514104743.052,-2.930,12.207,22.949,-0.977,37.109,0
1514104743.056,2.930,16.602,28.320,-4.395,61.523,0
1514104743.060,6.836,31.250,39.062,13.184,69.824,0
1514104743.064,10.742,36.133,37.109,4.883,31.738,0
1514104743.068,17.578,34.180,34.668,0.488,33.691,0
1514104743.071,7.324,29.297,38.086,7.324,75.195,0
1514104743.075,-0.977,20.996,36.621,19.531,75.684,0
1514104743.079,19.531,21.973,41.504,28.809,42.969,0
1514104743.083,38.574,36.621,45.898,14.648,42.969,0
1514104743.087,34.180,36.621,38.086,7.324,75.195,0
1514104743.091,22.461,25.391,33.203,19.043,97.168,0
1514104743.095,20.508,25.391,34.180,25.879,79.590,0
1514104743.099,30.273,28.320,35.645,25.879,57.129,0
1514104743.103,36.133,31.250,36.133,27.344,78.125,0
1514104743.107,30.762,30.762,37.598,25.879,87.891,0
1514104743.111,20.996,25.391,34.668,25.879,35.156,0
1514104743.114,13.672,20.020,37.598,26.855,6.348,0
1514104743.118,21.973,23.926,41.992,23.926,73.242,0
1514104743.122,23.438,32.715,37.109,24.902,99.121,0
1514104743.126,15.625,27.344,34.668,25.391,97.656,0
1514104743.130,13.184,28.809,37.598,20.508,75.195,0
1514104743.134,14.648,30.273,43.457,29.297,48.828,0
1514104743.138,13.184,28.809,50.781,47.363,89.355,0
1514104743.142,-1.465,21.973,32.715,24.414,91.797,0
1514104743.146,-0.977,18.066,30.762,10.742,60.547,0
1514104743.150,3.906,22.461,35.645,14.160,51.758,0
1514104743.154,0.977,17.090,31.250,10.254,69.824,0
1514104743.157,3.906,20.508,38.086,16.602,59.570,0
1514104743.161,8.789,33.691,47.363,28.809,91.797,0
1514104743.165,12.207,31.250,41.992,19.531,114.746,0
1514104743.169,7.812,21.484,28.320,-7.324,71.289,0
1514104743.173,9.277,23.926,34.180,-2.930,95.215,0
1514104743.177,7.812,25.879,35.156,5.371,102.539,0
1514104743.181,9.766,21.973,27.832,-11.230,71.289,0
1514104743.185,14.160,21.484,28.320,-11.230,80.566,0
1514104743.189,11.230,26.855,34.668,0.977,73.730,0
1514104743.193,21.484,27.832,41.016,11.230,73.730,0
1514104743.196,28.320,26.855,40.527,25.391,62.988,0
1514104743.200,23.438,31.250,40.039,27.832,48.828,0
1514104743.204,21.484,31.250,35.156,16.113,71.289,0
1514104743.208,30.273,35.156,40.527,9.277,101.074,0
1514104743.212,20.996,37.109,41.504,8.301,83.984,0
1514104743.216,14.648,19.043,32.715,6.836,54.688,0
1514104743.220,14.160,10.742,30.762,-2.441,95.703,0
1514104743.224,17.578,20.020,36.133,7.324,120.605,0
1514104743.228,33.203,25.879,43.457,27.832,71.777,0
1514104743.232,28.809,24.414,41.016,37.598,41.016,0
1514104743.236,22.949,20.996,38.086,40.527,74.219,0
1514104743.239,24.414,22.461,39.551,36.133,104.492,0
1514104743.243,22.461,29.785,40.527,32.227,107.910,0
1514104743.247,23.438,30.273,39.551,20.020,53.223,0
1514104743.251,39.551,28.809,42.969,27.344,16.113,0
1514104743.255,34.668,23.438,37.598,42.480,72.266,0
1514104743.259,19.531,17.090,34.668,40.527,83.496,0
1514104743.263,30.273,20.996,43.945,44.922,68.848,0
1514104743.267,21.973,14.160,38.086,40.039,91.797,0
1514104743.271,21.484,6.348,37.109,28.320,90.820,0
1514104743.275,37.109,16.113,47.363,27.344,97.656,0
1514104743.279,28.320,26.367,51.758,41.504,76.172,0
1514104743.282,24.414,32.715,51.758,48.340,71.289,0
1514104743.286,31.250,38.086,42.480,38.574,108.398,0
1514104743.290,19.043,28.809,36.133,32.715,109.375,0
1514104743.294,16.113,23.438,42.969,34.668,99.609,0
1514104743.298,27.832,18.555,43.457,20.508,89.844,0
1514104743.302,16.113,24.414,40.039,18.555,98.145,0
1514104743.306,14.648,37.109,46.875,33.203,91.797,0
1514104743.310,20.508,23.438,48.340,30.762,79.590,0
1514104743.314,18.066,11.230,44.434,21.484,83.496,0
1514104743.318,23.438,20.508,39.551,12.695,37.598,0
1514104743.321,23.438,26.367,38.086,8.301,25.879,0
1514104743.325,22.461,25.391,41.992,14.648,103.516,0
1514104743.329,28.320,23.438,42.969,14.160,86.426,0
1514104743.333,27.832,23.438,43.945,15.137,11.230,0
1514104743.337,20.020,23.926,44.922,17.090,31.250,0
1514104743.341,18.066,20.996,39.551,12.207,71.289,0
1514104743.345,25.391,30.762,38.574,8.789,97.168,0
1514104743.349,23.926,30.273,40.039,10.254,44.922,0
1514104743.353,29.297,25.879,43.945,18.066,33.203,0
1514104743.357,29.785,21.973,38.086,4.883,90.820,0
1514104743.361,31.250,22.949,37.598,2.930,85.938,0
1514104743.364,40.039,32.227,48.340,19.531,83.008,0
1514104743.368,30.273,24.414,44.922,18.555,72.266,0
1514104743.372,26.367,20.996,40.039,20.996,84.473,0
1514104743.376,22.461,22.461,40.039,26.855,102.539,0
1514104743.380,13.184,13.672,38.574,19.531,50.293,0
1514104743.384,8.789,20.020,32.715,8.301,20.020,0
1514104743.388,21.973,31.250,40.039,20.996,55.664,0
1514104743.392,27.832,30.762,54.688,55.176,79.590,0
1514104743.396,15.137,27.832,46.875,56.641,20.996,0
1514104743.400,7.324,21.973,36.133,38.574,-16.602,0
1514104743.404,7.812,18.066,37.598,31.250,55.664,0
1514104743.407,20.020,20.996,46.387,40.039,87.891,0
1514104743.411,12.207,16.113,34.668,32.227,53.711,0
1514104743.415,0.488,17.578,33.691,30.273,34.668,0
1514104743.419,9.766,24.414,50.293,34.180,74.707,2
1514104743.423,11.719,16.113,46.387,21.973,102.539,0
1514104743.427,-3.418,11.719,40.039,18.066,55.664,0
1514104743.431,-10.742,14.160,44.434,21.484,37.109,0
1514104743.435,0.488,22.461,44.922,21.973,60.059,0
1514104743.439,8.789,25.391,38.574,15.625,86.426,0
1514104743.443,11.719,15.625,39.062,8.789,78.613,0
1514104743.446,9.766,16.113,40.527,5.859,65.918,0
1514104743.450,13.184,22.461,39.062,14.160,63.477,0
1514104743.454,6.348,25.879,35.645,13.184,45.410,0
1514104743.458,-0.977,22.461,39.062,16.113,70.312,0
1514104743.462,4.395,7.812,40.039,15.137,89.355,0
1514104743.466,-0.488,4.395,37.598,6.836,57.617,0
1514104743.470,-5.859,8.301,35.645,5.859,48.828,0
1514104743.474,4.883,8.789,36.621,1.953,71.777,0
1514104743.478,12.695,24.902,41.504,12.695,84.961,0
1514104743.482,11.230,32.227,42.480,20.020,58.594,0
1514104743.486,10.254,19.043,40.039,21.973,25.391,0
1514104743.489,0.977,15.625,43.945,29.785,40.527,0
1514104743.493,11.230,20.996,50.781,29.297,72.266,0
1514104743.497,8.301,14.160,40.039,4.395,72.266,0
1514104743.501,5.859,13.672,37.598,-7.324,35.645,0
1514104743.505,15.625,21.973,49.805,16.113,63.477,0
1514104743.509,6.836,19.043,43.457,22.949,100.586,0
1514104743.513,-0.977,9.277,30.273,4.883,33.691,0
1514104743.517,15.137,14.648,34.668,14.648,20.020,0
1514104743.521,24.414,26.855,48.828,29.297,61.523,0
1514104743.525,21.973,31.738,52.734,22.461,75.684,0
1514104743.529,23.438,26.855,48.340,27.832,39.551,0
1514104743.532,11.230,20.996,46.387,34.180,-12.207,0
1514104743.536,9.277,18.066,42.480,23.438,30.273,0
1514104743.540,15.137,22.461,36.621,15.137,81.055,0
1514104743.544,15.137,25.391,36.621,28.809,47.852,0
1514104743.548,23.926,17.090,41.016,39.551,-0.977,0
1514104743.552,23.438,8.789,41.504,34.180,19.043,0
1514104743.556,16.113,7.324,37.598,27.832,65.918,0
1514104743.560,16.113,18.066,44.434,34.180,50.781,0
1514104743.564,20.996,30.762,49.316,34.668,46.875,0
1514104743.568,23.926,21.973,46.387,23.438,38.574,0
1514104743.571,15.625,12.207,40.039,23.438,19.531,0
1514104743.575,7.324,15.625,35.156,21.484,33.203,0
1514104743.579,18.555,18.066,39.551,11.719,-2.441,0
1514104743.583,20.508,19.531,34.668,5.859,4.395,0
1514104743.587,10.254,25.879,35.645,12.695,61.035,0
1514104743.591,16.113,27.832,49.316,17.578,55.176,0
1514104743.595,14.648,21.484,45.898,8.789,6.836,0
1514104743.599,15.625,12.695,41.016,6.348,20.996,0
1514104743.603,14.160,15.137,34.180,7.324,48.340,0
1514104743.607,10.742,28.320,36.621,4.395,18.555,0
1514104743.611,22.949,30.273,44.922,6.348,9.766,0
1514104743.614,16.113,25.391,37.109,0.488,7.812,0
1514104743.618,14.160,24.414,33.203,10.742,11.230,0
1514104743.622,19.043,17.578,40.039,27.832,16.602,0
1514104743.626,11.230,14.160,39.551,19.043,27.344,0
1514104743.630,7.324,23.438,36.621,10.742,2.441,0
1514104743.634,14.160,26.855,33.203,14.160,-19.531,0
1514104743.638,7.324,18.555,26.367,14.648,19.043,0
1514104743.642,-1.953,11.230,20.996,18.066,62.988,0
1514104743.646,-1.953,19.043,28.320,14.648,27.832,0
1514104743.650,5.859,26.855,40.039,3.418,-13.184,0
1514104743.654,10.254,26.367,40.527,5.859,38.574,0
1514104743.657,19.531,31.738,42.480,10.254,74.707,0
1514104743.661,15.137,29.785,41.992,-6.836,5.859,0
1514104743.665,5.859,24.414,37.109,-7.812,-57.617,0
1514104743.669,8.789,19.043,34.668,4.395,-30.762,0
1514104743.673,11.719,25.879,27.832,3.418,28.320,0
1514104743.677,17.090,30.762,28.320,16.113,31.738,0
1514104743.681,8.789,16.602,29.297,13.672,-2.930,0
1514104743.685,0.977,13.184,22.949,2.441,-14.160,0
1514104743.689,10.254,26.855,22.461,3.906,38.086,0
1514104743.693,16.113,25.391,23.926,-1.953,27.344,0
1514104743.696,5.859,18.555,28.809,-3.418,-0.488,0
1514104743.700,2.930,22.949,24.902,-9.277,10.742,0
1514104743.704,21.973,32.715,29.297,-4.883,12.207,0
1514104743.708,25.879,36.133,32.227,11.230,0.488,0
1514104743.712,9.766,30.273,29.785,13.184,-45.410,0
1514104743.716,0.488,25.391,27.832,8.789,-23.926,0
1514104743.720,-1.953,28.809,28.320,7.812,15.625,0
1514104743.724,3.418,31.738,28.320,8.301,-14.648,0
1514104743.728,2.441,23.926,22.461,-0.488,-41.992,0
1514104743.732,2.930,27.832,32.715,7.812,-30.273,0
1514104743.736,11.230,32.715,40.039,29.785,-15.137,0
1514104743.739,7.812,24.414,34.180,24.902,22.461,0
1514104743.743,-0.977,27.344,22.949,4.395,-2.441,0
1514104743.747,6.836,31.738,18.555,-3.418,-32.715,0
1514104743.751,15.137,25.879,21.484,-0.977,-42.969,0
1514104743.755,9.766,28.809,26.855,2.441,-22.461,0
1514104743.759,2.930,32.227,29.785,8.301,9.766,0
1514104743.763,-3.906,28.320,25.879,8.789,-11.719,0
1514104743.767,0.977,22.949,25.391,3.906,-21.973,0
1514104743.771,8.789,28.809,28.320,-0.977,-22.461,0
1514104743.775,8.301,38.086,33.203,-0.488,-28.809,0
1514104743.779,9.277,36.133,32.227,6.836,-41.016,0
1514104743.782,9.277,25.879,25.879,8.789,-58.594,0
1514104743.786,6.836,20.996,28.320,9.277,-56.152,0
1514104743.790,9.277,29.297,31.738,9.766,-23.438,0
1514104743.794,21.973,41.504,31.250,14.648,32.715,0
1514104743.798,5.859,38.086,25.391,19.043,15.137,0
1514104743.802,-7.812,26.367,16.602,16.602,-50.781,0
1514104743.806,4.883,22.949,11.719,16.113,-48.340,0
1514104743.810,14.160,26.855,19.531,12.207,-25.391,0
1514104743.814,12.695,29.297,26.367,4.883,-48.828,0
1514104743.818,6.836,21.973,25.879,9.277,-54.199,0
1514104743.821,9.766,24.902,28.320,6.348,-27.832,0
1514104743.825,6.836,37.109,29.785,-3.418,-18.066,0
1514104743.829,6.348,37.598,27.344,-3.906,-31.738,0
1514104743.833,8.789,33.691,21.973,-13.672,-50.293,0
1514104743.837,11.719,33.691,20.020,-11.719,-11.230,0
1514104743.841,15.137,26.855,24.902,0.977,-10.254,0
1514104743.845,20.020,26.367,25.879,-5.371,-53.223,0
1514104743.849,20.996,24.902,25.879,-6.348,-77.148,0
1514104743.853,8.301,21.484,25.879,15.137,-49.805,0
1514104743.857,6.348,24.902,29.785,26.855,-21.973,0
1514104743.861,14.160,35.645,38.086,27.344,-67.871,0
1514104743.864,5.859,41.016,31.250,27.832,-86.426,0
1514104743.868,10.742,33.691,23.438,24.414,-38.574,0
1514104743.872,16.602,31.250,20.508,17.090,-7.812,0
1514104743.876,20.508,34.668,24.902,17.090,-52.734,0
1514104743.880,26.367,31.738,33.203,17.090,-101.562,0
1514104743.884,25.391,29.785,36.133,24.902,-66.406,0
1514104743.888,22.461,27.832,33.203,25.879,-35.156,0
1514104743.892,13.672,19.043,25.879,15.625,-32.227,0
1514104743.896,22.461,23.438,30.273,22.461,-59.082,0
1514104743.900,40.527,35.156,38.086,31.250,-72.754,0
1514104743.904,37.598,38.574,32.715,32.227,-61.523,0
1514104743.907,30.762,42.969,32.715,33.203,-89.355,0
1514104743.911,29.297,32.227,34.668,32.715,-90.820,0
1514104743.915,17.090,21.484,33.203,31.738,-58.594,0
1514104743.919,13.184,26.367,34.668,26.855,-31.738,3
1514104743.923,14.648,25.879,33.691,20.020,-31.738,0
1514104743.927,11.719,20.996,33.691,19.531,-42.480,0
1514104743.931,20.020,30.762,37.109,15.625,-69.336,0
1514104743.935,25.391,45.898,34.668,13.184,-75.684,0
1514104743.939,24.414,44.922,35.156,23.926,-37.109,0
1514104743.943,18.555,31.738,38.086,30.273,-13.184,0
1514104743.946,18.555,19.043,33.691,23.926,-94.238,0
1514104743.950,13.184,13.184,30.762,14.160,-115.234,0
1514104743.954,11.230,24.902,36.621,5.371,-41.016,0
1514104743.958,8.789,33.203,32.715,-1.465,-35.645,0
1514104743.962,14.160,27.832,27.344,-7.812,-51.758,0
1514104743.966,24.414,25.391,32.227,-0.488,-68.359,0
1514104743.970,19.531,36.133,39.062,23.438,-45.898,0
1514104743.974,11.230,37.109,37.598,32.227,-6.836,0
1514104743.978,13.672,29.785,31.738,17.578,-15.137,0
1514104743.982,11.719,31.738,31.738,0.488,-33.691,0
1514104743.986,16.602,35.156,33.691,-6.348,-23.926,0
1514104743.989,23.926,36.621,34.180,-7.324,-10.742,0
1514104743.993,10.742,29.785,29.785,-3.418,-42.969,0
1514104743.997,4.883,23.926,28.809,2.930,-26.855,0
1514104744.001,7.324,30.762,28.809,5.859,-26.855,0
1514104744.005,15.625,34.668,34.668,17.090,-76.172,0
1514104744.009,21.973,33.203,41.016,16.602,-62.012,0
1514104744.013,17.578,36.133,41.992,14.160,-89.355,0
1514104744.017,10.254,34.180,38.086,25.391,-101.562,0
1514104744.021,8.301,21.973,35.645,21.973,-45.898,0
1514104744.025,18.555,22.461,35.645,19.531,-22.949,0
1514104744.029,16.602,30.762,33.691,26.855,-27.344,0
1514104744.032,4.883,28.320,32.715,30.273,-45.898,0
1514104744.036,20.020,36.621,34.668,39.551,-60.547,0
1514104744.040,31.250,42.480,41.992,41.504,-43.945,0
1514104744.044,25.391,37.598,43.457,32.715,-36.621,0
1514104744.048,27.344,27.344,33.691,29.785,-47.363,0
1514104744.052,29.785,23.438,30.273,35.156,-77.148,0
1514104744.056,29.785,33.203,35.156,34.668,-42.969,0
1514104744.060,20.508,26.367,33.691,29.785,-19.531,0
1514104744.064,18.066,13.184,31.738,30.273,-72.754,0
1514104744.068,31.738,27.344,38.086,24.414,-76.172,0
1514104744.071,29.297,40.039,41.504,21.973,3.906,0
1514104744.075,23.438,31.738,37.109,21.484,66.895,0
1514104744.079,14.160,29.785,32.715,15.137,30.273,0
1514104744.083,14.160,39.551,38.086,24.902,39.551,0
1514104744.087,24.902,41.016,34.668,30.273,-2.441,0
1514104744.091,18.066,25.879,21.484,21.973,-20.996,0
1514104744.095,15.137,23.926,20.508,16.113,-22.461,0
1514104744.099,7.812,25.879,27.344,10.742,-69.824,0
1514104744.103,7.324,17.090,29.785,7.324,-34.668,0
1514104744.107,22.949,22.461,36.133,18.066,-33.691,0
1514104744.111,26.367,33.691,46.875,21.973,-33.203,0
1514104744.114,20.508,41.504,41.504,11.230,13.184,0
1514104744.118,18.066,37.598,29.785,2.930,32.715,0
1514104744.122,14.648,28.320,25.879,0.488,29.785,0
1514104744.126,5.859,30.273,24.902,5.859,17.578,0
1514104744.130,4.395,25.879,35.156,15.137,18.555,0
1514104744.134,2.441,23.438,37.109,20.020,18.555,0
1514104744.138,5.371,34.180,41.016,24.414,24.414,0
1514104744.142,10.254,35.156,39.062,11.719,4.395,0
1514104744.146,14.160,26.367,29.785,-1.953,-48.828,0
1514104744.150,21.484,31.250,37.109,14.648,-52.734,0
1514104744.154,17.090,37.109,37.598,27.832,54.199,0
1514104744.157,12.695,31.250,32.227,6.348,18.066,0
1514104744.161,17.578,31.738,33.691,-1.465,-1.953,0
1514104744.165,16.113,28.320,34.180,7.324,69.824,0
1514104744.169,19.043,28.320,34.180,5.859,46.875,0
1514104744.173,25.391,35.645,34.668,15.137,-9.766,0
1514104744.177,27.344,39.062,37.109,25.879,-14.160,0
1514104744.181,21.484,33.691,33.691,34.180,8.789,0
1514104744.185,13.184,28.809,33.691,44.434,25.879,0
1514104744.189,20.508,32.715,37.598,52.246,14.160,0
1514104744.193,26.367,34.180,37.109,55.664,-20.508,0
1514104744.196,34.668,36.133,42.969,52.734,-24.902,0
1514104744.200,38.086,38.086,43.457,34.180,4.395,0
1514104744.204,30.273,36.621,39.551,15.625,18.066,0
1514104744.208,23.438,32.227,32.715,12.207,1.465,0
1514104744.212,20.508,36.621,31.250,23.926,1.465,0
1514104744.216,27.344,44.922,34.668,31.250,30.273,0
1514104744.220,32.227,42.480,36.133,21.484,35.645,0
1514104744.224,25.879,37.109,33.691,21.484,30.273,0
1514104744.228,20.996,30.273,33.691,27.344,38.086,0
1514104744.232,13.672,23.926,38.086,30.273,41.992,0
1514104744.236,5.371,26.855,34.668,35.156,27.832,0
1514104744.239,5.371,27.832,32.715,25.391,17.090,0
1514104744.243,12.695,31.738,35.645,18.555,-0.488,0
1514104744.247,14.648,38.086,30.762,11.719,8.789,0
1514104744.251,11.719,32.715,25.391,7.324,31.738,0
1514104744.255,12.207,38.086,38.086,23.438,-6.836,0
1514104744.259,16.602,49.316,43.457,21.484,29.297,0
1514104744.263,17.578,39.551,38.574,18.555,50.781,0
1514104744.267,11.719,31.738,35.645,19.531,-18.555,0
1514104744.271,9.766,26.855,29.297,5.859,-16.602,0
1514104744.275,7.812,16.602,25.391,-5.859,-10.254,0
1514104744.279,2.441,17.578,31.250,-0.977,-37.598,0
1514104744.282,13.672,34.180,38.086,10.742,12.695,0
1514104744.286,10.254,40.039,34.668,11.230,27.344,0
1514104744.290,4.883,39.062,35.645,12.695,36.621,0
1514104744.294,17.090,42.969,38.574,16.602,5.371,0
1514104744.298,18.066,49.805,33.691,15.625,-12.207,0
1514104744.302,14.648,29.297,28.809,9.766,48.340,0
1514104744.306,14.648,23.926,26.855,12.207,37.109,0
1514104744.310,18.555,38.574,28.320,20.996,9.766,0
1514104744.314,25.391,40.527,39.551,30.762,78.613,0
1514104744.318,28.320,40.039,37.598,34.180,107.422,0
1514104744.321,28.809,34.668,30.762,31.738,24.902,0
1514104744.325,39.062,37.598,38.574,31.250,-0.977,0
1514104744.329,38.574,38.086,38.086,25.879,30.273,0
1514104744.333,17.578,29.297,30.273,13.672,33.691,0
1514104744.337,20.508,26.367,30.762,8.301,51.758,0
1514104744.341,32.227,34.668,33.691,15.625,78.613,0
1514104744.345,38.574,47.363,38.574,21.484,83.984,0
1514104744.349,32.227,39.551,34.180,26.855,71.777,0
1514104744.353,25.391,31.250,29.785,21.484,49.805,0
1514104744.357,23.438,31.250,37.598,14.160,46.875,0
1514104744.361,17.090,38.574,44.434,21.973,-5.371,0
1514104744.364,22.949,46.387,39.551,27.344,-20.996,0
1514104744.368,20.996,41.504,31.738,26.855,34.668,0
1514104744.372,4.883,33.203,28.809,29.785,11.719,0
1514104744.376,10.254,24.414,29.297,36.621,17.578,0
1514104744.380,13.184,28.320,23.926,34.668,74.219,0
1514104744.384,12.207,38.574,27.832,27.344,37.109,0
1514104744.388,20.508,36.621,40.527,28.320,22.949,0
1514104744.392,23.438,27.344,40.039,19.531,46.387,0
1514104744.396,26.855,26.855,41.016,13.184,41.992,0
1514104744.400,20.508,41.992,39.062,17.090,37.109,0
1514104744.404,23.438,46.875,32.227,9.766,50.781,0
1514104744.407,22.461,31.738,30.273,-3.906,57.617,0
1514104744.411,7.812,17.090,28.809,-6.348,34.668,0
1514104744.415,18.555,35.645,38.086,8.789,5.371,0
1514104744.419,21.484,45.898,41.016,5.371,10.742,4
1514104744.423,10.254,36.133,34.668,-8.301,54.199,0
1514104744.427,26.855,37.598,45.898,8.301,38.574,0
1514104744.431,20.996,32.715,42.969,10.742,41.992,0
1514104744.435,4.883,36.621,39.062,9.766,49.316,0
1514104744.439,13.184,38.086,39.551,23.926,40.039,0
1514104744.443,15.137,27.344,33.203,28.809,11.230,0
1514104744.446,12.207,23.438,32.715,30.762,20.508,0
1514104744.450,13.672,35.645,35.645,28.809,45.898,0
1514104744.454,16.113,44.922,26.855,27.344,23.926,0
1514104744.458,31.738,37.109,31.250,34.180,29.785,0
1514104744.462,42.480,35.645,43.457,26.855,49.805,0
1514104744.466,47.852,44.434,40.039,14.160,55.176,0
1514104744.470,40.039,42.480,31.738,4.883,0.977,0
1514104744.474,25.391,32.715,33.203,16.113,32.227,0
1514104744.478,15.137,34.180,34.180,31.250,39.551,0
1514104744.482,11.230,37.598,32.227,32.715,15.625,0
1514104744.486,13.184,36.133,29.785,20.020,1.953,0
1514104744.489,21.973,37.598,28.320,13.184,-5.859,0
1514104744.493,25.391,41.504,33.691,19.531,-8.301,0
1514104744.497,32.715,36.621,38.574,37.109,-25.391,0
1514104744.501,41.504,44.922,45.410,54.199,23.438,0
1514104744.505,25.879,51.270,40.527,43.457,80.566,0
1514104744.509,16.113,39.551,26.367,12.207,77.637,0
1514104744.513,13.184,31.738,25.879,-5.859,53.711,0
1514104744.517,24.902,34.180,36.133,11.230,50.293,0
1514104744.521,29.297,46.387,35.645,31.738,2.930,0
1514104744.525,13.184,41.504,27.832,26.855,28.809,0
1514104744.529,11.230,27.832,29.785,16.113,25.879,0
1514104744.532,22.461,42.480,40.039,20.508,6.348,0
1514104744.536,23.438,50.781,38.574,14.648,21.973,0
1514104744.540,17.090,36.621,27.344,7.324,30.273,0
1514104744.544,9.277,31.738,24.902,-8.789,57.617,0
1514104744.548,14.160,33.203,25.879,-16.113,16.113,0
1514104744.552,28.320,32.227,29.785,0.977,17.578,0
1514104744.556,29.297,40.039,32.715,8.789,38.574,0
1514104744.560,24.414,53.711,32.227,14.160,44.434,0
1514104744.564,28.320,47.852,35.156,25.879,84.473,0
1514104744.568,25.391,32.715,34.668,21.484,55.176,0
1514104744.571,19.531,31.250,31.738,18.066,19.531,0
1514104744.575,14.160,43.457,35.156,16.113,31.738,0
1514104744.579,16.113,43.457,34.180,7.812,54.199,0
1514104744.583,18.066,41.016,30.273,16.113,30.762,0
1514104744.587,15.625,43.945,35.156,22.461,15.137,0
1514104744.591,20.996,36.133,39.062,24.414,67.871,0
1514104744.595,29.785,35.645,39.551,20.996,102.051,0
1514104744.599,31.738,38.574,41.504,20.020,82.520,0
1514104744.603,15.625,36.133,24.902,2.930,68.359,0
1514104744.607,13.184,30.762,22.461,3.906,78.125,0
1514104744.611,27.344,43.457,31.250,30.273,88.379,0
1514104744.614,27.344,46.387,32.715,26.367,47.852,0
1514104744.618,25.879,39.062,34.668,23.926,44.434,0
1514104744.622,33.691,47.363,32.227,32.227,15.137,0
1514104744.626,43.457,54.199,38.086,36.621,28.809,0
1514104744.630,39.551,46.875,41.992,34.180,66.406,0
1514104744.634,24.414,41.016,34.180,24.414,84.961,0
1514104744.638,12.695,34.180,31.738,19.043,68.359,0
1514104744.642,12.207,32.715,27.344,7.812,69.824,0
1514104744.646,28.809,37.109,25.879,17.578,111.816,0
1514104744.650,36.621,38.574,32.715,33.691,70.801,0
1514104744.654,22.461,39.062,32.227,24.902,58.105,0
1514104744.657,23.438,39.551,34.668,25.879,61.523,0
1514104744.661,24.902,48.828,33.691,17.090,59.082,0
1514104744.665,20.508,50.781,24.902,19.043,30.762,0
1514104744.669,19.043,46.387,17.090,17.090,-24.414,0
1514104744.673,9.766,37.598,11.719,0.000,-18.555,0
1514104744.677,10.742,18.555,10.254,0.000,15.625,0
1514104744.681,27.832,32.227,25.879,25.879,-11.719,0
1514104744.685,32.715,47.363,33.691,39.062,38.086,0
1514104744.689,26.367,41.992,25.391,18.555,110.840,0
1514104744.693,19.043,36.133,20.996,6.348,76.660,0
1514104744.696,15.625,38.574,27.832,6.348,80.566,0
1514104744.700,11.719,48.340,29.785,6.836,71.777,0
1514104744.704,10.742,37.598,30.762,13.184,51.270,0
1514104744.708,19.531,28.320,31.250,23.438,5.371,0
1514104744.712,20.508,42.480,28.809,23.926,-0.977,0
1514104744.716,13.672,38.086,26.855,20.996,3.906,0
1514104744.720,12.695,30.762,27.344,1.465,31.250,0
1514104744.724,20.996,33.203,31.738,-0.488,38.086,0
1514104744.728,31.250,52.734,34.180,14.160,3.906,0
1514104744.732,24.902,51.270,32.227,-4.883,59.570,0
1514104744.736,23.926,22.949,33.203,-3.906,63.477,0
1514104744.739,22.461,31.250,31.738,21.973,12.695,0
1514104744.743,9.766,43.945,32.227,27.832,11.719,0
1514104744.747,24.414,37.109,37.598,31.250,41.504,0
1514104744.751,33.691,42.969,34.668,25.391,21.973,0
1514104744.755,27.832,48.340,28.809,18.555,41.504,0
1514104744.759,36.621,43.945,35.156,28.809,33.691,0
1514104744.763,34.180,36.133,37.598,28.809,24.414,0
1514104744.767,28.320,27.344,37.598,30.762,48.340,0
1514104744.771,39.551,23.926,38.086,32.227,43.457,0
1514104744.775,36.621,32.227,37.109,20.996,67.383,0
1514104744.779,37.598,41.504,40.527,41.016,50.293,0
1514104744.782,40.039,36.621,38.086,35.156,-7.812,0
1514104744.786,32.227,38.086,35.156,20.996,-7.324,0
1514104744.790,35.156,23.438,41.992,31.250,28.320,0
1514104744.794,37.109,22.461,50.293,29.297,13.184,0
1514104744.798,36.133,37.598,51.270,29.297,41.016,0
1514104744.802,23.926,31.738,44.922,36.133,83.008,0
1514104744.806,25.879,24.414,44.922,39.551,61.523,0
1514104744.810,37.598,20.996,47.363,31.250,69.824,0
1514104744.814,36.133,20.508,45.898,30.762,43.457,0
1514104744.818,38.086,20.996,44.922,32.227,16.113,0
1514104744.821,23.438,27.832,42.969,23.438,40.527,0
1514104744.825,27.344,43.945,45.410,27.344,51.758,0
1514104744.829,39.062,32.227,43.945,32.715,20.020,0
1514104744.833,28.809,11.719,41.504,33.203,-0.977,0
1514104744.837,25.391,23.438,48.828,39.062,21.973,0
1514104744.841,28.809,26.855,47.852,30.273,48.340,0
1514104744.845,20.020,25.391,42.969,7.812,34.180,0
1514104744.849,7.812,31.250,48.340,-0.488,14.648,0
1514104744.853,18.555,21.484,53.223,9.277,26.855,0
1514104744.857,17.578,30.273,56.641,16.602,56.152,0
1514104744.861,7.812,38.574,51.758,21.484,87.402,0
1514104744.864,24.414,27.344,42.480,39.551,73.730,0
1514104744.868,37.109,18.555,45.898,38.574,56.641,0
1514104744.872,29.785,13.184,45.898,31.738,80.078,0
1514104744.876,15.625,23.926,41.992,21.484,56.641,0
1514104744.880,22.949,32.715,47.852,21.973,49.805,0
1514104744.884,30.762,35.645,52.734,27.344,12.207,0
1514104744.888,40.039,41.504,52.246,38.574,16.113,0
1514104744.892,41.504,43.945,53.223,46.387,65.918,0
1514104744.896,30.273,43.945,54.199,36.621,86.914,0
1514104744.900,28.320,20.508,44.434,33.691,37.598,0
1514104744.904,34.668,4.395,41.504,37.109,5.371,0
1514104744.907,32.715,26.855,45.410,27.344,2.441,0
1514104744.911,38.574,35.645,45.410,20.020,1.953,0
1514104744.915,37.598,33.203,48.340,31.738,3.418,0
1514104744.919,43.457,42.969,54.688,44.922,8.301,5
1514104744.923,60.059,41.992,60.547,50.293,48.828,0
1514104744.927,43.457,37.109,49.805,34.668,38.574,0
1514104744.931,20.508,20.508,39.551,25.879,63.965,0
1514104744.935,24.414,23.926,34.668,27.832,56.152,0
1514104744.939,44.434,24.902,36.133,31.250,21.973,0
1514104744.943,40.527,21.973,40.039,30.762,60.547,0
1514104744.946,59.570,30.273,44.434,41.504,70.312,0
1514104744.950,63.965,37.109,50.293,39.551,19.531,0
1514104744.954,48.828,51.758,50.293,40.527,29.785,0
1514104744.958,47.852,55.176,44.434,49.805,25.879,0
1514104744.962,48.828,41.016,36.621,37.598,25.879,0
1514104744.966,41.504,30.762,34.180,25.391,48.340,0
1514104744.970,33.203,23.926,37.109,23.926,38.086,0
1514104744.974,20.508,19.531,34.668,8.789,41.992,0
1514104744.978,31.250,25.391,41.992,16.113,22.949,0
1514104744.982,41.992,36.133,53.711,40.039,54.688,0
1514104744.986,44.922,34.180,52.246,42.480,60.547,0
1514104744.989,27.344,37.109,44.434,20.996,9.277,0
1514104744.993,11.719,43.457,38.086,11.230,7.812,0
1514104744.997,22.461,32.715,30.273,19.043,8.301,0
1514104745.001,9.277,20.020,35.156,20.508,13.184,0
1514104745.005,6.836,34.180,43.457,11.719,21.484,0
1514104745.009,23.926,45.410,46.875,19.043,14.648,0
1514104745.013,16.113,51.758,48.828,24.902,3.906,0
1514104745.017,6.348,44.922,45.410,23.438,-1.953,0
1514104745.021,15.625,30.762,42.969,25.391,58.594,0
1514104745.025,26.367,33.203,39.551,22.949,49.316,0
1514104745.029,20.996,30.762,29.297,3.906,0.000,0
1514104745.032,17.578,29.297,24.902,4.883,4.395,0
1514104745.036,24.902,29.785,32.715,34.180,52.246,0
1514104745.040,17.578,35.645,38.086,37.598,116.699,0
1514104745.044,9.277,39.551,39.551,28.320,35.156,0
1514104745.048,14.160,39.551,38.086,22.461,-55.664,0
1514104745.052,12.695,46.875,29.297,30.273,30.762,0
1514104745.056,20.508,45.410,31.738,39.551,53.223,0
1514104745.060,26.367,33.203,40.039,47.363,-8.301,0
1514104745.064,29.297,25.391,35.645,56.152,-8.301,0
1514104745.068,25.879,25.879,35.156,46.387,43.457,0
1514104745.071,29.297,34.668,39.551,44.434,74.219,0
1514104745.075,26.367,43.457,38.086,35.156,36.133,0
1514104745.079,26.367,40.039,35.156,31.738,37.598,0
1514104745.083,28.320,31.250,35.156,34.668,50.293,0
1514104745.087,25.879,30.273,25.879,37.109,19.531,0
1514104745.091,33.203,32.715,24.902,51.270,35.156,0
1514104745.095,33.691,39.062,23.926,64.941,24.902,0
1514104745.099,37.598,28.809,18.555,53.711,-1.465,0
1514104745.103,30.762,20.020,21.484,26.367,11.230,0
1514104745.107,28.320,36.621,27.344,24.414,-1.465,0
1514104745.111,41.016,46.875,25.391,30.762,2.930,0
1514104745.114,40.527,32.715,15.137,35.645,84.473,0
1514104745.118,53.223,28.809,18.066,49.805,68.848,0
1514104745.122,42.969,42.480,14.648,41.016,6.836,0
1514104745.126,18.555,43.945,2.930,-6.836,28.809,0
1514104745.130,27.344,37.598,10.742,-15.625,0.488,0
1514104745.134,42.480,34.180,30.762,16.113,10.254,0
1514104745.138,41.992,39.062,37.109,35.645,32.715,0
1514104745.142,25.391,44.922,37.109,40.039,31.250,0
1514104745.146,20.020,26.367,22.949,29.297,23.926,0
1514104745.150,32.715,17.090,17.090,36.133,32.715,0
1514104745.154,24.414,22.949,19.043,26.367,55.176,0
1514104745.157,17.578,15.625,14.160,8.789,65.918,0
1514104745.161,26.855,27.344,25.391,30.762,9.766,0
1514104745.165,36.133,44.922,33.203,31.250,25.391,0
1514104745.169,34.668,43.457,39.062,12.207,72.754,0
1514104745.173,10.742,41.504,33.691,9.277,29.297,0
1514104745.177,7.324,29.297,23.438,19.043,31.250,0
1514104745.181,8.301,10.254,19.531,38.086,39.062,0
1514104745.185,3.418,17.090,19.531,33.203,31.738,0
1514104745.189,18.066,34.668,28.320,23.926,-18.555,0
1514104745.193,22.461,34.668,36.133,28.809,-1.465,0
1514104745.196,18.066,38.574,33.691,10.742,25.879,0
1514104745.200,11.719,29.785,34.180,9.766,-35.645,0
1514104745.204,10.742,24.414,32.715,18.066,15.625,0
1514104745.208,1.465,26.855,34.180,17.578,24.414,0
1514104745.212,4.883,15.137,38.086,30.273,-37.598,0
1514104745.216,8.789,22.461,32.227,32.715,3.906,0
1514104745.220,15.137,43.457,31.738,31.738,22.949,0
1514104745.224,28.320,34.668,37.598,34.180,43.945,0
1514104745.228,25.391,35.645,41.992,20.020,-1.465,0
1514104745.232,31.738,31.250,41.992,21.973,-17.090,0
1514104745.236,22.949,19.531,34.668,36.621,35.645,0
1514104745.239,5.859,23.438,32.715,30.762,37.109,0
1514104745.243,4.395,23.926,33.203,17.090,7.812,0
1514104745.247,10.742,22.949,25.391,14.648,-19.531,0
1514104745.251,29.785,34.668,33.203,26.855,25.879,0
1514104745.255,30.762,39.551,43.945,25.391,22.949,0
1514104745.259,25.391,29.785,45.898,12.207,0.000,0
1514104745.263,22.461,31.738,40.039,14.160,44.922,0
1514104745.267,29.297,33.691,37.598,28.809,11.719,0
1514104745.271,23.438,22.461,39.062,30.762,1.465,0
1514104745.275,19.043,20.508,40.039,27.344,64.941,0
1514104745.279,24.902,26.367,35.645,21.973,44.922,0
1514104745.282,17.578,22.949,31.738,7.324,61.035,0
1514104745.286,12.207,21.484,31.250,8.301,104.980,0
1514104745.290,14.160,34.180,35.156,15.625,86.914,0
1514104745.294,26.855,36.133,39.062,25.391,56.152,0
1514104745.298,34.668,28.320,37.598,17.578,78.125,0
1514104745.302,27.832,34.668,43.945,10.742,56.641,0
1514104745.306,29.297,34.668,44.922,29.297,0.977,0
1514104745.310,21.484,26.367,40.039,36.133,47.363,0
1514104745.314,0.000,27.832,31.250,30.273,79.590,0
1514104745.318,6.348,36.133,28.320,20.508,53.711,0
1514104745.321,22.461,30.762,41.992,26.367,20.020,0
1514104745.325,16.602,43.457,38.086,26.855,26.855,0
1514104745.329,16.602,30.273,38.086,28.809,5.859,0
1514104745.333,14.648,10.254,42.480,29.297,-12.695,0
1514104745.337,16.602,25.879,40.039,17.090,1.465,0
1514104745.341,16.602,27.344,35.156,16.113,-6.836,0
1514104745.345,11.230,28.809,24.414,6.348,32.715,0
1514104745.349,27.344,30.762,30.273,6.836,40.039,0
1514104745.353,31.738,34.180,38.086,23.926,30.273,0
1514104745.357,28.809,45.410,34.668,27.832,43.457,0
1514104745.361,41.504,37.598,42.969,41.504,27.344,0
1514104745.364,34.180,37.598,41.504,38.086,32.227,0
1514104745.368,23.926,39.062,25.879,22.949,36.621,0
1514104745.372,22.461,30.273,31.738,30.273,33.203,0
1514104745.376,15.137,22.949,38.086,35.645,62.012,0
1514104745.380,17.090,37.109,30.273,33.203,50.293,0
1514104745.384,23.926,40.527,27.344,24.414,6.348,0
1514104745.388,33.691,20.996,29.297,6.836,4.883,0
1514104745.392,40.039,38.086,31.250,0.488,28.320,0
1514104745.396,46.387,40.527,37.109,13.672,14.648,0
1514104745.400,43.945,23.926,38.086,26.367,7.812,0
1514104745.404,31.250,17.578,40.039,31.738,-11.719,0
1514104745.407,26.367,23.926,36.133,35.156,-15.137,0
1514104745.411,27.832,27.344,32.227,19.531,-7.812,0
1514104745.415,25.879,27.344,29.297,0.977,67.383,0
1514104745.419,22.949,33.691,31.250,8.789,64.453,0
1514104745.423,15.137,41.504,33.203,18.555,0.488,0
1514104745.427,28.809,45.410,36.133,24.414,50.781,0
1514104745.431,34.180,38.086,42.969,25.391,11.230,0
1514104745.435,26.367,33.203,44.434,33.691,-17.578,0
1514104745.439,23.438,20.508,36.621,16.602,16.113,0
1514104745.443,11.719,23.926,24.902,-11.719,44.922,0
1514104745.446,20.996,26.855,31.738,10.254,42.969,0
1514104745.450,33.203,26.855,38.574,36.133,-29.785,0
1514104745.454,29.785,34.668,36.133,38.574,-29.785,0
1514104745.458,26.367,39.062,37.109,39.551,67.383,0
1514104745.462,26.855,42.480,41.504,41.992,46.387,0
1514104745.466,28.809,41.016,42.969,34.180,-21.973,0
1514104745.470,11.230,35.645,34.180,28.809,-16.113,0
1514104745.474,15.625,23.438,27.344,26.855,-10.742,0
1514104745.478,22.949,14.160,21.484,22.461,19.531,0
1514104745.482,14.160,18.066,27.832,16.113,20.020,0
1514104745.486,16.113,33.203,35.156,12.695,-8.301,0
1514104745.489,26.855,52.246,38.086,28.320,1.953,0
1514104745.493,40.039,43.945,35.156,25.391,25.879,0
1514104745.497,16.602,31.738,29.297,14.160,49.316,0
1514104745.501,12.695,30.762,36.621,15.625,70.801,0
1514104745.505,26.855,20.996,41.504,14.648,67.383,0
1514104745.509,21.484,19.531,35.156,1.953,6.836,0
1514104745.513,24.414,21.973,31.738,0.488,0.000,0
1514104745.517,25.879,32.715,36.133,22.461,44.922,0
1514104745.521,18.066,47.852,37.598,33.203,31.250,0
1514104745.525,33.691,44.922,39.551,36.621,-12.695,0
1514104745.529,28.809,30.762,28.809,20.508,8.301,0
1514104745.532,29.297,12.695,30.762,27.344,43.945,0
1514104745.536,35.645,25.391,38.574,35.645,27.344,0
1514104745.540,30.762,26.367,34.180,26.855,-16.602,0
1514104745.544,44.434,19.043,40.527,22.461,-4.883,0
1514104745.548,36.133,32.715,36.621,0.488,-8.789,0
1514104745.552,20.508,40.527,37.109,11.719,-6.836,0
1514104745.556,16.113,48.340,41.016,37.109,34.180,0
1514104745.560,21.973,41.016,36.133,42.969,29.297,0
1514104745.564,24.414,22.949,33.691,22.949,-1.465,0
1514104745.568,12.695,17.090,29.297,3.418,39.062,0
1514104745.571,6.348,19.531,31.738,14.160,44.922,0
1514104745.575,11.719,23.926,34.180,16.113,-8.789,0
1514104745.579,13.184,39.551,29.297,16.113,-19.531,0
1514104745.583,19.531,49.805,32.227,26.855,5.371,0
1514104745.587,23.438,46.387,35.156,30.762,49.805,0
1514104745.591,8.789,25.879,37.598,25.391,118.164,0
1514104745.595,6.836,16.113,46.875,14.648,91.797,0
1514104745.599,19.531,23.926,39.551,-5.859,31.738,0
1514104745.603,22.949,23.926,33.691,8.301,16.602,0
1514104745.607,21.484,21.973,36.621,24.902,31.738,0
1514104745.611,31.250,19.043,32.227,12.207,54.688,0
1514104745.614,22.461,44.434,29.785,-2.930,48.828,0
1514104745.618,26.855,53.711,35.645,-22.461,67.383,0
1514104745.622,35.156,20.996,42.480,-8.301,86.914,0
1514104745.626,12.207,16.113,36.133,23.926,83.496,0
1514104745.630,12.207,27.832,35.156,40.527,67.383,0
1514104745.634,25.879,45.410,27.832,26.367,45.898,0
1514104745.638,22.461,38.086,30.762,11.719,58.594,0
1514104745.642,34.668,25.879,39.062,15.625,46.875,0
1514104745.646,38.574,48.340,33.203,26.855,22.949,0
1514104745.650,32.227,35.645,37.598,31.738,44.434,0
1514104745.654,34.180,17.090,39.062,12.695,41.016,0
1514104745.657,37.109,20.508,41.992,5.371,10.742,0
1514104745.661,29.297,23.926,41.016,17.090,40.527,0
1514104745.665,26.367,23.926,31.250,27.832,60.059,0
1514104745.669,12.207,26.855,24.414,20.996,19.531,0
1514104745.673,19.531,33.203,28.809,13.184,45.410,0
1514104745.677,30.762,50.293,34.180,9.766,23.926,0
1514104745.681,24.902,46.387,36.621,14.648,-2.930,0
1514104745.685,22.461,32.227,43.945,25.391,28.809,0
1514104745.689,8.789,20.508,44.922,28.809,62.988,0
1514104745.693,-3.906,16.602,31.250,15.625,88.379,0
1514104745.696,17.090,24.414,27.832,16.113,31.738,0
1514104745.700,28.320,23.926,34.668,7.324,38.086,0
1514104745.704,4.883,40.039,29.297,-0.488,84.473,0
1514104745.708,14.160,54.199,33.203,37.598,95.703,0
1514104745.712,22.949,34.180,40.527,35.645,36.133,0
1514104745.716,14.160,15.137,42.480,27.344,37.109,0
1514104745.720,3.906,25.391,35.156,23.438,13.672,0
1514104745.724,-7.812,28.320,23.926,7.324,-26.855,0
1514104745.728,4.395,18.555,25.391,24.414,-6.836,0
1514104745.732,10.254,36.133,35.156,28.320,52.734,0
1514104745.736,4.395,48.340,34.180,2.930,36.621,0
1514104745.739,9.766,36.133,25.391,-8.301,13.672,0
1514104745.743,4.883,23.926,26.855,0.977,12.207,0
1514104745.747,1.465,30.273,27.832,9.766,32.227,0
1514104745.751,6.836,28.320,33.691,11.230,50.293,0
1514104745.755,9.277,14.648,37.598,12.207,21.484,0
1514104745.759,10.254,33.691,32.715,16.602,41.992,0
1514104745.763,-1.465,37.109,35.156,20.996,50.293,0
1514104745.767,4.883,33.203,37.598,27.832,2.930,0
1514104745.771,21.484,31.250,29.297,12.695,-0.977,0
1514104745.775,16.602,20.996,27.832,-0.977,17.090,0
1514104745.779,11.719,38.574,39.551,9.277,22.461,0
1514104745.782,19.531,36.133,39.551,21.484,16.113,0
1514104745.786,14.648,19.531,38.086,17.090,-9.766,0
1514104745.790,13.184,26.855,29.785,0.977,7.812,0
1514104745.794,9.277,35.645,25.391,-1.953,-9.766,0
1514104745.798,-4.395,40.039,28.809,3.906,-34.668,0
1514104745.802,0.000,27.832,28.809,13.184,18.555,0
1514104745.806,16.602,23.438,31.738,15.625,95.703,0
1514104745.810,17.578,30.273,34.180,11.719,68.359,0
1514104745.814,14.648,38.574,31.738,1.465,16.113,0
1514104745.818,10.254,30.273,26.367,7.812,57.129,0
1514104745.821,0.000,25.391,29.297,21.484,47.363,0
1514104745.825,11.230,32.227,35.645,25.879,37.109,0
1514104745.829,8.789,31.738,37.598,22.949,16.602,0
1514104745.833,4.395,27.344,33.691,15.625,11.719,0
1514104745.837,8.789,30.762,29.297,22.949,78.613,0
1514104745.841,13.672,36.621,33.691,18.555,63.965,0
1514104745.845,31.250,30.273,32.715,11.230,83.008,0
1514104745.849,23.926,30.273,24.902,9.766,72.754,0
1514104745.853,16.602,41.992,32.715,13.184,62.988,0
1514104745.857,33.203,33.691,41.992,34.180,61.523,0
1514104745.861,34.180,20.020,39.062,24.414,-30.273,0
1514104745.864,22.461,35.156,33.203,-8.301,-22.461,0
1514104745.868,6.348,45.898,29.297,0.000,16.602,0
1514104745.872,3.418,37.109,24.902,20.996,-36.133,0
1514104745.876,1.953,31.250,27.344,14.160,0.977,0
1514104745.880,-0.977,23.926,35.645,13.184,27.344,0
1514104745.884,-1.953,21.484,41.016,8.789,32.715,0
1514104745.888,1.953,36.133,39.062,17.090,62.012,0
1514104745.892,8.789,30.273,26.855,23.926,51.270,0
1514104745.896,4.395,21.484,20.508,4.395,27.832,0
1514104745.900,11.719,28.320,23.438,-9.766,1.465,0
1514104745.904,10.742,33.691,21.973,-21.973,42.480,0
1514104745.907,2.441,26.367,22.461,-17.578,42.480,0
1514104745.911,0.000,13.672,26.855,0.977,68.848,0
1514104745.915,-8.301,22.949,27.832,1.465,80.078,0
1514104745.919,4.883,37.109,33.691,15.625,96.191,0
1514104745.923,7.812,45.410,25.391,35.156,60.059,0
1514104745.927,0.977,45.410,17.578,11.230,5.371,0
1514104745.931,23.438,37.598,26.855,-5.371,42.480,0
1514104745.935,23.926,33.691,25.391,-14.648,78.613,0
1514104745.939,18.555,29.297,17.578,-16.113,40.039,0
1514104745.943,28.809,18.555,20.996,-6.836,54.688,0
1514104745.946,16.113,27.832,27.344,3.418,59.570,0
1514104745.950,11.230,38.574,25.879,17.090,-0.488,0
1514104745.954,10.742,34.668,27.832,14.648,35.156,0
1514104745.958,2.441,33.691,24.902,12.207,80.078,0
1514104745.962,19.043,45.898,37.109,41.016,82.031,0
1514104745.966,20.996,37.109,46.387,46.387,51.270,0
1514104745.970,14.160,12.207,36.621,19.043,8.301,0
1514104745.974,13.184,18.555,32.715,-6.836,16.113,0
1514104745.978,0.488,32.227,26.855,-9.766,47.852,0
1514104745.982,-4.395,29.785,30.762,-3.418,51.758,0
1514104745.986,4.883,30.762,33.691,-4.395,57.617,0
1514104745.989,14.160,25.391,30.762,13.672,73.242,0
1514104745.993,20.020,22.949,38.086,42.480,25.879,0
1514104745.997,6.348,33.203,30.762,17.090,10.254,0
1514104746.001,8.301,35.156,30.273,-9.277,26.855,0
1514104746.005,20.996,47.852,36.133,13.184,32.227,0
1514104746.009,16.113,39.062,24.414,22.461,32.715,0
1514104746.013,-10.742,23.926,18.066,15.137,21.484,0
1514104746.017,-9.766,26.367,22.461,20.996,26.367,0
1514104746.021,21.484,35.156,30.762,5.859,21.973,0
1514104746.025,21.973,28.809,29.785,0.000,54.199,0
1514104746.029,14.648,25.879,31.250,4.395,32.715,0
1514104746.032,20.020,41.992,33.203,5.859,10.254,0
1514104746.036,18.555,46.387,22.949,2.930,0.488,0
1514104746.040,15.625,30.273,21.484,-10.742,11.230,0
1514104746.044,19.043,38.574,23.438,-13.184,22.949,0
1514104746.048,13.184,62.988,24.414,-6.348,25.391,0
1514104746.052,9.277,38.086,26.855,2.930,15.625,0
1514104746.056,9.766,29.297,28.320,9.277,17.578,0
1514104746.060,7.812,46.875,26.367,-0.488,21.973,0
1514104746.064,18.555,33.691,28.809,-8.789,34.180,0
1514104746.068,21.973,22.461,30.273,0.977,43.945,0
1514104746.071,12.207,25.879,26.367,0.000,58.594,0
1514104746.075,16.113,24.902,27.344,6.836,62.012,0
1514104746.079,7.324,35.645,30.762,15.137,18.555,0
1514104746.083,3.418,41.016,34.668,22.949,39.062,0
1514104746.087,29.297,43.457,41.504,36.621,90.332,0
1514104746.091,25.879,42.969,41.504,31.250,83.984,0
1514104746.095,15.137,46.387,32.715,29.297,51.758,0
1514104746.099,19.531,41.992,24.902,22.461,-5.371,0
1514104746.103,11.230,20.020,20.508,9.277,50.781,0
1514104746.107,6.836,16.113,22.949,7.324,54.688,0
1514104746.111,1.953,26.367,25.391,6.836,18.555,0
1514104746.114,11.719,33.691,27.344,20.996,21.484,0
1514104746.118,20.996,45.898,31.738,21.484,1.465,0
1514104746.122,14.160,46.387,32.227,13.672,5.371,0
1514104746.126,9.277,44.922,30.762,19.043,11.230,0
1514104746.130,10.742,43.457,24.902,2.930,59.082,0
1514104746.134,18.555,21.973,29.785,-1.465,78.125,0
1514104746.138,24.902,18.555,31.738,17.578,29.785,0
1514104746.142,21.484,24.414,28.320,12.695,24.414,0
1514104746.146,3.418,30.273,27.832,11.230,30.273,0
1514104746.150,10.742,43.945,30.273,17.578,29.297,0
1514104746.154,32.227,49.805,32.715,25.391,-0.977,0
1514104746.157,28.320,37.598,26.855,21.484,1.465,0
1514104746.161,12.695,28.320,22.461,21.484,-11.230,0
1514104746.165,3.418,32.227,23.438,20.020,21.484,0
1514104746.169,0.488,34.180,24.414,12.207,31.738,0
1514104746.173,16.602,31.250,27.832,14.648,7.324,0
1514104746.177,34.668,32.715,34.180,4.883,24.902,0
1514104746.181,33.691,36.621,31.250,-9.766,45.410,0
1514104746.185,20.020,33.691,30.762,-2.441,46.875,0
1514104746.189,4.395,35.156,25.879,0.488,25.879,0
1514104746.193,2.930,31.250,26.367,0.488,24.902,0
1514104746.196,10.742,26.855,33.203,8.789,35.645,0
1514104746.200,3.418,35.156,30.273,-1.465,68.359,0
1514104746.204,7.324,21.973,33.691,4.395,48.828,0
1514104746.208,17.578,18.066,33.203,13.672,41.016,0
1514104746.212,21.484,33.691,34.668,8.789,51.270,0
1514104746.216,23.438,36.621,36.133,-5.371,-1.465,0
1514104746.220,2.441,28.320,24.414,-35.156,-5.371,0
1514104746.224,7.812,27.344,30.762,-7.812,1.465,0
1514104746.228,23.438,34.180,40.527,18.555,-20.020,0
1514104746.232,24.414,31.250,33.691,-15.137,-4.395,0
1514104746.236,10.742,26.367,32.715,-21.973,14.648,0
1514104746.239,18.066,29.785,32.715,0.488,25.391,0
1514104746.243,17.090,33.203,34.180,14.160,32.715,0
1514104746.247,7.324,26.855,35.645,18.555,29.785,0
1514104746.251,22.461,32.227,35.156,33.691,18.066,0
1514104746.255,20.508,36.133,30.762,34.180,0.977,0
1514104746.259,28.809,26.855,33.691,43.457,7.812,0
1514104746.263,32.715,32.715,41.992,49.805,62.500,0
1514104746.267,38.086,45.410,43.945,40.527,50.781,0
1514104746.271,40.039,45.898,35.645,34.668,26.367,0
1514104746.275,26.367,24.414,32.227,37.598,57.129,0
1514104746.279,28.809,24.902,39.551,46.875,46.387,0
1514104746.282,27.832,37.598,34.668,33.203,49.316,0
1514104746.286,18.555,30.762,20.996,5.859,39.062,0
1514104746.290,35.645,20.020,30.273,5.859,47.852,0
1514104746.294,46.875,24.902,39.062,18.555,56.641,0
1514104746.298,38.574,30.273,31.738,18.066,54.199,0
1514104746.302,29.297,35.156,38.086,15.625,81.055,0
1514104746.306,22.461,41.504,42.480,29.297,65.918,0
1514104746.310,29.297,41.992,41.016,44.922,48.828,0
1514104746.314,27.344,36.621,33.203,46.875,38.086,0
1514104746.318,20.020,31.738,29.785,37.598,0.977,0
1514104746.321,11.719,29.785,31.738,27.344,55.664,0
1514104746.325,9.766,26.367,40.039,34.180,72.266,0
1514104746.329,24.414,28.320,45.898,45.410,68.359,0
1514104746.333,7.812,30.762,35.156,42.969,38.574,0
1514104746.337,5.371,27.344,33.691,28.809,25.391,0
1514104746.341,28.809,30.273,47.852,17.578,72.754,0
1514104746.345,31.250,35.645,44.434,23.926,-0.488,0
1514104746.349,23.926,36.133,33.203,37.109,10.742,0
1514104746.353,22.949,24.414,32.227,31.738,29.785,0
1514104746.357,15.625,25.391,32.227,5.859,3.418,0
1514104746.361,7.812,41.504,33.203,-0.488,39.062,0
1514104746.364,17.578,29.297,32.227,0.488,63.477,0
1514104746.368,20.508,20.020,28.320,-5.371,40.527,0
1514104746.372,12.207,27.344,30.762,7.812,26.367,0
1514104746.376,3.418,37.109,35.645,15.625,16.113,0
1514104746.380,-2.930,39.062,29.785,10.254,-25.879,0
1514104746.384,3.906,26.855,17.578,9.277,-43.945,0
1514104746.388,18.066,28.320,16.113,-13.184,23.438,0
1514104746.392,12.207,27.344,28.809,-11.230,66.406,0
1514104746.396,20.020,29.785,40.039,23.926,9.277,0
1514104746.400,35.156,38.086,42.480,36.621,-6.836,0
1514104746.404,25.391,28.320,24.902,36.133,84.961,0
1514104746.407,17.090,23.438,-6.348,18.555,120.605,0
1514104746.411,19.043,22.949,-21.973,8.301,40.039,0
1514104746.415,18.555,23.438,-29.297,21.484,-3.418,0
1514104746.419,18.066,18.555,-27.344,27.832,42.480,0
1514104746.423,14.648,14.648,-20.508,39.062,60.547,0
1514104746.427,25.391,23.438,-16.113,56.152,38.086,0
1514104746.431,31.738,38.086,-6.348,40.039,53.711,0
1514104746.435,35.156,46.387,8.301,28.809,35.645,0
1514104746.439,32.715,41.992,-1.465,35.156,31.738,0
1514104746.443,16.602,25.391,-3.906,27.344,43.945,0
1514104746.446,7.324,18.066,-5.859,20.020,57.129,0
1514104746.450,1.953,25.391,-15.137,-7.812,30.762,0
1514104746.454,11.230,27.832,-9.277,-14.648,29.297,0
1514104746.458,10.742,36.621,-2.441,5.371,97.168,0
1514104746.462,3.418,24.902,2.441,23.438,77.148,0
1514104746.466,11.230,14.160,9.277,30.273,42.969,0
1514104746.470,3.906,25.391,8.789,4.395,14.648,0
1514104746.474,6.836,22.949,8.301,0.488,30.762,0
1514104746.478,24.902,29.297,10.254,34.180,44.434,0
1514104746.482,24.902,34.180,12.207,37.109,2.441,0
1514104746.486,13.672,34.180,9.277,14.648,3.906,0
1514104746.489,18.555,33.691,5.371,1.465,41.016,0
1514104746.493,29.785,28.809,12.695,3.418,49.316,0
1514104746.497,23.926,30.273,15.625,13.672,21.973,0
1514104746.501,9.277,32.715,8.301,8.789,-19.043,0
1514104746.505,12.207,37.598,14.160,-0.977,-31.250,0
1514104746.509,26.855,41.504,25.391,-4.395,-37.598,0
1514104746.513,24.414,38.574,21.484,-5.859,-31.738,0
1514104746.517,20.020,37.109,15.625,6.348,-23.926,0
1514104746.521,30.273,30.762,20.020,12.207,-17.090,0
1514104746.525,35.645,32.715,23.438,-6.348,3.906,0
1514104746.529,24.414,35.645,13.184,-18.066,21.973,0
1514104746.532,4.395,19.531,10.254,-17.578,27.832,0
1514104746.536,10.254,18.066,20.508,-3.418,36.133,0
1514104746.540,9.766,34.668,27.344,6.348,28.809,0
1514104746.544,2.930,48.340,31.738,3.418,6.836,0
1514104746.548,10.254,48.828,36.133,2.441,19.531,0
1514104746.552,8.789,40.527,31.738,3.906,21.484,0
1514104746.556,12.207,27.344,29.785,21.973,7.812,0
1514104746.560,12.207,18.555,34.668,39.551,25.391,0
1514104746.564,8.789,11.719,31.738,24.414,54.199,0
1514104746.568,8.789,16.113,24.902,13.672,17.090,0
1514104746.571,19.043,33.203,34.668,31.250,19.043,0
1514104746.575,25.391,46.387,40.527,30.273,53.223,0
1514104746.579,33.691,38.574,32.227,32.227,28.809,0
1514104746.583,47.852,21.973,35.645,43.457,13.672,0
1514104746.587,48.828,22.461,31.250,31.738,16.113,0
1514104746.591,40.527,20.508,27.832,27.832,67.871,0
1514104746.595,23.438,18.555,28.320,30.762,64.453,0
1514104746.599,30.762,27.832,26.367,28.809,13.184,0
1514104746.603,44.434,41.992,35.645,33.203,21.973,0
1514104746.607,40.527,44.434,48.340,39.551,28.320,0
1514104746.611,28.320,38.574,42.969,30.762,43.457,0
1514104746.614,31.250,24.902,33.691,20.996,66.895,0
1514104746.618,28.320,20.020,31.250,23.926,72.266,0
1514104746.622,24.414,23.438,30.273,30.273,77.637,0
1514104746.626,22.461,25.391,28.320,23.438,76.172,0
1514104746.630,9.766,29.785,33.691,29.785,58.594,0
1514104746.634,21.973,44.922,44.434,36.621,97.656,0
1514104746.638,40.039,57.617,47.363,40.039,93.750,0
1514104746.642,27.832,49.805,39.062,25.879,104.492,0
1514104746.646,30.762,27.832,34.668,22.461,121.582,0
1514104746.650,47.852,21.484,40.039,36.621,107.422,0
1514104746.654,29.297,24.902,34.668,18.555,148.438,0
1514104746.657,24.902,24.414,29.297,31.738,149.902,0
1514104746.661,28.320,22.461,30.273,39.062,125.000,0
1514104746.665,28.320,47.852,32.715,12.695,115.234,0
1514104746.669,37.598,55.664,40.039,12.695,145.996,0
1514104746.673,41.016,39.551,41.504,28.320,182.129,0
1514104746.677,40.039,26.855,37.109,34.668,183.105,0
1514104746.681,45.898,14.160,38.086,24.902,155.762,0
1514104746.685,42.480,20.508,34.180,0.977,168.457,0
1514104746.689,45.410,38.086,39.551,-0.977,170.898,0
1514104746.693,55.664,46.875,40.039,17.090,211.914,0
1514104746.696,46.387,42.969,34.180,31.738,219.727,0
1514104746.700,37.109,43.457,38.086,32.715,193.848,0
1514104746.704,46.387,27.832,34.180,32.227,243.652,0
1514104746.708,39.551,26.855,35.156,38.086,255.859,0
1514104746.712,27.344,30.762,33.203,47.852,240.723,0
1514104746.716,16.113,26.367,31.738,49.316,231.934,0
1514104746.720,13.672,28.320,34.180,26.367,267.090,0
1514104746.724,25.391,30.273,37.109,28.320,304.688,0
1514104746.728,26.367,30.762,35.156,44.922,290.527,0
1514104746.732,23.926,29.785,38.574,33.203,301.758,0
1514104746.736,10.254,32.715,37.109,5.859,344.727,0
1514104746.739,10.742,36.621,29.785,8.789,353.027,0
1514104746.743,23.926,45.898,40.527,28.809,366.699,0
1514104746.747,21.484,37.598,43.457,38.574,366.699,0
1514104746.751,28.809,25.879,43.945,38.574,364.746,0
1514104746.755,16.113,35.645,44.434,17.578,410.156,0
1514104746.759,3.906,23.438,34.668,22.461,411.621,0
1514104746.763,18.555,14.160,31.250,32.715,368.652,0
1514104746.767,25.879,26.367,31.738,20.508,389.160,0
1514104746.771,22.949,26.367,38.086,8.789,396.973,0
1514104746.775,22.461,38.574,37.109,9.277,402.344,0
1514104746.779,30.273,41.016,36.133,16.602,416.992,0
1514104746.782,38.086,36.133,40.527,24.902,391.113,0
1514104746.786,26.367,40.039,34.668,29.785,393.555,0
1514104746.790,32.715,27.344,35.156,26.855,421.875,0
1514104746.794,37.109,15.625,36.621,29.297,453.125,0
1514104746.798,25.391,18.066,33.691,26.367,473.145,0
1514104746.802,15.625,23.926,33.203,17.578,465.332,0
1514104746.806,10.742,35.156,33.691,24.902,463.867,0
1514104746.810,28.320,44.434,47.852,37.598,458.008,0
1514104746.814,34.668,48.828,45.410,42.969,446.777,0
1514104746.818,19.043,35.156,32.715,27.344,443.359,0
1514104746.821,21.973,26.855,36.621,24.902,437.988,0
1514104746.825,26.855,43.945,41.992,36.621,436.523,0
1514104746.829,23.926,33.203,39.551,38.086,438.477,0
1514104746.833,26.367,21.973,38.574,23.438,436.523,0
1514104746.837,20.996,27.832,34.180,14.648,442.871,0
1514104746.841,17.578,33.203,32.715,19.531,437.988,0
1514104746.845,15.137,33.691,36.621,21.484,404.785,0
1514104746.849,26.367,30.273,34.180,26.855,380.859,0
1514104746.853,40.039,38.086,38.574,37.598,402.344,0
1514104746.857,32.227,43.457,38.086,31.738,376.953,0
1514104746.861,33.203,24.902,39.062,29.297,305.664,0
1514104746.864,38.086,18.555,34.180,40.039,296.387,0
1514104746.868,29.785,31.738,29.785,46.387,307.129,0
1514104746.872,13.672,32.227,40.039,51.758,278.809,0
1514104746.876,27.344,32.715,45.898,58.105,216.309,0
1514104746.880,37.109,40.527,39.062,36.621,195.312,0
1514104746.884,20.508,28.809,33.691,15.137,219.727,0
1514104746.888,15.625,19.043,33.691,20.020,191.895,0
1514104746.892,22.461,30.273,32.715,8.789,145.996,0
1514104746.896,34.180,24.902,30.762,13.184,114.746,0
1514104746.900,34.180,15.625,31.738,12.207,114.746,0
1514104746.904,21.973,22.949,35.156,-1.465,136.719,0
1514104746.907,14.648,31.738,32.715,13.672,99.609,0
1514104746.911,7.812,26.367,39.062,18.066,54.688,0
1514104746.915,6.836,20.508,36.621,12.207,67.871,0
1514104746.919,4.883,22.949,35.645,18.066,59.570,0
1514104746.923,10.742,23.926,39.062,23.438,28.809,0
1514104746.927,13.672,33.203,33.691,26.855,36.621,0
1514104746.931,8.789,33.203,22.949,14.160,41.016,0
1514104746.935,-2.930,34.668,20.996,9.277,32.227,0
1514104746.939,7.324,36.133,35.645,34.180,11.719,0
1514104746.943,22.461,20.020,40.527,23.926,-42.969,0
1514104746.946,19.043,29.785,41.504,0.977,-64.453,0
1514104746.950,20.508,22.949,45.410,10.254,-48.340,0
1514104746.954,20.020,16.113,42.480,24.414,-20.508,0
1514104746.958,28.809,27.832,39.551,21.484,-42.969,0
1514104746.962,30.273,34.668,32.715,-3.418,-81.055,0
1514104746.966,11.230,38.574,34.668,-3.418,-99.609,0
1514104746.970,22.949,29.297,33.203,25.879,-95.215,0
1514104746.974,57.617,29.785,35.156,47.363,-88.867,0
1514104746.978,49.805,34.180,44.434,53.223,-128.418,0
1514104746.982,26.367,29.297,45.898,31.738,-145.996,0
1514104746.986,21.973,41.504,41.992,17.090,-106.445,0
1514104746.989,41.504,34.180,39.551,25.879,-78.613,0
1514104746.993,36.621,24.902,37.598,31.250,-104.492,0
1514104746.997,33.691,38.086,33.203,25.879,-111.328,0
1514104747.001,29.297,33.203,36.133,25.391,-74.219,0
1514104747.005,33.203,39.062,38.086,32.227,-85.449,0
1514104747.009,55.664,45.410,43.945,33.203,-137.695,0
1514104747.013,31.250,26.367,44.434,37.109,-162.598,0
1514104747.017,2.930,21.484,35.645,32.715,-130.859,0
1514104747.021,27.832,32.227,49.805,39.062,-114.746,0
1514104747.025,3.418,40.039,40.527,27.344,-153.320,0
1514104747.029,-16.113,43.945,24.414,12.695,-146.973,0
1514104747.032,23.438,28.320,30.273,23.438,-106.445,0
1514104747.036,21.973,24.414,35.156,16.113,-119.141,0
1514104747.040,24.902,33.203,43.457,12.207,-132.324,0
1514104747.044,40.527,27.344,44.434,24.414,-169.922,0
1514104747.048,29.785,18.555,40.039,14.648,-167.969,0
1514104747.052,24.902,23.926,35.156,11.230,-123.047,0
1514104747.056,24.414,30.273,31.250,10.254,-145.508,0
1514104747.060,24.414,33.691,35.645,4.395,-189.453,0
1514104747.064,22.949,36.621,35.156,16.602,-171.875,0
1514104747.068,39.062,27.832,35.156,27.344,-133.301,0
1514104747.071,23.438,44.922,25.391,19.531,-153.320,0
1514104747.075,5.371,50.781,30.762,2.441,-185.547,0
1514104747.079,35.156,33.203,44.922,25.391,-177.246,0
1514104747.083,33.691,34.668,35.156,27.832,-149.902,0
1514104747.087,14.648,28.809,30.762,12.695,-142.578,0
1514104747.091,15.137,35.645,43.457,24.414,-161.621,0
1514104747.095,15.625,52.734,39.551,28.320,-152.344,0
1514104747.099,21.484,49.805,43.457,35.156,-151.367,0
1514104747.103,23.926,32.227,43.457,28.809,-164.062,0
1514104747.107,17.578,22.949,30.762,-0.488,-143.066,0
1514104747.111,8.301,20.996,32.227,3.906,-129.883,0
1514104747.114,-4.395,24.902,30.762,9.277,-166.016,0
1514104747.118,2.930,24.902,24.414,-2.930,-128.418,0
1514104747.122,18.066,28.809,28.809,-4.883,-96.191,0
1514104747.126,27.832,31.250,37.109,7.812,-123.535,0
1514104747.130,25.879,36.133,38.086,16.113,-157.715,0
1514104747.134,15.625,41.992,39.062,28.320,-164.551,0
1514104747.138,-0.488,23.926,41.504,30.762,-123.047,0
1514104747.142,4.395,20.020,42.969,42.480,-120.117,0
1514104747.146,14.648,27.832,42.969,56.641,-146.484,0
1514104747.150,23.926,34.180,39.062,45.898,-146.484,0
1514104747.154,22.461,45.410,33.691,20.020,-137.207,0
1514104747.157,8.301,37.109,27.832,1.953,-162.109,0
1514104747.161,4.883,21.484,18.555,3.418,-189.453,0
1514104747.165,15.625,37.109,25.879,5.859,-191.895,0
1514104747.169,28.320,42.480,40.527,21.973,-150.391,0
1514104747.173,11.230,40.039,38.574,12.207,-139.648,0
1514104747.177,-1.953,38.574,37.109,5.371,-168.457,0
1514104747.181,7.324,23.926,36.133,13.672,-175.293,0
1514104747.185,15.137,28.320,27.344,12.695,-109.863,0
1514104747.189,20.508,31.738,22.949,13.672,-93.262,0
1514104747.193,21.973,29.297,24.414,10.254,-158.203,0
1514104747.196,0.000,22.461,17.090,-11.230,-144.531,0
1514104747.200,2.441,39.062,15.625,-8.789,-100.586,0
1514104747.204,36.621,51.270,34.668,36.133,-139.648,0
1514104747.208,33.691,38.574,41.992,48.340,-172.852,0
1514104747.212,20.508,39.062,37.109,45.410,-155.762,0
1514104747.216,15.137,27.832,30.273,29.297,-118.164,0
1514104747.220,16.602,20.996,29.785,25.879,-132.812,0
1514104747.224,19.043,24.902,27.344,17.090,-144.531,0
1514104747.228,24.414,37.598,26.855,7.324,-139.160,0
1514104747.232,25.879,43.945,22.461,4.883,-96.680,0
1514104747.236,18.555,39.551,22.949,0.000,-67.871,0
1514104747.239,11.719,38.086,30.273,11.230,-131.348,0
1514104747.243,20.508,21.484,40.527,28.809,-132.812,0
1514104747.247,32.715,20.508,39.062,23.926,-100.098,0
1514104747.251,35.156,23.438,34.668,13.184,-111.816,0
1514104747.255,16.602,18.066,35.156,17.578,-124.512,0
1514104747.259,13.672,35.645,34.668,21.484,-133.301,0
1514104747.263,25.879,46.875,44.434,42.969,-130.371,0
1514104747.267,31.738,18.066,39.551,50.293,-110.352,0
1514104747.271,20.996,13.184,37.109,39.551,-103.516,0
1514104747.275,21.973,31.250,44.922,35.156,-102.051,0
1514104747.279,33.203,31.250,40.039,16.602,-138.184,0
1514104747.282,36.133,13.184,41.504,17.090,-159.668,0
1514104747.286,28.320,9.277,42.969,23.926,-128.418,0
1514104747.290,18.555,15.137,38.086,30.273,-108.398,0
1514104747.294,24.414,26.855,40.527,34.180,-114.746,0
1514104747.298,28.320,27.344,40.527,34.180,-129.883,0
1514104747.302,40.039,26.367,40.039,38.086,-113.281,0
1514104747.306,40.039,27.344,46.387,49.805,-105.957,0
1514104747.310,41.016,29.785,49.805,52.734,-94.238,0
1514104747.314,41.016,24.902,47.852,39.551,-89.844,0
1514104747.318,37.598,23.438,46.387,21.973,-83.984,0
1514104747.321,35.645,30.762,41.992,12.695,-63.965,0
1514104747.325,17.578,18.555,30.762,10.254,-79.590,0
1514104747.329,9.766,6.836,31.250,16.113,-92.285,0
1514104747.333,28.809,12.207,39.551,33.203,-62.012,0
1514104747.337,41.992,29.297,41.504,24.414,-35.156,0
1514104747.341,37.109,40.039,42.480,20.508,-120.117,0
1514104747.345,36.621,23.438,40.039,20.020,-143.555,0
1514104747.349,28.320,33.203,32.227,9.766,-67.383,0
1514104747.353,11.230,44.922,35.156,9.766,-32.227,0
1514104747.357,17.090,32.715,45.410,23.438,-67.383,0
1514104747.361,20.508,37.109,40.039,21.484,-101.562,0
1514104747.364,16.113,27.832,32.227,0.000,-82.520,0
1514104747.368,27.832,21.973,33.691,13.184,-82.520,0
1514104747.372,26.855,27.832,38.574,26.855,-100.586,0
1514104747.376,22.461,28.809,43.945,26.367,-115.234,0
1514104747.380,19.531,20.996,49.316,35.645,-85.938,0
1514104747.384,9.766,15.137,47.852,38.574,-42.480,0
1514104747.388,2.441,24.414,40.527,38.086,-69.336,0
1514104747.392,15.625,37.109,39.551,41.992,-74.707,0
1514104747.396,24.414,26.367,39.551,36.133,-84.961,0
1514104747.400,19.531,19.531,39.062,29.297,-85.938,0
1514104747.404,18.066,25.391,36.133,36.621,-33.203,0
1514104747.407,12.207,23.438,32.227,26.855,-17.578,0
1514104747.411,21.484,19.531,33.691,32.227,-57.129,0
1514104747.415,36.133,30.762,50.293,59.082,-78.613,0
1514104747.419,32.227,29.785,47.852,72.754,-43.457,0
1514104747.423,21.973,20.020,38.574,61.035,-53.711,0
1514104747.427,30.273,20.020,41.504,47.363,-46.875,0
1514104747.431,28.809,15.137,34.180,24.414,-40.039,0
1514104747.435,19.043,19.531,31.738,15.137,-28.809,0
1514104747.439,30.762,32.715,38.086,30.762,-4.395,0
1514104747.443,42.969,27.832,37.598,31.250,-49.805,0
1514104747.446,20.996,24.414,34.180,29.785,-119.141,0
1514104747.450,7.324,23.926,28.320,26.855,-107.422,0
1514104747.454,24.414,23.926,26.367,20.996,-54.199,0
1514104747.458,20.508,46.387,34.668,20.020,-45.898,0
1514104747.462,24.414,40.039,32.715,20.020,-31.250,0
1514104747.466,32.227,13.672,28.809,19.043,-9.277,0
1514104747.470,24.902,23.438,22.949,10.254,1.465,0
1514104747.474,19.531,32.715,32.227,-1.953,-46.875,0
1514104747.478,13.672,39.062,40.527,-5.371,-84.961,0
1514104747.482,3.906,44.434,27.832,-18.066,-9.277,0
1514104747.486,-5.371,20.020,24.902,-27.344,16.602,0
1514104747.489,-12.695,21.484,27.344,-9.766,-31.738,0
1514104747.493,-5.859,24.414,32.715,-2.441,0.977,0
1514104747.497,3.418,16.602,36.133,13.184,-16.602,0
1514104747.501,-2.441,23.926,27.832,14.648,-15.625,0
1514104747.505,6.348,28.809,33.691,9.277,-23.438,0
1514104747.509,12.695,43.945,41.992,6.836,-80.566,0
1514104747.513,-0.977,50.293,33.691,7.812,-83.984,0
1514104747.517,-7.324,30.762,33.691,18.066,-21.484,0
1514104747.521,3.418,10.742,31.738,25.879,43.457,0
1514104747.525,4.883,8.789,27.344,27.344,-37.598,0
1514104747.529,15.625,16.602,28.320,19.531,-39.062,0
1514104747.532,14.648,20.020,30.762,18.555,-34.668,0
1514104747.536,1.953,33.203,27.344,10.254,-58.105,0
1514104747.540,4.883,48.828,34.668,21.973,-21.484,0
1514104747.544,-0.977,40.527,47.363,32.715,40.039,0
1514104747.548,4.395,26.855,35.645,16.602,22.461,0
1514104747.552,10.254,18.066,29.785,22.461,-44.434,0
1514104747.556,9.277,21.973,27.344,20.020,-14.648,0
1514104747.560,1.465,20.508,23.438,13.184,6.348,0
1514104747.564,5.371,35.645,23.926,7.812,1.953,0
1514104747.568,13.184,33.691,24.902,0.488,21.973,0
1514104747.571,16.113,22.949,34.668,20.996,34.180,0
1514104747.575,21.973,40.039,40.527,46.387,-22.461,0
1514104747.579,21.484,29.297,35.156,35.645,-31.738,0
1514104747.583,16.602,22.949,31.738,17.578,-3.906,0
1514104747.587,6.348,27.832,29.297,8.301,5.371,0
1514104747.591,0.977,27.832,28.809,8.301,2.441,0
1514104747.595,15.625,33.203,34.668,12.207,26.367,0
1514104747.599,17.090,27.832,37.598,16.602,44.434,0
1514104747.603,10.742,21.484,30.273,22.949,-2.930,0
1514104747.607,17.090,33.691,23.926,12.695,-18.066,0
1514104747.611,28.809,43.457,38.086,20.020,-17.578,0
1514104747.614,29.297,23.926,37.598,26.367,-25.879,0
1514104747.618,17.090,12.207,30.762,10.742,27.344,0
1514104747.622,13.184,32.227,38.574,19.043,56.152,0
1514104747.626,19.043,31.738,34.668,20.508,21.973,0
1514104747.630,13.672,27.832,27.344,3.906,9.766,0
1514104747.634,24.902,32.715,31.250,12.207,6.348,0
1514104747.638,24.902,33.203,31.738,17.090,30.273,0
1514104747.642,12.207,48.828,26.855,14.648,35.645,0
1514104747.646,12.207,33.203,29.785,5.859,7.812,0
1514104747.650,13.184,19.043,26.855,7.812,5.859,0
1514104747.654,33.203,23.438,31.250,24.414,-9.277,0
1514104747.657,40.039,27.344,38.086,36.621,26.855,0
1514104747.661,31.250,35.156,35.156,34.668,55.664,0
1514104747.665,11.230,27.344,27.344,10.254,-16.602,0
1514104747.669,2.930,39.062,29.297,-0.488,20.508,0
1514104747.673,21.484,45.898,32.227,6.348,51.758,0
1514104747.677,24.414,26.855,20.508,10.254,3.418,0
1514104747.681,20.996,18.066,24.414,11.719,9.277,0
1514104747.685,15.625,27.832,31.250,8.789,7.324,0
1514104747.689,24.414,30.273,36.133,21.484,1.465,0
1514104747.693,39.062,23.926,42.969,37.109,16.602,0
1514104747.696,30.273,31.738,35.645,42.969,6.348,0
1514104747.700,11.230,29.785,27.832,41.992,12.207,0
1514104747.704,26.367,30.273,37.109,47.852,29.785,0
1514104747.708,41.504,35.156,41.504,49.805,16.602,0
1514104747.712,29.297,23.926,34.180,27.344,62.500,0
1514104747.716,20.020,31.250,35.156,13.184,29.785,0
1514104747.720,20.996,40.039,37.109,17.090,14.648,0
1514104747.724,20.020,35.645,31.738,16.113,43.457,0
1514104747.728,21.973,29.297,34.180,18.555,9.277,0
1514104747.732,16.113,20.508,39.551,40.527,0.000,0
1514104747.736,25.391,21.484,32.715,49.805,-27.344,0
1514104747.739,20.996,21.973,31.738,46.387,-43.945,0
1514104747.743,10.742,23.926,32.715,39.062,-7.324,0
1514104747.747,19.043,24.902,27.344,14.648,21.484,0
1514104747.751,32.715,31.738,31.738,21.973,2.441,0
1514104747.755,28.809,35.645,32.715,33.203,-0.977,0
1514104747.759,17.090,39.551,31.738,25.391,-1.953,0
1514104747.763,30.273,34.180,31.738,26.855,34.668,0
1514104747.767,33.691,22.461,32.715,27.344,44.922,0
1514104747.771,30.273,24.414,41.016,33.203,0.000,0
1514104747.775,26.855,19.043,39.062,25.391,2.441,0
1514104747.779,9.766,23.926,34.668,16.602,22.461,0
1514104747.782,5.859,41.504,33.691,21.484,18.066,0
1514104747.786,19.043,28.320,29.785,33.203,20.020,0
1514104747.790,25.879,23.926,34.180,26.367,38.574,0
1514104747.794,25.879,35.645,42.969,9.766,39.551,0
1514104747.798,23.438,32.715,32.715,6.836,40.039,0
1514104747.802,17.578,12.695,31.250,12.695,83.984,0
1514104747.806,13.672,20.996,40.039,27.344,53.711,0
1514104747.810,22.949,37.109,38.574,29.785,-16.113,0
1514104747.814,32.715,28.320,37.598,25.391,28.320,0
1514104747.818,33.691,23.438,35.156,41.992,75.195,0
1514104747.821,34.668,22.461,36.621,48.828,59.570,0
1514104747.825,28.320,30.762,36.621,25.879,58.594,0
1514104747.829,23.926,30.762,31.738,22.949,49.316,0
1514104747.833,39.062,18.555,41.504,37.598,41.992,0
1514104747.837,34.180,20.020,42.969,39.062,36.621,0
1514104747.841,25.391,27.832,31.738,41.504,54.688,0
1514104747.845,37.598,32.227,37.598,52.734,70.312,0
1514104747.849,40.527,37.598,42.969,58.105,44.434,0
1514104747.853,37.598,37.598,42.969,49.805,49.805,0
1514104747.857,39.551,41.504,36.621,41.504,35.645,0
1514104747.861,32.715,26.855,33.203,42.480,43.945,0
1514104747.864,33.203,12.695,38.574,53.223,41.016,0
1514104747.868,43.945,15.137,37.598,37.598,-8.789,0
1514104747.872,43.945,28.320,39.062,20.996,0.977,0
1514104747.876,40.039,34.180,31.250,35.156,60.547,0
1514104747.880,39.551,27.832,36.133,52.246,41.016,0
1514104747.884,23.438,31.250,34.668,41.992,56.641,0
1514104747.888,9.277,28.320,22.461,30.273,10.254,0
1514104747.892,13.672,23.438,24.414,34.668,0.000,0
1514104747.896,14.648,23.926,27.344,22.461,24.902,0
1514104747.900,20.020,25.391,34.668,1.465,-2.441,0
1514104747.904,18.555,24.902,38.086,5.371,69.824,0
1514104747.907,11.719,21.484,36.133,13.184,41.992,0
1514104747.911,12.695,27.344,42.480,18.555,20.996,0
1514104747.915,14.648,32.227,34.668,22.949,72.754,0
1514104747.919,-0.977,33.203,27.344,15.625,54.688,0
1514104747.923,-5.859,22.461,32.227,10.742,60.547,0
1514104747.927,1.953,9.277,32.227,-4.395,95.215,0
1514104747.931,4.395,25.879,35.156,-14.160,62.500,0
1514104747.935,11.230,35.156,36.133,13.184,70.312,0
1514104747.939,20.508,26.367,42.480,27.344,54.199,0
1514104747.943,19.531,30.273,41.504,23.438,14.160,0
1514104747.946,23.438,35.156,35.645,30.762,63.965,0
1514104747.950,20.020,28.320,32.227,24.902,81.543,0
1514104747.954,2.930,19.531,28.809,22.949,48.828,0
1514104747.958,1.465,24.902,27.344,41.016,7.324,0
1514104747.962,23.438,31.738,35.645,57.129,9.277,0
1514104747.966,34.180,32.715,45.410,49.316,16.602,0
1514104747.970,30.273,33.691,42.969,40.039,25.391,0
1514104747.974,17.578,30.762,30.762,43.457,63.965,0
1514104747.978,20.508,30.762,33.691,36.133,92.773,0
1514104747.982,24.902,38.086,41.016,20.508,47.363,0
1514104747.986,14.648,34.668,32.227,19.531,-10.254,0
1514104747.989,20.996,28.809,29.785,31.250,41.992,0
1514104747.993,37.598,29.785,38.574,40.039,73.242,0
1514104747.997,26.367,29.297,41.504,44.922,60.547,0
1514104748.001,31.250,36.133,47.852,62.500,63.477,0
1514104748.005,37.109,45.410,50.781,64.453,36.133,0
1514104748.009,12.695,35.645,44.434,29.785,-8.789,0
1514104748.013,8.789,29.785,32.715,7.324,16.113,0
1514104748.017,30.762,28.809,26.855,25.879,67.871,0
1514104748.021,28.320,12.695,32.715,35.645,105.957,0
1514104748.025,17.578,25.879,31.250,24.902,107.422,0
1514104748.029,30.273,40.527,41.016,36.621,51.270,0
1514104748.032,31.738,37.109,46.387,32.227,44.922,0
1514104748.036,22.949,27.832,38.086,25.391,76.172,0
1514104748.040,23.926,28.809,40.527,24.902,34.180,0
1514104748.044,25.879,31.738,36.133,11.230,13.672,0
1514104748.048,19.531,22.949,30.273,3.906,30.273,0
1514104748.052,16.602,30.273,37.598,15.625,44.922,0
1514104748.056,7.812,34.180,40.039,35.156,60.547,0
1514104748.060,9.766,17.090,30.762,24.414,14.648,0
1514104748.064,16.602,19.531,29.297,0.488,41.992,0
1514104748.068,23.926,30.762,39.551,14.648,24.414,0
1514104748.071,17.578,26.367,42.480,38.086,40.039,0
1514104748.075,3.906,35.645,39.062,21.484,128.906,0
1514104748.079,15.137,36.621,36.621,2.930,57.617,0
1514104748.083,7.812,29.785,30.762,-1.953,60.547,0
1514104748.087,0.488,31.250,29.297,9.277,60.547,0
1514104748.091,0.488,31.250,36.621,27.832,-11.719,0
1514104748.095,19.531,24.414,41.992,50.781,0.000,0
1514104748.099,34.668,18.555,36.133,42.480,0.977,0
1514104748.103,23.926,25.391,35.645,12.207,32.227,0
1514104748.107,21.973,43.945,37.598,10.254,43.945,0
1514104748.111,22.949,37.109,35.645,25.391,16.602,0
1514104748.114,24.414,13.184,37.109,34.668,55.176,0
1514104748.118,7.812,28.809,25.391,25.879,93.750,0
1514104748.122,0.488,31.250,21.973,18.066,39.062,0
1514104748.126,29.297,27.344,35.645,40.527,1.465,0
1514104748.130,30.762,34.668,40.039,50.293,-13.672,0
1514104748.134,28.809,20.996,37.598,32.227,46.875,0
1514104748.138,27.344,25.391,36.133,20.996,48.340,0
1514104748.142,18.555,46.875,43.945,13.672,10.742,0
1514104748.146,20.020,45.410,43.945,11.719,59.082,0
1514104748.150,23.438,38.574,30.762,20.508,41.504,0
1514104748.154,9.766,27.832,29.785,20.508,35.645,0
1514104748.157,8.301,26.367,34.180,32.227,88.379,0
1514104748.161,14.648,38.574,28.809,18.066,58.105,0
1514104748.165,24.902,27.344,25.879,12.695,49.316,0
1514104748.169,34.180,35.156,33.691,39.551,81.543,0
1514104748.173,44.434,40.039,44.922,53.711,59.082,0
1514104748.177,34.180,34.668,47.363,60.059,8.301,0
1514104748.181,24.414,34.668,41.504,41.504,18.555,0
1514104748.185,28.809,44.434,32.715,8.789,41.992,0
1514104748.189,31.738,42.480,22.949,6.836,64.941,0
1514104748.193,25.879,35.645,26.855,17.578,64.453,0
1514104748.196,14.648,31.738,35.156,22.461,78.613,0
1514104748.200,19.043,29.297,39.062,29.297,90.820,0
1514104748.204,22.949,30.273,44.922,34.180,67.383,0
1514104748.208,21.484,27.344,38.574,20.508,73.242,0
1514104748.212,28.809,37.109,38.086,14.648,52.246,0
1514104748.216,31.250,34.180,39.062,35.156,20.996,0
1514104748.220,10.254,36.621,30.273,26.855,21.484,0
1514104748.224,12.695,39.551,33.203,23.926,69.336,0
1514104748.228,18.555,45.898,34.668,5.371,80.566,0
1514104748.232,9.766,43.945,29.785,10.254,41.016,0
1514104748.236,27.344,14.648,43.945,57.617,50.293,0
1514104748.239,20.508,6.836,46.387,49.805,102.051,0
1514104748.243,5.371,19.531,37.109,28.809,41.992,0
1514104748.247,13.672,27.344,37.598,8.789,-13.184,0
1514104748.251,6.836,26.855,31.250,10.254,29.297,0
1514104748.255,10.742,22.461,26.855,17.090,20.020,0
1514104748.259,15.137,17.578,34.180,20.020,46.387,0
1514104748.263,7.812,37.109,37.598,37.598,39.062,0
1514104748.267,7.324,41.504,24.902,31.738,39.062,0
1514104748.271,13.184,31.738,22.949,22.461,25.879,0
1514104748.275,29.297,35.156,43.457,41.504,-22.949,0
1514104748.279,31.738,31.250,42.969,26.855,2.930,0
1514104748.282,18.066,24.902,27.832,1.953,20.508,0
1514104748.286,3.418,14.648,22.461,4.395,80.078,0
1514104748.290,13.184,13.184,30.762,8.301,76.660,0
1514104748.294,9.766,24.414,30.762,19.043,7.324,0
1514104748.298,14.648,29.785,36.621,38.574,60.547,0
1514104748.302,22.461,41.992,41.016,32.715,56.152,0
1514104748.306,16.113,46.875,29.785,19.531,15.137,0
1514104748.310,26.367,20.996,35.156,19.531,23.926,0
1514104748.314,34.668,21.484,41.016,15.137,59.082,0
1514104748.318,29.297,39.062,35.645,9.766,47.363,0
1514104748.321,13.184,25.879,35.645,25.391,14.648,0
1514104748.325,15.625,20.508,30.273,36.621,37.109,0
1514104748.329,15.625,24.414,29.297,26.855,67.871,0
1514104748.333,11.719,33.203,33.203,19.531,88.867,0
1514104748.337,31.250,39.062,38.086,23.438,84.473,0
1514104748.341,30.273,25.391,40.039,23.438,78.613,0
1514104748.345,16.113,19.043,29.297,-9.766,67.871,0
1514104748.349,29.785,18.555,36.621,15.625,71.777,0
1514104748.353,42.480,30.762,45.898,41.992,61.035,0
1514104748.357,36.133,35.156,34.180,24.902,56.641,0
1514104748.361,20.508,15.625,30.273,9.766,31.738,0
1514104748.364,18.066,18.555,33.691,3.906,35.156,0
1514104748.368,8.789,35.645,38.574,15.137,80.078,0
1514104748.372,-6.836,39.062,34.180,17.090,73.242,0
1514104748.376,6.836,20.020,26.855,29.785,30.273,0
1514104748.380,11.230,11.719,27.832,31.250,60.547,0
1514104748.384,18.066,30.762,34.180,-3.906,48.828,0
1514104748.388,39.551,23.926,33.691,-7.812,48.828,0
1514104748.392,24.902,13.672,28.320,11.230,86.426,0
1514104748.396,-3.418,27.832,28.809,12.695,52.734,0
1514104748.400,8.301,41.016,30.762,18.066,86.426,0
1514104748.404,24.414,27.344,36.133,28.809,111.816,0
1514104748.407,34.668,24.902,38.574,38.574,73.730,0
1514104748.411,29.297,14.648,35.156,47.363,29.297,0
1514104748.415,12.695,21.484,36.621,38.086,20.508,0
1514104748.419,28.320,26.367,37.598,37.598,71.289,0
1514104748.423,41.992,20.020,33.203,40.527,89.355,0
1514104748.427,30.762,31.250,28.809,24.414,101.562,0
1514104748.431,27.344,29.297,29.785,13.672,84.473,0
1514104748.435,35.645,30.273,33.691,36.621,106.445,0
1514104748.439,22.949,43.457,30.273,32.227,112.305,0
1514104748.443,19.043,28.809,26.855,16.602,81.543,0
1514104748.446,32.715,18.555,35.645,30.273,83.984,0
1514104748.450,21.973,21.484,36.133,31.250,51.758,0
1514104748.454,20.508,10.254,30.273,26.855,61.523,0
1514104748.458,29.785,15.137,30.273,21.484,84.473,0
1514104748.462,28.320,21.973,36.621,28.809,60.547,0
1514104748.466,14.160,32.715,40.527,36.621,66.895,0
1514104748.470,3.418,34.668,33.203,23.926,63.965,0
1514104748.474,10.742,29.297,36.621,12.207,62.500,0
1514104748.478,9.277,23.926,31.738,17.578,52.734,0
1514104748.482,4.883,36.621,24.414,10.742,24.414,0
1514104748.486,12.207,42.969,25.391,12.695,23.438,0
1514104748.489,3.418,19.531,24.414,9.277,18.555,0
1514104748.493,-1.953,17.090,23.926,-20.996,-5.859,0
1514104748.497,6.836,29.785,37.598,-10.254,-22.949,0
1514104748.501,14.160,30.273,42.969,15.625,-28.809,0
1514104748.505,10.742,29.297,28.809,-6.348,-25.879,0
1514104748.509,11.719,33.203,26.367,-10.742,11.719,0
1514104748.513,11.719,24.414,31.738,-6.348,-35.156,0
1514104748.517,0.488,27.344,26.855,-20.020,-49.805,0
1514104748.521,-0.977,33.203,24.902,-12.695,27.344,0
1514104748.525,10.742,10.742,26.855,3.906,49.805,0
1514104748.529,4.883,17.090,25.391,0.977,24.414,0
1514104748.532,14.160,34.668,40.527,25.879,19.043,0
1514104748.536,1.953,40.527,46.387,25.879,22.949,0
1514104748.540,-17.578,46.875,38.086,-7.324,14.648,0
1514104748.544,5.859,30.762,35.645,6.836,45.410,0
1514104748.548,29.297,21.484,38.086,20.508,38.574,0
1514104748.552,29.297,32.227,34.668,8.301,20.996,0
1514104748.556,17.090,35.645,30.762,17.578,4.395,0
1514104748.560,24.414,34.180,34.180,31.738,-3.418,0
1514104748.564,33.691,25.391,35.645,27.832,24.902,0
1514104748.568,29.297,21.973,32.715,22.949,57.617,0
1514104748.571,34.668,29.297,36.621,14.160,20.508,0
1514104748.575,43.945,35.645,39.551,14.648,-32.227,0
1514104748.579,31.738,49.316,36.621,8.301,-42.969,0
1514104748.583,41.016,46.875,36.621,8.301,-39.062,0
1514104748.587,58.594,22.949,46.875,31.738,-5.371,0
1514104748.591,37.598,24.902,41.016,30.762,19.531,0
1514104748.595,19.531,25.391,39.062,32.227,-0.977,0
1514104748.599,27.344,30.273,38.086,48.340,3.418,0
1514104748.603,18.066,29.297,27.832,26.367,33.691,0
1514104748.607,0.977,33.691,28.320,20.508,32.227,0
1514104748.611,15.137,41.504,27.832,23.926,0.488,0
1514104748.614,34.180,27.344,35.645,25.391,25.879,0
1514104748.618,38.086,32.227,41.504,37.109,73.730,0
1514104748.622,25.879,37.109,46.387,25.391,44.434,0
1514104748.626,11.230,39.062,45.898,11.719,-1.953,0
1514104748.630,8.789,35.156,40.527,11.230,37.598,0
1514104748.634,3.418,27.832,35.645,12.695,52.734,0
1514104748.638,-10.742,31.250,32.715,-3.906,19.043,0
1514104748.642,-0.488,31.250,31.738,-5.371,27.832,0
1514104748.646,17.578,27.832,40.527,9.277,18.555,0
1514104748.650,19.043,22.461,41.016,16.113,-10.254,0
1514104748.654,16.602,19.531,41.016,29.297,58.594,0
1514104748.657,-8.301,11.230,41.016,25.879,72.266,0
1514104748.661,-13.672,30.273,25.391,-3.418,10.742,0
1514104748.665,17.090,41.992,27.344,-9.277,-9.766,0
1514104748.669,25.879,31.250,34.668,0.977,30.273,0
1514104748.673,10.254,31.738,42.480,11.719,87.891,0
1514104748.677,8.789,34.180,43.945,9.277,36.621,0
1514104748.681,14.648,20.020,28.809,-15.137,5.859,0
1514104748.685,-9.277,28.809,29.297,-30.273,29.297,0
1514104748.689,9.277,35.645,36.133,-0.488,62.500,0
1514104748.693,34.180,23.438,37.109,16.602,15.137,0
1514104748.696,33.691,22.461,33.203,11.230,12.695,0
1514104748.700,31.738,26.367,35.645,15.137,64.453,0
1514104748.704,12.695,36.621,37.109,19.531,62.988,0
1514104748.708,18.555,37.598,39.062,10.254,67.871,0
1514104748.712,26.367,44.434,35.156,1.953,39.062,0
1514104748.716,28.809,39.551,35.645,9.277,37.109,0
1514104748.720,30.273,28.320,31.250,29.297,48.340,0
1514104748.724,36.621,18.066,24.902,21.484,34.668,0
1514104748.728,54.688,23.926,30.273,17.578,48.828,0
1514104748.732,39.551,22.949,22.461,20.020,59.570,0
1514104748.736,37.109,37.598,26.855,10.254,16.602,0
1514104748.739,53.223,53.711,42.480,33.203,-13.184,0
1514104748.743,50.293,43.457,41.016,41.992,26.855,0
1514104748.747,37.598,44.922,28.809,34.180,48.340,0
1514104748.751,51.270,44.434,23.926,37.598,49.316,0
1514104748.755,61.035,33.203,19.531,33.203,54.688,0
1514104748.759,28.320,24.414,2.441,10.254,38.574,0
1514104748.763,13.672,32.715,0.000,1.953,43.945,0
1514104748.767,37.109,39.551,12.207,23.926,71.777,0
1514104748.771,36.133,38.086,9.766,14.160,88.867,0
1514104748.775,37.109,33.203,19.043,22.461,60.059,0
1514104748.779,32.227,46.875,23.438,30.762,28.809,0
1514104748.782,35.645,49.805,21.484,29.785,16.113,0
1514104748.786,41.504,43.945,21.484,39.062,28.320,0
1514104748.790,29.785,41.016,10.742,22.461,35.645,0
1514104748.794,23.926,29.785,6.836,2.930,28.320,0
1514104748.798,20.508,22.949,6.836,-6.348,44.922,0
1514104748.802,28.320,37.109,9.277,-1.953,62.500,0
1514104748.806,41.016,47.363,20.020,-3.418,46.875,0
1514104748.810,32.715,35.645,21.973,5.371,31.250,0
1514104748.814,16.602,27.832,14.160,24.414,40.039,0
1514104748.818,14.648,27.832,18.555,20.508,69.824,0
1514104748.821,15.137,43.457,19.043,13.184,66.406,0
1514104748.825,24.902,43.457,19.043,3.418,42.969,0
1514104748.829,19.043,37.598,26.855,7.324,17.090,0
1514104748.833,8.301,41.016,28.809,15.625,33.691,0
1514104748.837,7.812,40.527,17.578,14.160,72.754,0
1514104748.841,12.207,41.992,19.043,-2.930,58.105,0
1514104748.845,-1.465,34.180,34.180,-14.160,44.922,0
1514104748.849,10.254,25.391,29.785,12.695,84.961,0
1514104748.853,24.902,22.461,27.344,34.668,100.098,0
1514104748.857,16.602,35.645,35.156,32.227,58.105,0
1514104748.861,13.672,38.086,32.715,34.180,69.336,0
1514104748.864,9.277,22.461,26.367,18.555,85.938,0
1514104748.868,14.160,25.391,30.762,19.043,55.176,0
1514104748.872,8.301,49.805,20.020,26.855,24.414,0
1514104748.876,14.648,35.156,22.949,21.484,15.625,0
1514104748.880,30.273,20.508,44.434,31.738,56.641,0
1514104748.884,15.137,25.391,41.504,46.387,73.730,0
1514104748.888,-4.883,35.156,28.809,40.527,46.387,0
1514104748.892,8.789,28.809,33.691,20.508,64.453,0
1514104748.896,30.762,17.578,35.156,16.113,53.223,0
1514104748.900,38.574,22.461,34.668,38.574,66.895,0
1514104748.904,28.809,40.039,37.598,37.109,79.102,0
1514104748.907,20.508,41.992,38.086,15.625,30.273,0
1514104748.911,25.391,21.973,36.621,31.250,60.059,0
1514104748.915,19.531,22.461,34.668,31.250,86.914,0
1514104748.919,28.809,21.973,50.293,38.574,78.613,0
1514104748.923,33.203,15.625,43.457,42.480,84.961,0
1514104748.927,19.043,19.531,28.809,22.949,77.637,0
1514104748.931,25.879,27.344,35.156,33.691,65.430,0
1514104748.935,23.438,32.715,38.086,44.922,69.336,0
1514104748.939,15.625,36.133,37.598,39.551,128.418,0
1514104748.943,20.020,29.785,35.645,37.598,122.070,0
1514104748.946,13.184,25.879,40.527,32.715,74.219,0
1514104748.950,16.602,20.508,43.457,29.297,80.566,0
1514104748.954,13.184,17.090,41.016,28.809,112.793,0
1514104748.958,9.766,18.555,49.805,34.180,95.215,0
1514104748.962,18.555,25.391,47.852,33.691,53.223,0
1514104748.966,18.066,20.020,35.645,37.598,75.195,0
1514104748.970,8.301,18.555,31.738,40.039,91.309,0
1514104748.974,8.789,35.645,46.875,45.410,22.461,0
1514104748.978,7.812,29.785,43.945,38.574,-35.156,0
1514104748.982,9.766,17.090,41.992,31.250,-6.836,0
1514104748.986,1.465,15.625,38.574,27.344,66.406,0
1514104748.989,8.301,18.066,38.086,16.113,57.129,0
1514104748.993,23.926,28.320,48.340,26.855,7.812,0
1514104748.997,11.230,26.367,41.992,41.992,14.648,0
1514104749.001,-5.859,3.906,37.109,24.414,62.988,0
1514104749.005,8.301,8.789,37.598,31.250,70.801,0
1514104749.009,25.879,28.320,43.457,60.059,-4.395,0
1514104749.013,20.996,27.344,44.434,59.082,-3.906,0
1514104749.017,24.902,33.203,44.922,50.781,54.199,0
1514104749.021,26.855,40.527,37.598,36.621,74.219,0
1514104749.025,33.691,24.902,26.367,34.180,28.809,0
1514104749.029,36.621,15.625,33.203,30.762,17.578,0
1514104749.032,30.762,17.578,37.598,31.250,4.883,0
1514104749.036,55.176,29.297,35.645,57.129,-4.883,0
1514104749.040,68.848,33.691,43.945,73.242,15.137,0
1514104749.044,53.711,34.668,40.527,57.129,-0.977,0
1514104749.048,46.387,47.363,32.715,45.410,5.371,0
1514104749.052,43.457,41.016,34.180,50.293,10.254,0
1514104749.056,44.922,31.738,37.109,57.129,18.066,0
1514104749.060,51.758,42.969,34.180,69.824,28.320,0
1514104749.064,37.598,36.621,29.785,51.758,23.438,0
1514104749.068,25.391,19.043,23.438,16.602,-2.930,0
1514104749.071,39.551,31.738,28.809,9.766,-0.488,0
1514104749.075,46.387,43.457,31.250,22.949,14.648,0
1514104749.079,37.598,41.504,29.297,29.785,45.410,0
1514104749.083,36.133,45.898,37.109,48.340,17.578,0
1514104749.087,39.062,46.875,39.062,48.828,-21.973,0
1514104749.091,39.062,38.574,35.156,25.391,-15.625,0
1514104749.095,28.320,29.785,36.133,23.438,-9.766,0
1514104749.099,29.785,31.738,34.180,34.180,20.508,0
1514104749.103,28.809,35.645,32.715,39.551,22.461,0
1514104749.107,17.090,27.832,28.809,32.227,10.254,0
1514104749.111,36.621,32.715,32.227,23.926,-20.996,0
1514104749.114,46.387,41.016,34.668,29.297,0.977,0
1514104749.118,31.250,33.691,31.738,20.020,29.297,0
1514104749.122,22.949,37.109,34.180,16.113,20.508,0
1514104749.126,22.461,37.598,33.203,14.160,33.691,0
1514104749.130,27.344,25.879,30.762,12.695,52.734,0
1514104749.134,27.344,27.344,37.598,18.066,64.941,0
1514104749.138,18.555,33.691,36.621,19.043,56.641,0
1514104749.142,14.160,41.504,32.227,21.973,64.453,0
1514104749.146,18.555,37.598,30.762,23.438,70.312,0
1514104749.150,20.020,25.879,28.320,20.996,71.777,0
1514104749.154,21.973,28.809,34.180,29.785,67.871,0
1514104749.157,23.926,34.180,40.527,31.250,44.922,0
1514104749.161,21.484,28.809,39.062,37.598,60.547,0
1514104749.165,27.344,23.926,37.598,46.387,63.965,0
1514104749.169,37.109,31.250,37.598,36.133,41.504,0
1514104749.173,35.645,41.992,38.086,31.250,24.902,0
1514104749.177,23.926,43.945,40.039,42.480,29.297,0
1514104749.181,25.879,38.086,39.062,50.781,54.199,0
1514104749.185,24.902,39.551,37.598,46.875,50.781,0
1514104749.189,18.066,28.809,33.691,45.410,45.410,0
1514104749.193,21.484,21.484,34.668,55.176,38.574,0
1514104749.196,39.551,28.809,45.410,66.406,40.527,0
1514104749.200,41.992,26.367,39.551,54.688,54.199,0
1514104749.204,33.203,29.297,40.527,54.199,75.684,0
1514104749.208,42.480,41.016,44.434,59.082,68.848,0
1514104749.212,37.109,42.969,37.598,50.781,52.246,0
1514104749.216,40.527,41.016,37.598,50.293,65.918,0
1514104749.220,38.574,34.668,38.574,42.969,63.477,0
1514104749.224,19.531,28.320,38.086,25.879,58.594,0
1514104749.228,13.184,29.785,32.715,15.625,54.688,0
1514104749.232,11.719,37.109,26.367,10.254,54.199,0
1514104749.236,20.996,48.340,32.715,19.531,88.867,0
1514104749.239,17.090,50.781,31.738,15.625,82.520,0
1514104749.243,17.090,40.039,36.621,21.484,38.086,0
1514104749.247,33.203,31.738,43.945,30.273,-5.859,0
1514104749.251,23.438,34.668,37.598,23.926,24.902,0
1514104749.255,10.254,34.668,31.250,26.855,52.246,0
1514104749.259,5.859,39.551,34.668,26.855,-6.348,0
1514104749.263,1.953,34.668,36.133,20.996,-1.465,0
1514104749.267,-9.277,15.625,29.785,8.789,65.918,0
1514104749.271,2.441,27.832,40.527,19.043,53.223,0
1514104749.275,25.879,46.875,53.711,34.180,16.113,0
1514104749.279,25.879,42.969,49.316,37.109,30.273,0
1514104749.282,8.301,33.203,37.109,24.902,32.227,0
1514104749.286,-1.465,27.344,33.203,34.180,21.973,0
1514104749.290,10.254,32.227,42.480,57.129,40.527,0
1514104749.294,14.160,39.551,45.410,54.688,48.340,0
1514104749.298,11.230,39.062,40.039,49.316,14.648,0
1514104749.302,-3.906,27.832,27.832,22.461,10.254,0
1514104749.306,-0.488,30.273,29.785,13.672,14.160,0
1514104749.310,14.648,32.227,39.551,30.762,31.250,0
1514104749.314,9.277,32.227,42.480,35.156,46.875,0
1514104749.318,11.230,32.227,43.945,41.016,72.754,0
1514104749.321,17.578,33.691,48.828,46.387,90.820,0
1514104749.325,10.254,27.832,39.062,37.598,32.715,0
1514104749.329,2.441,22.949,32.715,36.621,2.930,0
1514104749.333,7.812,36.133,39.551,54.688,38.574,0
1514104749.337,10.742,43.457,45.898,67.871,28.809,0
1514104749.341,8.301,36.621,41.016,54.688,30.273,0
1514104749.345,17.090,30.273,37.109,43.457,47.363,0
1514104749.349,21.973,20.508,35.156,35.645,29.785,0
1514104749.353,22.461,16.113,34.180,20.508,11.719,0
1514104749.357,32.715,25.391,41.504,31.250,5.371,0
1514104749.361,17.578,22.949,37.109,31.738,6.836,0
1514104749.364,7.812,27.832,30.273,21.973,20.508,0
1514104749.368,17.090,41.016,30.273,19.531,42.969,0
1514104749.372,21.484,47.852,31.738,18.555,62.012,0
1514104749.376,27.344,49.805,32.227,33.691,83.496,0
1514104749.380,27.832,31.738,37.109,42.969,32.715,0
1514104749.384,19.043,15.625,37.598,31.250,6.836,0
1514104749.388,14.648,18.555,29.297,12.207,7.324,0
1514104749.392,11.719,30.273,29.297,12.207,-3.906,0
1514104749.396,7.324,38.086,38.086,23.926,2.930,0
1514104749.400,6.348,36.133,41.992,32.227,-16.113,0
1514104749.404,9.277,31.738,42.969,25.391,-3.906,0
1514104749.407,8.789,37.109,41.016,11.719,2.930,0
1514104749.411,7.324,32.227,31.250,3.906,-17.090,0
1514104749.415,10.254,26.855,34.180,16.602,37.109,0
1514104749.419,20.996,32.227,42.480,21.973,43.945,0
1514104749.423,20.508,26.367,38.086,2.930,-3.906,0
1514104749.427,11.230,28.809,32.227,-8.301,3.906,0
1514104749.431,12.695,34.180,30.273,11.230,22.461,0
1514104749.435,9.766,26.367,30.273,18.066,17.578,0
1514104749.439,12.695,32.227,42.480,28.809,-11.230,0
1514104749.443,18.066,36.621,44.434,38.574,-6.348,0
1514104749.446,9.277,27.832,26.855,17.090,30.273,0
1514104749.450,11.719,27.832,36.621,19.043,16.602,0
1514104749.454,-1.953,31.738,40.039,32.715,43.457,0
1514104749.458,-14.160,27.832,30.762,35.645,34.180,0
1514104749.462,12.695,23.926,38.574,41.016,59.082,0
1514104749.466,24.902,28.809,44.922,24.414,79.590,0
1514104749.470,25.879,31.250,43.945,11.719,-9.766,0
1514104749.474,31.738,35.645,41.504,23.438,-9.766,0
1514104749.478,19.531,36.621,37.109,20.996,50.293,0
1514104749.482,19.043,44.922,35.645,28.809,20.020,0
1514104749.486,34.668,46.875,38.086,34.180,-37.109,0
1514104749.489,34.668,31.738,36.621,27.344,-47.363,0
1514104749.493,23.438,20.508,31.250,21.973,-11.230,0
1514104749.497,15.137,17.090,22.461,4.395,-3.418,0
1514104749.501,26.367,32.227,33.203,12.207,20.996,0
1514104749.505,35.156,41.016,41.016,27.832,23.926,0
1514104749.509,31.250,37.598,34.180,11.230,-0.488,0
1514104749.513,17.090,30.273,26.367,-8.301,21.484,0
1514104749.517,24.902,35.645,29.297,14.648,4.883,0
1514104749.521,22.949,36.133,34.180,24.902,0.000,0
1514104749.525,12.695,33.203,28.320,9.277,-7.812,0
1514104749.529,19.531,30.762,29.297,3.906,-25.879,0
1514104749.532,13.184,31.738,36.133,-10.254,0.977,0
1514104749.536,20.996,35.156,39.551,-2.930,21.973,0
1514104749.540,15.137,32.227,39.551,9.277,-23.438,0
1514104749.544,22.949,36.621,32.715,-0.488,-34.668,0
1514104749.548,31.738,27.832,30.273,4.395,0.000,0
1514104749.552,23.926,20.020,38.086,-6.836,20.996,0
1514104749.556,19.531,21.973,41.016,-1.465,14.160,0
1514104749.560,17.090,26.855,41.504,20.996,-23.926,0
1514104749.564,16.602,38.086,47.363,32.227,1.465,0
1514104749.568,14.160,37.598,55.664,29.785,-8.301,0
1514104749.571,9.277,30.273,50.781,8.789,-15.625,0
1514104749.575,0.977,24.414,31.250,-12.695,16.602,0
1514104749.579,11.719,29.297,36.133,-6.836,35.645,0
1514104749.583,26.367,35.156,43.945,14.648,46.875,0
1514104749.587,17.090,23.438,36.621,9.766,42.480,0
1514104749.591,20.020,17.090,44.922,5.371,36.133,0
1514104749.595,23.926,30.762,42.969,11.719,12.207,0
1514104749.599,23.438,37.109,35.156,16.602,-6.348,0
1514104749.603,18.555,29.297,36.133,21.973,-33.691,0
1514104749.607,9.766,35.645,41.504,27.832,-13.184,0
1514104749.611,6.348,37.598,39.551,11.719,10.254,0
1514104749.614,3.418,30.273,34.180,17.578,34.180,0
1514104749.618,8.789,26.855,41.504,32.227,27.344,0
1514104749.622,15.137,27.832,45.410,17.090,-0.977,0
1514104749.626,2.441,38.086,41.504,0.977,43.945,0
1514104749.630,8.789,35.645,41.992,10.742,2.441,0
1514104749.634,18.066,21.973,35.156,8.301,3.906,0
1514104749.638,6.836,9.766,28.320,2.930,22.949,0
1514104749.642,-1.953,17.578,27.832,14.160,10.254,0
1514104749.646,5.859,29.297,34.668,16.113,-2.930,0
1514104749.650,14.160,29.785,34.180,9.766,-19.531,0
1514104749.654,31.738,42.480,40.527,29.297,4.395,0
1514104749.657,33.203,41.504,50.781,24.414,6.836,0
1514104749.661,35.156,32.715,40.527,13.184,31.738,0
1514104749.665,35.645,38.574,32.227,25.879,32.227,0
1514104749.669,20.020,28.320,32.715,29.785,37.109,0
1514104749.673,22.461,26.855,32.227,29.297,-1.465,0
1514104749.677,20.020,30.762,39.551,23.926,-32.227,0
1514104749.681,2.441,23.438,44.434,2.441,-15.137,0
1514104749.685,11.719,15.625,32.715,0.977,8.789,0
1514104749.689,31.738,31.738,38.574,29.297,30.273,0
1514104749.693,20.508,45.410,46.387,37.109,-0.488,0
1514104749.696,13.672,43.457,38.086,9.766,-27.832,0
1514104749.700,21.484,41.016,32.227,-0.977,0.488,0
1514104749.704,35.156,25.879,37.109,15.625,-19.531,0
1514104749.708,28.320,17.090,37.598,19.043,-7.812,0
1514104749.712,24.902,13.672,38.574,12.695,22.949,0
1514104749.716,23.438,17.578,40.039,10.254,-2.441,0
1514104749.720,17.090,25.391,42.480,35.156,-35.156,0
1514104749.724,10.742,28.320,42.480,32.715,-14.160,0
1514104749.728,7.812,30.762,38.086,25.391,39.062,0
1514104749.732,-1.953,32.715,35.156,15.625,63.965,0
1514104749.736,10.742,35.645,41.504,15.137,66.895,0
1514104749.739,26.367,41.992,37.598,19.043,11.719,0
1514104749.743,16.602,39.551,35.645,17.090,31.250,0
1514104749.747,14.648,31.738,35.645,24.902,42.969,0
1514104749.751,9.766,26.367,25.879,5.859,-11.230,0
1514104749.755,12.207,20.996,29.297,10.742,8.789,0
1514104749.759,19.043,21.484,33.691,12.695,22.949,0
1514104749.763,26.855,26.367,31.738,7.324,29.297,0
1514104749.767,28.320,31.738,27.832,9.277,34.180,0
1514104749.771,20.508,42.480,37.598,17.090,36.621,0
1514104749.775,15.137,42.480,31.738,12.695,53.223,0
1514104749.779,14.648,31.738,19.531,-10.254,11.719,0
1514104749.782,5.371,22.461,20.996,-12.695,-3.418,0
1514104749.786,7.812,20.020,26.855,22.949,27.832,0
1514104749.790,9.766,16.602,31.250,34.668,33.691,0
1514104749.794,3.418,10.254,31.738,3.418,27.832,0
1514104749.798,12.207,15.137,33.691,8.789,-16.602,0
1514104749.802,18.555,29.785,37.109,15.137,-26.855,0
1514104749.806,17.090,40.039,34.668,-8.301,-6.836,0
1514104749.810,23.438,42.969,35.645,2.441,-8.301,0
1514104749.814,10.254,43.457,36.133,29.297,-18.066,0
1514104749.818,3.906,35.645,35.645,17.578,1.953,0
1514104749.821,25.879,31.250,37.598,26.367,63.477,0
1514104749.825,13.184,25.879,38.086,23.926,44.434,0
1514104749.829,-1.465,20.996,34.180,-0.977,-14.160,0
1514104749.833,20.508,16.602,30.762,8.789,-5.859,0
1514104749.837,21.973,22.949,33.203,10.742,30.273,0
1514104749.841,14.160,44.922,35.645,20.996,47.852,0
1514104749.845,20.020,49.805,46.387,43.945,35.156,0
1514104749.849,20.996,37.109,42.969,24.902,-1.465,0
1514104749.853,27.344,32.715,41.016,15.625,27.832,0
1514104749.857,12.207,20.996,39.551,20.996,66.406,0
1514104749.861,-6.348,19.531,24.414,-14.160,42.969,0
1514104749.864,15.625,23.926,22.461,-24.414,72.754,0
1514104749.868,10.254,40.527,24.902,-5.859,109.375,0
1514104749.872,0.977,41.016,26.367,5.371,65.918,0
1514104749.876,11.719,25.879,30.273,26.855,30.762,0
1514104749.880,17.090,29.297,24.414,39.551,9.277,0
1514104749.884,24.902,22.461,28.809,23.926,22.461,0
1514104749.888,25.391,19.531,35.645,14.648,64.941,0
1514104749.892,32.227,34.180,33.691,23.926,29.785,0
1514104749.896,20.996,27.344,31.738,15.625,-8.789,0
1514104749.900,10.742,29.297,29.785,20.020,47.852,0
1514104749.904,15.137,37.598,30.273,27.344,40.527,0
1514104749.907,15.625,35.156,37.109,35.645,65.430,0
1514104749.911,14.160,39.062,38.086,35.156,84.961,0
1514104749.915,13.672,35.156,25.391,15.137,79.590,0
1514104749.919,10.742,21.484,25.391,13.184,124.023,0
1514104749.923,5.371,20.020,29.785,-1.465,73.730,0
1514104749.927,10.254,24.902,22.949,-9.277,24.902,0
1514104749.931,17.578,28.809,29.785,15.137,19.043,0
1514104749.935,12.695,35.645,36.133,5.859,41.504,0
1514104749.939,9.766,34.668,30.762,-5.859,52.734,0
1514104749.943,15.137,37.109,26.367,8.789,68.359,0
1514104749.946,12.207,46.387,24.414,10.742,85.449,0
1514104749.950,10.742,42.480,21.484,13.672,112.793,0
1514104749.954,-1.953,24.902,27.832,17.090,112.305,0
1514104749.958,-8.789,36.621,34.180,8.301,36.133,0
1514104749.962,11.230,39.551,27.832,3.418,36.133,0
1514104749.966,16.602,20.996,26.367,3.418,63.477,0
1514104749.970,20.508,25.879,31.250,21.973,57.129,0
1514104749.974,13.672,23.438,26.367,19.043,53.223,0
1514104749.978,10.254,26.367,28.809,6.836,28.809,0
1514104749.982,14.160,33.691,39.551,9.277,29.297,0
1514104749.986,20.996,35.645,32.715,12.695,80.566,0
1514104749.989,17.578,25.391,20.996,4.395,74.219,0
1514104749.993,26.367,33.691,31.738,9.766,25.879,0
1514104749.997,37.598,41.504,40.527,30.273,28.320,0
1514104750.001,14.648,29.785,37.109,12.207,79.590,0
1514104750.005,20.508,40.527,39.062,3.906,73.730,0
1514104750.009,32.227,42.480,34.668,28.809,61.035,0
1514104750.013,18.555,20.508,24.902,34.668,48.828,0
1514104750.017,19.043,22.461,25.391,23.926,48.340,0
1514104750.021,-6.836,46.875,14.648,6.348,83.496,0
1514104750.025,9.277,48.340,20.508,8.301,63.965,0
1514104750.029,46.875,37.109,33.203,21.973,63.477,0
1514104750.032,27.832,29.297,33.203,7.812,61.035,0
1514104750.036,15.137,25.879,29.297,11.719,62.988,0
1514104750.040,15.625,31.738,32.227,8.301,75.195,0
1514104750.044,25.879,36.133,34.668,16.602,50.293,0
1514104750.048,28.320,35.645,26.855,27.832,33.203,0
1514104750.052,15.137,28.320,32.227,12.207,36.133,0
1514104750.056,3.418,33.203,27.832,0.000,44.922,0
1514104750.060,12.695,49.805,20.996,8.301,75.195,0
1514104750.064,10.254,37.598,26.855,-0.977,72.754,0
1514104750.068,9.277,28.809,32.715,-7.812,51.758,0
1514104750.071,24.414,36.133,32.227,10.254,34.668,0
1514104750.075,21.973,33.691,35.156,21.484,20.508,0
1514104750.079,7.324,24.414,28.809,10.254,11.719,0
1514104750.083,5.859,22.461,26.855,16.113,53.223,0
1514104750.087,2.930,31.250,34.180,6.348,51.270,0
1514104750.091,-6.348,33.691,33.203,3.906,20.508,0
1514104750.095,-0.488,41.992,30.273,29.297,56.641,0
1514104750.099,6.348,41.016,33.691,24.902,81.543,0
1514104750.103,10.742,37.598,38.574,21.484,60.059,0
1514104750.107,15.625,40.039,32.227,20.996,33.691,0
1514104750.111,23.438,29.297,34.668,15.137,43.457,0
1514104750.114,6.348,33.691,31.738,-2.930,43.945,0
1514104750.118,-8.301,32.227,26.367,-0.977,41.992,0
1514104750.122,2.441,27.344,28.809,26.367,62.012,0
1514104750.126,21.973,28.320,34.668,30.762,49.805,0
1514104750.130,29.297,28.320,42.480,23.926,58.105,0
1514104750.134,20.996,38.574,41.992,23.438,27.344,0
1514104750.138,30.762,41.504,40.039,18.066,0.488,0
1514104750.142,28.320,35.156,36.621,10.254,62.988,0
1514104750.146,21.973,29.297,31.738,17.578,64.453,0
1514104750.150,16.113,23.926,34.668,25.391,51.270,0
1514104750.154,18.066,21.484,35.645,17.578,56.152,0
1514104750.157,25.391,27.344,30.762,2.441,37.598,0
1514104750.161,27.344,31.738,36.621,17.578,40.039,0
1514104750.165,23.926,34.668,38.574,11.230,57.617,0
1514104750.169,15.625,39.551,38.086,4.395,60.547,0
1514104750.173,20.020,50.781,41.992,16.602,30.273,0
1514104750.177,4.883,37.109,34.668,11.719,19.531,0
1514104750.181,-10.742,16.602,25.879,10.742,46.387,0
1514104750.185,1.953,25.391,29.297,6.836,66.406,0
1514104750.189,1.953,32.715,31.738,9.766,69.336,0
1514104750.193,5.859,29.785,27.344,6.836,38.574,0
1514104750.196,2.441,22.461,21.973,-16.602,49.805,0
1514104750.200,1.465,16.602,22.949,-18.066,47.852,0
1514104750.204,-6.348,41.016,39.551,-17.578,24.414,0
1514104750.208,5.371,46.875,45.410,-5.371,17.090,0
1514104750.212,16.113,31.738,39.551,5.859,44.922,0
1514104750.216,7.324,24.414,35.156,2.441,67.383,0
1514104750.220,-6.836,20.996,24.902,-6.836,88.379,0
1514104750.224,-5.371,15.137,24.414,-5.859,93.750,0
1514104750.228,0.000,19.043,29.785,11.719,77.148,0
1514104750.232,9.277,23.926,40.039,24.414,62.012,0
1514104750.236,18.555,31.738,43.945,36.133,82.520,0
1514104750.239,8.789,43.457,34.180,18.555,78.613,0
1514104750.243,12.695,35.156,30.762,11.719,99.121,0
1514104750.247,19.531,28.809,36.621,16.113,74.219,0
1514104750.251,18.555,27.344,40.527,11.719,41.016,0
1514104750.255,28.320,28.809,32.227,20.508,39.551,0
1514104750.259,32.227,29.297,31.738,42.480,39.551,0
1514104750.263,32.715,20.996,40.039,55.664,63.965,0
1514104750.267,38.086,24.902,34.668,40.039,81.543,0
1514104750.271,47.363,36.133,38.574,38.086,95.703,0
1514104750.275,43.457,41.504,48.340,47.363,87.891,0
1514104750.279,38.086,44.434,38.086,41.016,33.691,0
1514104750.282,46.875,30.762,38.574,24.902,71.289,0
1514104750.286,36.133,20.508,35.156,16.602,108.398,0
1514104750.290,24.414,23.926,24.902,19.531,72.266,0
1514104750.294,39.062,27.832,32.227,26.367,63.965,0
1514104750.298,37.109,33.203,36.133,34.180,49.805,0
1514104750.302,31.250,35.156,40.527,33.203,57.617,0
1514104750.306,34.180,37.109,32.715,33.691,88.867,0
1514104750.310,24.902,35.645,31.250,28.809,49.316,0
1514104750.314,21.973,42.480,34.668,19.531,-9.277,0
1514104750.318,22.461,39.551,35.156,24.902,42.480,0
1514104750.321,11.719,28.809,32.227,17.578,92.285,0
1514104750.325,17.090,19.043,37.598,8.301,66.406,0
1514104750.329,14.160,16.113,33.691,9.766,33.691,0
1514104750.333,14.160,30.762,34.668,13.184,39.062,0
1514104750.337,6.348,41.504,38.086,15.137,64.941,0
1514104750.341,9.277,39.062,44.434,27.344,38.574,0
1514104750.345,22.461,37.109,48.340,46.875,39.551,0
1514104750.349,8.301,35.156,41.016,34.668,85.449,0
1514104750.353,1.465,32.227,32.227,19.531,83.984,0
1514104750.357,11.719,32.227,35.156,20.996,41.992,0
1514104750.361,24.414,33.203,38.574,27.832,31.250,0
1514104750.364,24.902,33.203,36.133,27.344,44.434,0
1514104750.368,19.531,34.180,30.762,20.996,43.457,0
1514104750.372,16.113,31.738,26.367,16.113,37.598,0
1514104750.376,11.230,32.715,29.297,-0.488,36.621,0
1514104750.380,22.949,33.691,29.785,4.883,57.129,0
1514104750.384,25.879,34.668,33.691,0.488,84.473,0
1514104750.388,26.367,40.039,40.039,-6.348,57.617,0
1514104750.392,29.785,38.086,34.668,22.461,37.598,0
1514104750.396,13.672,52.246,32.227,31.250,41.016,0
1514104750.400,20.508,44.434,35.645,22.461,62.988,0
1514104750.404,22.461,20.020,36.133,17.578,52.734,0
1514104750.407,11.230,26.855,34.180,13.672,44.434,0
1514104750.411,19.043,31.250,30.273,12.207,75.684,0
1514104750.415,11.719,27.832,31.250,0.977,61.523,0
1514104750.419,5.859,27.344,33.203,17.090,46.875,0
1514104750.423,24.902,40.039,36.621,36.621,56.641,0
1514104750.427,36.621,46.387,41.992,26.855,27.344,0
1514104750.431,32.227,39.551,46.387,30.273,-10.742,0
1514104750.435,30.273,32.227,43.945,36.133,16.113,0
1514104750.439,26.367,22.949,36.621,21.973,56.641,0
1514104750.443,22.949,22.461,36.133,12.695,27.832,0
1514104750.446,12.207,32.715,39.062,22.461,20.996,0
1514104750.450,6.348,37.598,39.062,21.484,67.871,0
1514104750.454,16.113,45.410,51.758,21.973,85.449,0
1514104750.458,18.555,41.504,57.617,30.273,65.430,0
1514104750.462,11.719,30.762,48.828,35.645,50.781,0
1514104750.466,22.949,24.414,47.852,34.180,87.891,0
1514104750.470,26.855,20.508,45.410,29.785,115.723,0
1514104750.474,10.742,14.648,38.574,23.438,61.523,0
1514104750.478,14.648,19.531,41.016,27.832,27.344,0
1514104750.482,24.902,37.109,51.758,35.156,47.852,0
1514104750.486,20.020,41.992,48.340,25.879,89.844,0
1514104750.489,13.184,32.715,43.945,24.902,62.988,0
1514104750.493,20.508,29.785,41.992,19.043,9.277,0
1514104750.497,34.180,26.855,35.645,15.625,47.363,0
1514104750.501,22.949,24.902,39.062,26.855,99.609,0
1514104750.505,15.625,29.297,40.527,35.645,72.266,0
1514104750.509,22.949,27.832,40.039,39.062,35.645,0
1514104750.513,24.902,24.902,38.574,45.410,41.992,0
1514104750.517,25.879,22.461,44.922,43.945,77.148,0
1514104750.521,31.738,28.809,51.758,52.734,74.707,0
1514104750.525,22.949,34.180,40.039,46.387,37.109,0
1514104750.529,19.531,31.738,43.457,51.270,45.410,0
1514104750.532,17.578,37.598,50.781,50.781,74.707,0
1514104750.536,18.066,34.668,49.316,45.898,62.012,0
1514104750.540,24.414,19.043,46.875,55.664,34.668,0
1514104750.544,25.879,24.902,47.852,46.387,61.035,0
1514104750.548,29.297,29.785,47.852,29.297,58.105,0
1514104750.552,17.578,32.227,43.945,27.344,58.594,0
1514104750.556,20.996,25.879,40.527,45.410,49.316,0
1514104750.560,32.715,21.484,42.969,41.016,39.551,0
1514104750.564,24.414,34.668,45.410,30.762,47.363,0
