timestamps,TP9,AF7,AF8,TP10,Right AUX,Marker0
1486894961.093,11.230,1.465,19.531,16.602,9.766,0
1486894961.097,28.320,0.977,27.832,24.414,21.973,0
1486894961.101,42.480,16.602,9.766,37.109,46.875,0
1486894961.104,37.109,27.344,9.766,29.297,41.992,0
1486894961.108,36.621,17.090,17.578,13.184,8.789,0
1486894961.112,51.270,21.973,26.367,20.996,1.465,0
1486894961.116,65.430,38.086,41.504,35.156,0.488,0
1486894961.120,71.289,46.387,53.223,41.504,-9.766,0
1486894961.124,73.242,42.480,60.059,41.992,6.348,0
1486894961.128,66.895,36.133,45.410,31.250,12.695,0
1486894961.132,58.594,35.156,37.109,23.438,10.742,0
1486894961.136,60.547,42.480,40.527,30.273,20.020,0
1486894961.140,63.965,46.387,39.062,35.156,35.645,0
1486894961.144,57.129,36.133,30.273,24.414,8.789,0
1486894961.147,51.758,28.320,24.414,19.531,-6.836,0
1486894961.151,51.270,32.227,21.484,28.320,18.555,0
1486894961.155,50.293,29.785,9.766,31.738,16.602,0
1486894961.159,49.316,26.367,5.859,28.809,13.672,0
1486894961.163,46.387,19.531,6.836,14.648,11.230,0
1486894961.167,48.828,20.996,23.438,18.066,-0.977,0
1486894961.171,56.641,37.109,46.387,35.645,0.000,0
1486894961.175,51.270,33.203,34.180,29.785,-4.395,0
1486894961.179,33.203,17.578,4.883,13.184,35.645,0
1486894961.183,30.762,24.414,-0.488,9.766,41.992,0
1486894961.187,26.367,35.645,6.348,9.766,19.531,0
1486894961.190,10.742,21.484,9.277,1.953,17.090,0
1486894961.194,11.230,13.184,18.066,-4.883,21.973,0
1486894961.198,23.438,31.738,26.855,0.977,42.480,0
1486894961.202,26.855,39.551,30.762,5.859,81.543,0
1486894961.206,28.809,34.180,32.715,9.766,65.430,0
1486894961.210,35.156,33.203,43.457,21.484,11.719,0
1486894961.214,35.645,30.273,48.828,20.508,-7.812,0
1486894961.218,31.738,30.273,36.133,13.672,30.762,0
1486894961.222,35.156,34.180,23.926,21.973,23.438,0
1486894961.226,40.039,36.133,26.367,29.785,31.250,0
1486894961.229,38.574,28.809,30.273,24.902,83.984,0
1486894961.233,37.598,30.273,32.715,24.414,44.922,0
1486894961.237,35.156,28.809,14.160,20.020,21.973,0
1486894961.241,33.203,21.973,8.301,18.066,58.105,0
1486894961.245,37.598,22.949,37.598,23.926,55.176,0
1486894961.249,34.180,22.949,41.504,16.113,19.531,0
1486894961.253,24.902,26.367,36.621,15.625,27.832,0
1486894961.257,27.344,13.184,50.293,17.578,9.277,0
1486894961.261,28.809,2.930,47.852,13.184,18.066,0
1486894961.265,35.645,13.672,38.086,21.973,22.949,0
1486894961.269,47.852,22.461,41.504,30.762,16.113,0
1486894961.272,47.363,26.367,45.410,33.203,54.688,0
1486894961.276,46.387,31.738,39.062,34.668,49.805,0
1486894961.280,58.105,34.180,34.180,46.875,41.504,0
1486894961.284,65.430,26.367,40.527,52.734,80.566,0
1486894961.288,46.875,21.484,31.250,35.156,60.547,0
1486894961.292,34.668,21.973,7.324,22.949,23.926,0
1486894961.296,35.156,12.695,8.789,21.484,20.508,0
1486894961.300,41.992,1.465,18.555,30.762,40.039,0
1486894961.304,49.316,16.113,30.273,37.109,52.246,0
1486894961.308,42.480,9.277,44.922,34.180,36.133,0
1486894961.312,45.898,16.602,46.387,38.574,21.973,0
1486894961.315,53.223,38.574,43.457,37.598,32.227,0
1486894961.319,51.758,29.785,48.828,32.715,47.852,0
1486894961.323,51.270,36.133,60.059,32.715,14.160,0
1486894961.327,60.059,40.039,65.918,38.086,-4.883,0
1486894961.331,67.871,33.691,63.965,44.922,31.250,0
1486894961.335,67.383,35.156,48.340,56.641,58.105,0
1486894961.339,66.895,32.227,30.273,62.500,25.879,0
1486894961.343,66.406,26.367,19.531,49.316,31.738,0
1486894961.347,63.965,26.367,22.949,38.086,37.598,0
1486894961.351,76.172,33.691,26.367,45.410,35.645,0
1486894961.354,86.426,47.363,12.207,62.012,49.805,0
1486894961.358,84.473,44.922,14.648,64.453,33.203,0
1486894961.362,78.125,19.043,35.645,48.340,36.133,0
1486894961.366,68.359,13.184,39.062,38.086,41.016,0
1486894961.370,62.988,20.996,24.414,40.527,81.055,0
1486894961.374,61.523,14.648,21.973,41.504,76.172,0
1486894961.378,58.594,2.930,25.391,41.992,33.203,0
1486894961.382,63.477,4.395,29.785,48.340,51.758,0
1486894961.386,58.105,13.672,25.879,48.828,42.969,0
1486894961.390,55.664,24.414,18.555,48.340,28.809,0
1486894961.394,61.523,23.926,14.648,45.898,30.762,0
1486894961.397,50.293,8.301,11.719,35.645,28.809,0
1486894961.401,38.574,3.418,15.625,31.738,-6.836,0
1486894961.405,45.898,7.324,13.672,31.738,12.207,0
1486894961.409,61.035,12.695,10.742,40.039,66.406,0
1486894961.413,63.477,16.602,11.719,44.922,19.043,0
1486894961.417,69.824,11.719,16.113,44.922,24.902,0
1486894961.421,65.430,-4.395,30.273,48.340,59.082,0
1486894961.425,42.969,8.301,35.645,55.664,24.414,0
1486894961.429,29.297,21.484,25.879,64.453,38.086,0
1486894961.433,26.855,16.602,23.438,69.336,39.062,0
1486894961.437,27.344,18.555,20.996,70.312,13.184,0
1486894961.440,22.949,11.230,12.207,68.848,12.207,0
1486894961.444,23.438,-0.977,14.160,68.359,-2.930,0
1486894961.448,34.180,-8.789,28.320,71.289,-39.551,0
1486894961.452,48.828,4.883,36.621,81.055,-28.809,0
1486894961.456,61.523,24.414,30.762,88.379,44.434,0
1486894961.460,65.430,19.531,36.133,83.496,27.344,0
1486894961.464,65.918,15.137,39.062,76.660,-25.879,0
1486894961.468,62.500,12.207,29.297,82.031,19.531,0
1486894961.472,58.594,5.371,28.320,87.891,64.453,0
1486894961.476,70.312,16.113,31.250,90.332,24.414,0
1486894961.479,70.312,17.090,24.414,79.590,33.203,0
1486894961.483,57.129,6.836,13.672,73.730,54.199,0
1486894961.487,59.570,10.742,15.137,81.543,22.461,0
1486894961.491,54.199,3.418,7.324,67.871,-11.719,0
1486894961.495,48.340,1.953,-1.465,59.082,15.625,0
1486894961.499,49.316,7.812,3.418,57.617,49.805,0
1486894961.503,48.828,4.883,17.090,56.152,45.898,0
1486894961.507,41.016,6.348,6.836,58.594,36.621,0
1486894961.511,33.203,-3.418,-11.230,45.410,0.000,0
1486894961.515,33.203,-18.066,4.883,37.109,27.832,0
1486894961.519,40.039,-2.441,8.301,40.527,66.406,0
1486894961.522,45.898,17.090,9.277,42.969,86.426,0
1486894961.526,50.293,10.742,22.461,46.387,75.195,0
1486894961.530,62.988,13.184,38.574,56.641,28.320,0
1486894961.534,65.918,18.066,40.527,63.477,33.203,0
1486894961.538,61.035,19.043,28.320,61.035,54.688,0
1486894961.542,57.617,20.996,34.180,54.688,41.504,0
1486894961.546,58.105,24.902,28.320,52.246,13.672,0
1486894961.550,64.941,28.809,27.832,60.059,-1.953,0
1486894961.554,70.312,35.645,41.016,69.824,3.418,0
1486894961.558,76.172,32.715,41.504,73.242,34.668,0
1486894961.562,81.055,34.668,58.105,75.195,45.898,0
1486894961.565,83.496,37.598,59.570,67.871,48.340,0
1486894961.569,86.914,35.156,39.551,62.988,60.547,0
1486894961.573,90.332,45.410,46.387,69.824,59.082,0
1486894961.577,95.215,54.688,65.918,70.801,15.137,0
1486894961.581,102.051,42.480,67.871,70.801,-17.578,0
1486894961.585,102.051,40.527,46.875,70.801,-14.160,0
1486894961.589,104.492,58.105,36.133,73.242,22.461,0
1486894961.593,109.863,52.246,43.457,72.754,37.598,0
1486894961.597,109.863,47.852,50.293,72.266,-20.508,0
1486894961.601,102.539,46.387,35.645,61.035,-26.855,0
1486894961.604,94.238,39.062,28.809,59.570,41.016,0
1486894961.608,97.656,44.922,52.734,71.289,41.016,0
1486894961.612,99.121,43.457,51.270,71.777,10.742,0
1486894961.616,93.750,38.086,34.180,62.500,23.438,1
1486894961.620,88.867,33.691,40.039,65.430,66.406,0
1486894961.624,85.938,26.367,46.387,72.754,28.809,0
1486894961.628,80.078,25.391,44.922,64.941,-22.461,0
1486894961.632,77.637,35.156,41.504,59.570,18.066,0
1486894961.636,76.660,35.645,29.785,60.059,27.832,0
1486894961.640,70.801,19.531,33.691,60.547,21.484,0
1486894961.644,67.871,6.836,51.270,54.199,33.203,0
1486894961.647,70.801,9.766,51.270,51.270,24.414,0
1486894961.651,80.078,20.996,34.668,67.383,-0.488,0
1486894961.655,85.449,22.461,40.039,83.984,3.418,0
1486894961.659,85.938,12.207,57.129,84.473,15.137,0
1486894961.663,82.031,8.301,42.969,75.195,33.203,0
1486894961.667,79.590,16.602,47.852,78.613,41.504,0
1486894961.671,81.543,30.762,64.941,85.938,17.578,0
1486894961.675,86.426,35.645,78.125,87.402,25.879,0
1486894961.679,73.242,23.438,71.289,74.707,22.949,0
1486894961.683,62.500,8.301,31.250,62.500,27.344,0
1486894961.687,64.453,3.906,11.230,58.105,56.641,0
1486894961.690,70.801,17.090,22.461,57.129,29.297,0
1486894961.694,73.242,25.391,39.551,55.664,0.000,0
1486894961.698,70.801,29.297,60.547,53.711,-3.418,0
1486894961.702,76.660,35.645,63.965,59.082,9.277,0
1486894961.706,81.543,32.715,35.645,64.453,45.898,0
1486894961.710,73.242,20.020,15.625,53.223,50.293,0
1486894961.714,60.547,17.578,34.180,43.457,30.762,0
1486894961.718,60.547,20.996,66.895,54.688,15.137,0
1486894961.722,59.082,16.113,64.453,57.617,36.621,0
1486894961.726,50.781,19.043,50.293,44.922,41.992,0
1486894961.729,47.363,13.184,45.898,35.645,20.020,0
1486894961.733,47.363,10.742,46.387,37.598,24.414,0
1486894961.737,48.828,28.320,46.387,44.434,27.344,0
1486894961.741,46.387,27.832,43.945,46.875,19.531,0
1486894961.745,48.828,14.160,35.156,51.270,21.484,0
1486894961.749,45.898,8.301,34.668,43.457,8.789,0
1486894961.753,38.086,15.137,49.316,40.039,48.828,0
1486894961.757,38.574,20.996,40.039,40.039,56.641,0
1486894961.761,31.738,14.160,13.184,25.391,22.461,0
1486894961.765,32.715,12.207,28.320,23.438,57.129,0
1486894961.769,35.645,8.301,43.457,29.785,62.500,0
1486894961.772,24.414,2.930,27.344,25.879,44.434,0
1486894961.776,25.391,7.324,26.367,28.809,11.719,0
1486894961.780,24.414,1.465,14.160,18.555,-15.137,0
1486894961.784,15.137,-2.441,7.324,11.230,33.203,0
1486894961.788,12.695,0.977,12.695,16.113,80.078,0
1486894961.792,16.602,-14.160,6.348,13.672,67.871,0
1486894961.796,19.043,-14.648,1.465,10.254,39.551,0
1486894961.800,19.531,4.883,2.930,9.277,22.949,0
1486894961.804,26.367,11.719,6.348,19.043,60.059,0
1486894961.808,26.367,5.859,10.254,18.066,41.504,0
1486894961.812,21.973,-4.883,1.465,10.742,-21.973,0
1486894961.815,30.273,-6.836,-9.277,18.555,6.348,0
1486894961.819,42.480,2.441,15.137,30.762,53.711,0
1486894961.823,45.898,10.254,39.062,30.273,37.109,0
1486894961.827,41.504,7.812,39.062,21.484,9.766,0
1486894961.831,42.480,-3.906,30.273,23.438,20.996,0
1486894961.835,46.387,7.812,22.461,34.668,35.156,0
1486894961.839,46.875,33.203,28.320,37.109,12.695,0
1486894961.843,42.969,40.527,28.809,32.227,6.348,0
1486894961.847,42.969,28.320,20.508,31.738,20.020,0
1486894961.851,47.852,18.555,26.855,37.109,8.789,0
1486894961.854,40.039,17.090,25.391,28.320,16.602,0
1486894961.858,29.297,3.418,25.879,18.066,34.668,0
1486894961.862,28.320,3.418,22.461,14.648,15.137,0
1486894961.866,34.180,15.625,13.184,18.555,0.488,0
1486894961.870,31.738,17.090,19.043,22.461,42.969,0
1486894961.874,34.668,23.926,27.832,26.855,56.152,0
1486894961.878,40.039,21.973,18.066,28.809,-10.742,0
1486894961.882,39.551,13.184,5.371,24.414,1.953,0
1486894961.886,40.527,17.578,26.855,25.879,26.855,0
1486894961.890,28.320,19.043,51.270,21.484,20.508,0
1486894961.894,13.672,14.648,41.992,15.625,18.555,0
1486894961.897,8.789,8.789,33.691,11.719,0.488,0
1486894961.901,14.648,6.836,33.203,19.043,20.996,0
1486894961.905,17.578,12.207,31.738,25.391,61.523,0
1486894961.909,20.508,5.371,39.551,27.344,34.180,0
1486894961.913,30.273,-2.441,38.574,29.297,-14.648,0
1486894961.917,35.645,9.277,24.902,34.668,10.742,0
1486894961.921,26.367,8.301,20.020,36.621,43.457,0
1486894961.925,15.137,-13.184,21.973,28.320,45.410,0
1486894961.929,23.926,-3.418,27.344,33.203,62.988,0
1486894961.933,26.855,9.766,33.691,34.180,45.898,0
1486894961.937,20.996,0.000,33.691,26.367,29.785,0
1486894961.940,20.020,5.859,42.969,25.391,63.477,0
1486894961.944,28.809,25.879,43.457,31.738,41.504,0
1486894961.948,27.832,19.531,13.672,28.320,52.734,0
1486894961.952,9.277,5.371,14.160,13.184,77.148,0
1486894961.956,17.090,11.719,33.203,20.508,39.551,0
1486894961.960,32.227,20.996,38.086,26.367,44.434,0
1486894961.964,32.227,15.137,37.109,20.996,38.574,0
1486894961.968,38.574,12.207,25.879,29.297,25.391,0
1486894961.972,33.203,8.789,26.855,20.508,30.273,0
1486894961.976,31.250,9.766,37.598,10.742,14.648,0
1486894961.979,37.598,14.160,50.781,16.113,32.227,0
1486894961.983,40.039,15.137,55.176,22.949,13.672,0
1486894961.987,32.715,24.902,7.324,25.391,27.344,0
1486894961.991,20.020,6.348,-4.395,12.207,65.918,0
1486894961.995,26.855,6.348,38.574,15.625,51.270,0
1486894961.999,35.156,31.738,44.922,25.391,26.367,0
1486894962.003,36.621,39.062,38.574,22.949,23.926,0
1486894962.007,34.180,31.250,24.414,18.555,45.410,0
1486894962.011,29.297,20.020,8.789,11.719,31.250,0
1486894962.015,35.645,24.414,29.785,15.625,26.367,0
1486894962.019,36.621,17.090,42.480,20.508,42.480,0
1486894962.022,43.945,22.949,34.180,27.832,48.828,0
1486894962.026,50.293,32.715,31.250,33.203,63.477,0
1486894962.030,46.387,29.297,20.020,20.996,38.086,0
1486894962.034,50.293,34.180,18.066,8.789,18.555,0
1486894962.038,46.387,28.809,18.555,-0.488,19.043,0
1486894962.042,37.109,23.438,1.953,-4.395,14.648,0
1486894962.046,29.785,14.160,5.371,-10.742,41.016,0
1486894962.050,20.996,7.812,20.996,-9.277,13.184,0
1486894962.054,9.277,11.230,23.926,0.000,24.902,0
1486894962.058,3.418,8.301,22.949,11.230,24.902,0
1486894962.062,12.695,23.438,16.602,20.996,-6.836,0
1486894962.065,18.066,29.785,14.160,24.902,-10.254,0
1486894962.069,21.484,22.949,29.297,28.320,22.461,0
1486894962.073,24.902,26.855,39.551,29.785,15.625,0
1486894962.077,27.832,16.113,33.691,33.203,-2.441,0
1486894962.081,39.062,10.742,40.527,37.598,29.297,0
1486894962.085,40.527,16.602,28.320,39.062,56.152,0
1486894962.089,31.250,15.625,8.301,36.133,30.762,0
1486894962.093,26.855,15.137,21.973,26.367,34.180,0
1486894962.097,39.551,21.973,50.293,32.715,47.363,0
1486894962.101,46.875,21.973,62.012,41.992,34.180,0
1486894962.104,33.203,15.137,48.340,41.016,44.434,0
1486894962.108,36.133,18.555,41.504,42.969,58.594,0
1486894962.112,39.551,8.789,33.203,30.762,12.695,0
1486894962.116,40.527,7.812,31.738,26.855,27.832,0
1486894962.120,44.434,24.902,40.039,30.762,74.219,0
1486894962.124,39.551,35.156,24.414,26.367,61.523,0
1486894962.128,41.016,28.809,22.461,25.879,60.059,0
1486894962.132,52.734,16.113,36.133,34.668,35.156,0
1486894962.136,61.035,26.367,28.809,42.969,7.324,0
1486894962.140,54.688,21.484,29.785,41.016,22.461,0
1486894962.144,48.828,15.137,44.434,38.086,24.414,0
1486894962.147,52.246,24.902,41.016,36.133,12.207,0
1486894962.151,52.734,23.926,11.719,33.203,42.969,0
1486894962.155,44.434,10.742,10.254,25.391,36.133,0
1486894962.159,39.062,10.254,43.945,20.020,13.184,0
1486894962.163,34.668,14.648,40.039,16.602,-0.488,0
1486894962.167,13.184,-2.441,6.836,-0.488,50.781,0
1486894962.171,5.859,-9.277,-10.742,-0.488,63.477,0
1486894962.175,13.184,-12.695,4.883,11.719,35.156,0
1486894962.179,14.648,-10.742,29.297,12.207,8.789,0
1486894962.183,7.812,-16.602,22.461,6.836,8.789,0
1486894962.187,4.395,-22.461,20.996,8.301,23.438,0
1486894962.190,10.742,-7.812,22.461,15.137,38.086,0
1486894962.194,9.277,-1.953,11.230,16.602,45.410,0
1486894962.198,18.066,2.441,10.742,25.879,34.180,0
1486894962.202,20.996,8.301,20.020,32.715,26.855,0
1486894962.206,21.973,5.859,26.367,31.250,30.273,0
1486894962.210,38.086,12.207,11.719,40.527,19.043,0
1486894962.214,51.758,32.715,-5.859,57.617,-38.086,0
1486894962.218,53.223,30.762,-3.418,49.316,-16.602,0
1486894962.222,45.410,14.160,17.090,36.133,1.953,0
1486894962.226,39.062,7.324,15.625,38.574,11.230,0
1486894962.229,41.016,15.137,9.277,42.480,35.645,0
1486894962.233,41.504,10.742,23.438,40.039,28.320,0
1486894962.237,40.039,16.602,26.855,38.574,25.391,0
1486894962.241,53.223,37.598,24.902,49.316,16.602,0
1486894962.245,59.570,32.715,24.414,51.270,25.879,0
1486894962.249,52.246,29.297,32.227,35.645,17.578,0
1486894962.253,50.293,30.273,37.598,30.762,17.578,0
1486894962.257,44.922,19.531,16.113,28.320,38.086,0
1486894962.261,43.945,15.137,2.930,15.137,1.465,0
1486894962.265,48.340,8.789,3.418,16.602,-23.926,0
1486894962.269,45.898,0.488,10.742,21.484,16.602,0
1486894962.272,48.340,14.160,26.367,25.879,21.973,0
1486894962.276,54.688,20.508,20.996,33.203,5.371,0
1486894962.280,60.059,24.902,9.766,39.062,32.715,0
1486894962.284,60.547,25.391,14.648,37.598,20.996,0
1486894962.288,51.270,17.090,24.902,27.832,-9.277,0
1486894962.292,50.293,14.648,30.762,19.531,59.570,0
1486894962.296,55.664,8.301,27.344,14.648,79.590,0
1486894962.300,60.059,2.441,15.625,21.484,64.453,0
1486894962.304,63.965,12.695,20.020,30.762,80.566,0
1486894962.308,57.617,22.949,24.902,27.832,41.504,0
1486894962.312,45.898,15.137,6.836,14.648,0.000,0
1486894962.315,41.992,13.672,2.930,11.230,21.973,0
1486894962.319,44.434,26.855,14.160,18.555,16.113,0
1486894962.323,59.570,44.922,44.922,28.320,-13.672,0
1486894962.327,76.172,56.152,59.570,46.875,-12.695,0
1486894962.331,78.613,43.945,38.574,49.316,-11.719,0
1486894962.335,76.660,36.133,34.180,40.527,8.789,0
1486894962.339,70.801,35.156,30.762,38.086,41.016,0
1486894962.343,60.059,24.414,14.648,36.133,14.160,0
1486894962.347,58.105,14.648,25.879,32.715,3.906,0
1486894962.351,64.453,20.508,46.875,31.738,25.879,0
1486894962.354,68.359,29.297,46.387,34.668,59.570,0
1486894962.358,68.848,23.926,41.504,40.527,44.434,0
1486894962.362,63.477,16.602,38.086,40.527,15.137,0
1486894962.366,62.500,24.414,48.828,36.621,13.672,0
1486894962.370,65.430,31.250,67.383,39.062,3.906,0
1486894962.374,51.758,32.227,58.594,34.180,13.184,0
1486894962.378,34.668,23.926,29.297,24.414,-18.066,0
1486894962.382,34.668,17.578,6.836,25.391,17.578,0
1486894962.386,41.504,24.902,16.602,27.832,54.199,0
1486894962.390,37.109,19.531,44.434,32.227,7.324,0
1486894962.394,32.227,18.066,46.387,36.133,2.930,0
1486894962.397,37.598,22.949,40.527,36.133,33.203,0
1486894962.401,41.992,27.832,40.527,35.645,58.105,0
1486894962.405,28.320,24.902,36.621,31.738,81.543,0
1486894962.409,16.602,19.043,37.598,23.438,51.758,0
1486894962.413,28.320,20.508,47.852,22.461,20.996,0
1486894962.417,38.574,17.578,43.945,25.879,15.625,0
1486894962.421,30.273,7.324,36.133,28.320,16.602,0
1486894962.425,21.973,4.395,35.156,30.762,22.949,0
1486894962.429,34.668,13.672,33.203,36.133,49.805,0
1486894962.433,39.062,20.508,30.273,40.039,15.137,0
1486894962.437,39.551,14.648,26.855,37.109,-3.906,0
1486894962.440,51.270,5.859,31.738,47.363,23.926,0
1486894962.444,61.035,12.207,30.273,56.641,1.465,0
1486894962.448,53.711,8.301,21.973,53.223,-15.625,0
1486894962.452,42.969,-7.324,36.133,50.293,35.645,0
1486894962.456,40.039,-7.324,54.199,45.410,31.738,0
1486894962.460,48.828,10.254,63.477,58.105,18.555,0
1486894962.464,53.223,9.277,68.359,65.918,21.484,0
1486894962.468,42.969,1.953,64.941,58.105,9.766,0
1486894962.472,45.410,8.301,57.129,62.500,14.648,0
1486894962.476,45.898,13.184,56.152,57.129,9.766,0
1486894962.479,37.598,4.883,50.293,47.852,22.461,0
1486894962.483,28.809,-16.602,13.672,35.645,40.527,0
1486894962.487,19.531,-21.484,-1.465,24.902,69.824,0
1486894962.491,26.367,-10.742,20.508,29.297,106.445,0
1486894962.495,25.391,-2.930,33.203,28.320,44.922,0
1486894962.499,16.602,-11.719,32.227,27.832,10.742,0
1486894962.503,16.113,-24.414,19.043,27.344,73.730,0
1486894962.507,17.578,-21.973,3.418,31.250,52.734,0
1486894962.511,24.414,-11.230,6.348,36.133,0.977,0
1486894962.515,31.250,4.395,32.227,31.250,7.324,0
1486894962.519,25.391,7.812,41.016,27.832,49.805,0
1486894962.522,23.438,5.371,23.926,28.320,52.246,0
1486894962.526,23.926,-3.418,34.668,26.367,20.020,0
1486894962.530,17.578,-12.207,37.109,18.066,17.090,0
1486894962.534,21.484,1.465,12.207,22.461,48.828,0
1486894962.538,26.367,9.766,9.277,28.320,54.688,0
1486894962.542,21.973,4.883,9.766,22.949,-5.371,0
1486894962.546,23.926,7.324,25.391,27.832,-26.855,0
1486894962.550,15.137,6.836,34.668,20.508,-4.395,0
1486894962.554,8.789,9.277,12.207,10.254,-3.906,0
1486894962.558,5.371,13.672,-2.930,5.859,15.625,0
1486894962.562,0.977,6.348,4.395,-0.488,49.805,0
1486894962.565,7.324,0.488,30.762,10.742,60.547,0
1486894962.569,16.113,10.254,42.480,18.555,25.391,0
1486894962.573,19.043,20.020,9.766,10.742,9.766,0
1486894962.577,20.996,17.578,-0.488,8.789,39.551,0
1486894962.581,25.391,13.184,27.344,9.766,58.594,0
1486894962.585,22.461,11.719,32.715,9.766,52.246,0
1486894962.589,22.461,12.695,24.414,16.602,45.898,0
1486894962.593,28.320,18.066,27.344,16.602,33.691,0
1486894962.597,31.738,24.902,30.762,11.719,14.160,0
1486894962.601,33.691,20.508,22.949,18.066,45.410,0
1486894962.604,35.156,16.602,18.066,28.809,22.461,0
1486894962.608,39.551,18.555,30.762,25.879,1.465,0
1486894962.612,39.551,13.184,41.992,20.508,-14.648,0
1486894962.616,37.598,7.812,38.086,21.973,-25.879,0
1486894962.620,41.992,10.742,35.156,27.344,-2.930,0
1486894962.624,49.805,14.160,17.090,25.879,55.664,0
1486894962.628,57.617,25.879,-0.977,29.297,43.945,0
1486894962.632,56.641,36.133,20.996,34.180,-10.742,0
1486894962.636,56.152,40.527,56.152,33.203,21.484,0
1486894962.640,59.570,44.434,54.199,34.668,70.312,0
1486894962.644,51.270,41.504,27.344,23.926,59.570,0
1486894962.647,42.969,36.133,17.578,18.066,40.039,0
1486894962.651,37.598,31.250,24.414,16.602,55.664,0
1486894962.655,37.109,35.645,42.480,12.207,75.195,0
1486894962.659,39.062,39.551,59.570,18.066,51.270,0
1486894962.663,41.992,41.016,30.273,19.043,-1.465,0
1486894962.667,51.270,37.598,6.836,17.090,36.133,0
1486894962.671,46.875,29.785,32.227,20.020,69.824,0
1486894962.675,28.809,24.414,35.156,14.160,13.672,0
1486894962.679,19.531,19.043,20.020,0.488,-39.062,0
1486894962.683,17.578,20.996,16.602,-5.859,7.812,0
1486894962.687,26.367,13.184,13.184,-4.395,47.363,0
1486894962.690,41.016,24.414,18.066,17.090,-3.906,0
1486894962.694,34.180,37.109,21.484,23.926,-11.230,0
1486894962.698,15.137,14.160,15.625,10.254,18.555,0
1486894962.702,6.348,6.348,10.254,2.930,53.711,0
1486894962.706,15.625,12.207,8.301,11.230,43.945,0
1486894962.710,31.738,20.508,-5.371,21.973,-5.859,0
1486894962.714,25.391,6.836,-11.719,3.418,-12.695,0
1486894962.718,19.531,-4.883,4.883,-10.254,26.367,0
1486894962.722,30.762,1.465,11.230,-3.418,36.621,0
1486894962.726,30.273,-5.859,11.230,-2.930,32.715,0
1486894962.729,17.578,-11.719,30.273,0.977,35.645,0
1486894962.733,13.672,-12.207,35.156,19.043,20.508,0
1486894962.737,18.555,3.418,40.039,43.457,10.742,0
1486894962.741,16.602,20.996,51.758,55.176,19.043,0
1486894962.745,23.438,22.949,37.109,58.105,17.578,0
1486894962.749,24.414,21.484,8.789,56.152,27.344,0
1486894962.753,11.719,15.625,1.953,51.758,21.484,0
1486894962.757,15.137,20.996,34.180,58.105,-3.418,0
1486894962.761,29.297,33.203,67.383,64.453,3.418,0
1486894962.765,41.016,35.645,85.938,67.871,1.465,0
1486894962.769,39.062,27.832,71.289,63.965,-14.648,0
1486894962.772,27.344,18.066,33.203,49.805,1.465,0
1486894962.776,26.367,17.090,30.762,44.922,65.430,0
1486894962.780,35.645,4.395,41.992,43.457,49.805,0
1486894962.784,41.016,8.789,45.898,44.922,14.648,0
1486894962.788,42.480,26.367,39.551,52.246,57.129,0
1486894962.792,40.527,26.367,30.273,50.293,16.602,0
1486894962.796,36.133,29.297,26.855,38.086,-8.301,0
1486894962.800,25.391,31.250,28.809,23.438,-6.348,0
1486894962.804,13.672,27.344,40.527,15.625,12.207,0
1486894962.808,20.020,22.461,39.551,19.531,55.664,0
1486894962.812,23.926,13.672,20.020,15.137,44.922,0
1486894962.815,17.090,11.230,15.137,10.742,60.547,0
1486894962.819,15.625,20.020,23.926,11.719,57.129,0
1486894962.823,14.648,23.926,15.137,2.441,14.648,0
1486894962.827,22.949,17.090,19.531,11.230,-2.930,0
1486894962.831,30.273,14.160,33.691,11.230,36.133,0
1486894962.835,30.273,6.836,19.531,7.812,53.711,0
1486894962.839,40.039,4.883,20.996,21.484,8.301,0
1486894962.843,42.969,21.973,38.086,23.926,-29.297,0
1486894962.847,38.574,21.973,33.203,9.766,-25.391,0
1486894962.851,35.156,17.090,27.832,3.418,0.488,0
1486894962.854,37.109,20.996,24.414,13.184,35.645,0
1486894962.858,41.992,26.855,31.738,25.391,19.531,0
1486894962.862,48.828,25.879,35.156,29.785,-18.555,0
1486894962.866,51.758,24.414,19.531,24.902,20.996,0
1486894962.870,49.316,31.250,31.738,28.809,45.410,0
1486894962.874,53.711,31.738,56.641,41.504,41.992,0
1486894962.878,52.734,23.438,52.246,36.133,52.734,0
1486894962.882,55.176,27.832,41.992,39.551,31.738,0
1486894962.886,57.617,31.738,35.156,47.363,15.625,0
1486894962.890,50.781,23.438,28.320,43.457,1.953,2
1486894962.894,39.062,9.277,11.719,29.785,-7.812,0
1486894962.897,21.973,-12.207,-17.090,7.324,31.738,0
1486894962.901,19.531,-13.184,-4.883,3.906,42.480,0
1486894962.905,30.762,13.672,39.062,10.742,38.086,0
1486894962.909,25.391,20.508,41.992,9.766,22.461,0
1486894962.913,19.043,1.953,22.461,7.812,-17.578,0
1486894962.917,21.973,-14.648,6.348,8.789,10.254,0
1486894962.921,23.926,-5.371,0.488,9.277,25.391,0
1486894962.925,20.996,1.953,15.625,7.812,3.906,0
1486894962.929,23.438,1.953,19.043,16.113,14.648,0
1486894962.933,35.645,7.324,11.230,26.855,8.789,0
1486894962.937,46.875,8.789,20.020,29.785,-20.020,0
1486894962.940,49.805,23.438,35.156,34.668,34.180,0
1486894962.944,44.434,18.555,35.645,34.180,30.273,0
1486894962.948,38.574,9.766,30.762,25.391,-38.574,0
1486894962.952,32.715,11.230,47.363,22.949,-19.531,0
1486894962.956,33.691,8.301,58.105,21.973,49.805,0
1486894962.960,34.180,-0.977,35.156,16.602,57.129,0
1486894962.964,37.109,-3.906,10.742,18.555,15.625,0
1486894962.968,45.898,10.742,14.648,26.367,39.062,0
1486894962.972,54.199,29.297,23.438,34.180,53.711,0
1486894962.976,61.523,36.621,23.926,45.898,28.320,0
1486894962.979,65.430,28.809,37.598,47.363,-4.395,0
1486894962.983,66.406,30.273,43.945,41.992,21.484,0
1486894962.987,65.918,37.598,40.527,47.363,18.066,0
1486894962.991,51.758,30.762,33.203,40.527,18.555,0
1486894962.995,41.992,16.113,37.109,34.668,35.156,0
1486894962.999,42.480,14.160,50.781,37.598,42.969,0
1486894963.003,32.227,13.184,35.645,29.297,46.875,0
1486894963.007,20.508,3.906,12.695,22.949,47.363,0
1486894963.011,18.555,-8.301,24.414,24.902,37.598,0
1486894963.015,28.809,-8.301,32.227,23.438,44.922,0
1486894963.019,26.855,-12.695,20.996,22.461,53.223,0
1486894963.022,17.578,-5.859,25.879,22.461,12.207,0
1486894963.026,22.949,6.836,26.855,32.715,15.137,0
1486894963.030,37.109,9.277,30.273,52.246,10.742,0
1486894963.034,44.922,17.090,48.340,56.152,29.297,0
1486894963.038,42.969,24.902,39.551,51.758,78.125,0
1486894963.042,41.016,17.578,32.227,52.246,53.223,0
1486894963.046,41.504,19.531,34.668,49.805,15.625,0
1486894963.050,35.645,27.832,23.438,46.875,20.508,0
1486894963.054,31.250,12.695,12.207,46.387,57.617,0
1486894963.058,35.156,2.930,24.902,48.828,53.711,0
1486894963.062,36.133,12.207,47.363,52.246,49.805,0
1486894963.065,44.922,17.090,54.688,57.617,63.965,0
1486894963.069,61.523,30.762,64.453,70.312,44.922,0
1486894963.073,61.523,43.945,63.965,73.242,31.738,0
1486894963.077,59.082,31.250,57.617,62.500,10.254,0
1486894963.081,62.500,31.250,46.875,55.664,-2.930,0
1486894963.085,55.664,35.156,35.156,46.875,6.348,0
1486894963.089,57.617,40.527,39.062,50.781,28.809,0
1486894963.093,60.059,44.434,27.344,52.734,38.574,0
1486894963.097,54.688,34.668,19.043,40.527,0.000,0
1486894963.101,44.434,22.949,26.855,23.926,10.254,0
1486894963.104,38.086,13.184,26.855,14.160,40.039,0
1486894963.108,43.945,13.672,35.156,16.602,11.719,0
1486894963.112,50.781,17.578,42.480,22.949,4.395,0
1486894963.116,48.828,17.090,33.691,23.926,-2.930,0
1486894963.120,42.480,21.484,33.691,11.230,-8.789,0
1486894963.124,37.109,15.625,42.969,9.766,7.812,0
1486894963.128,40.039,24.414,41.992,20.508,20.508,0
1486894963.132,44.434,47.363,43.457,22.461,16.113,0
1486894963.136,43.945,49.805,42.480,24.414,31.250,0
1486894963.140,44.434,45.898,34.668,29.297,10.254,0
1486894963.144,40.527,34.180,25.391,27.832,10.742,0
1486894963.147,36.621,26.855,15.137,22.461,44.434,0
1486894963.151,31.250,29.785,37.598,23.438,36.133,0
1486894963.155,20.996,26.367,55.176,18.555,18.066,0
1486894963.159,17.578,16.602,28.320,11.719,-1.953,0
1486894963.163,18.555,5.371,12.207,8.789,25.391,0
1486894963.167,17.090,0.000,18.555,11.230,40.527,0
1486894963.171,14.160,1.465,15.137,13.672,47.363,0
1486894963.175,12.695,4.395,15.625,13.184,65.918,0
1486894963.179,14.648,4.883,25.879,15.137,40.039,0
1486894963.183,20.508,6.836,6.836,13.672,32.715,0
1486894963.187,24.414,12.695,-9.277,19.531,20.020,0
1486894963.190,14.648,7.812,-0.488,15.625,19.043,0
1486894963.194,12.695,6.836,11.230,11.719,34.668,0
1486894963.198,21.973,18.555,33.691,20.020,23.438,0
1486894963.202,16.602,12.695,24.902,15.625,38.574,0
1486894963.206,15.137,-9.277,20.508,15.625,38.574,0
1486894963.210,22.461,-24.902,33.691,19.531,19.531,0
1486894963.214,26.367,-20.508,19.043,19.531,9.277,0
1486894963.218,21.484,-9.277,14.648,11.719,0.000,0
1486894963.222,11.230,-11.230,18.066,1.953,4.395,0
1486894963.226,19.043,-21.484,8.301,10.254,10.254,0
1486894963.229,29.785,-20.020,-12.207,18.066,29.297,0
1486894963.233,41.992,-0.488,0.000,32.227,0.488,0
1486894963.237,47.852,1.953,37.109,34.180,30.762,0
1486894963.241,39.551,-8.301,50.781,25.391,92.773,0
1486894963.245,27.832,-0.488,57.617,17.578,48.828,0
1486894963.249,21.484,2.930,54.688,7.324,6.348,0
1486894963.253,17.578,2.441,39.062,2.441,56.641,0
1486894963.257,21.484,13.184,43.457,11.719,84.473,0
1486894963.261,27.344,20.996,56.152,21.973,25.879,0
1486894963.265,29.297,15.137,46.387,22.949,32.227,0
1486894963.269,38.086,19.043,47.852,31.738,63.477,0
1486894963.272,51.270,34.180,61.523,49.316,41.992,0
1486894963.276,55.176,35.645,57.617,55.176,16.602,0
1486894963.280,59.082,33.203,53.711,44.922,14.648,0
1486894963.284,59.082,37.109,47.852,41.992,41.992,0
1486894963.288,47.852,40.039,60.547,46.875,49.805,0
1486894963.292,43.457,28.809,82.520,43.457,70.801,0
1486894963.296,38.574,18.066,64.941,33.203,70.312,0
1486894963.300,32.227,20.508,48.340,33.691,6.836,0
1486894963.304,35.645,23.926,51.270,40.039,-14.160,0
1486894963.308,29.785,20.508,44.434,35.645,29.297,0
1486894963.312,17.578,5.859,39.551,31.738,1.465,0
1486894963.315,25.879,17.578,37.109,36.133,-24.414,0
1486894963.319,48.828,50.781,51.270,53.223,-7.812,0
1486894963.323,48.828,57.129,59.570,62.988,5.859,0
1486894963.327,44.434,42.480,41.992,50.293,50.781,0
1486894963.331,46.387,23.926,22.949,25.391,43.945,0
1486894963.335,43.457,0.977,15.137,16.113,-15.625,0
1486894963.339,47.852,8.301,25.879,20.020,-1.953,0
1486894963.343,62.988,27.832,35.645,28.809,20.996,0
1486894963.347,60.547,30.273,40.039,40.039,34.180,0
1486894963.351,39.551,15.625,33.203,44.922,19.531,0
1486894963.354,19.531,-2.930,15.137,31.738,20.996,0
1486894963.358,9.766,3.418,19.043,20.996,54.199,0
1486894963.362,20.020,14.160,32.227,32.227,24.902,0
1486894963.366,31.738,21.484,23.926,38.086,48.340,0
1486894963.370,37.598,31.738,19.531,40.039,75.195,0
1486894963.374,34.668,20.020,6.348,40.039,36.621,0
1486894963.378,29.785,2.441,-2.441,27.832,-0.488,0
1486894963.382,28.320,7.324,15.137,24.414,26.367,0
1486894963.386,21.484,18.555,22.949,22.461,50.293,0
1486894963.390,32.715,22.461,13.672,24.902,37.109,3
1486894963.394,43.457,18.066,7.812,35.645,30.273,0
1486894963.397,34.180,20.020,14.160,30.273,18.555,0
1486894963.401,35.156,30.762,31.250,28.320,13.672,0
1486894963.405,38.574,32.227,33.203,27.344,-16.113,0
1486894963.409,38.574,33.691,29.297,28.320,-25.391,0
1486894963.413,38.574,28.809,21.484,34.180,-15.625,0
1486894963.417,38.086,26.367,9.277,30.273,18.555,0
1486894963.421,33.691,27.832,8.789,24.414,56.641,0
1486894963.425,23.438,14.648,5.371,23.438,37.598,0
1486894963.429,17.090,4.395,13.184,27.832,20.996,0
1486894963.433,18.066,3.418,19.531,23.438,-0.977,0
1486894963.437,24.414,11.719,23.926,24.414,20.020,0
1486894963.440,32.227,29.297,33.691,33.691,62.988,0
1486894963.444,26.855,19.531,35.156,26.855,18.066,0
1486894963.448,26.367,14.648,38.086,21.973,-15.625,0
1486894963.452,34.668,32.227,45.410,30.762,-18.066,0
1486894963.456,34.180,21.484,26.367,36.133,36.621,0
1486894963.460,39.551,21.484,15.625,44.922,21.484,0
1486894963.464,55.664,46.387,29.297,59.082,-25.391,0
1486894963.468,56.152,43.457,19.531,62.500,18.555,0
1486894963.472,40.527,30.762,19.531,52.246,16.113,0
1486894963.476,30.762,23.438,34.668,40.527,20.996,0
1486894963.479,37.598,12.695,38.086,40.039,32.715,0
1486894963.483,44.922,16.602,25.879,43.945,0.977,0
1486894963.487,42.969,24.414,11.719,46.875,3.906,0
1486894963.491,47.852,17.090,29.297,51.270,53.223,0
1486894963.495,43.457,0.000,32.227,46.387,57.617,0
1486894963.499,44.922,-1.953,28.320,46.875,37.109,0
1486894963.503,49.805,20.020,34.180,51.758,16.602,0
1486894963.507,44.922,21.484,18.066,44.922,19.531,0
1486894963.511,79.590,31.250,47.363,73.730,38.574,0
1486894963.515,92.773,33.691,67.871,85.938,36.133,0
1486894963.519,79.590,24.414,53.711,73.730,39.551,0
1486894963.522,74.219,38.574,63.965,76.172,47.363,0
1486894963.526,62.988,38.086,59.082,67.383,34.668,0
1486894963.530,63.965,29.785,40.039,54.199,16.602,0
1486894963.534,53.223,10.254,27.832,43.945,-6.836,0
1486894963.538,42.969,-9.277,21.484,36.133,31.250,0
1486894963.542,39.062,-3.906,24.902,25.391,32.715,0
1486894963.546,28.320,4.883,21.973,16.113,6.348,0
1486894963.550,12.207,-0.977,0.488,9.766,31.738,0
1486894963.554,13.672,2.930,20.020,11.719,16.602,0
1486894963.558,23.926,8.301,39.551,19.043,24.902,0
1486894963.562,27.344,6.348,30.762,21.973,32.715,0
1486894963.565,30.273,3.418,32.227,27.832,17.578,0
1486894963.569,38.574,6.348,34.180,31.738,42.480,0
1486894963.573,38.086,4.395,16.602,25.391,28.320,0
1486894963.577,23.438,-0.488,-1.465,13.184,22.949,0
1486894963.581,22.461,6.348,5.371,7.812,14.648,0
1486894963.585,31.250,21.484,22.461,10.742,-2.930,0
1486894963.589,32.715,19.043,49.316,13.672,19.043,0
1486894963.593,43.457,11.719,63.477,20.996,7.324,0
1486894963.597,54.688,20.508,50.293,29.785,-9.277,0
1486894963.601,61.523,32.227,39.551,36.621,4.395,0
1486894963.604,74.707,38.086,44.434,50.781,19.531,0
1486894963.608,73.242,35.645,22.461,48.828,2.441,0
1486894963.612,56.641,15.625,0.488,28.320,-39.062,0
1486894963.616,40.527,1.953,11.230,16.113,0.488,0
1486894963.620,42.969,21.484,30.273,26.367,24.414,0
1486894963.624,49.316,30.273,41.016,29.785,42.480,0
1486894963.628,42.480,20.020,40.039,24.414,45.898,0
1486894963.632,47.852,27.344,50.781,34.180,12.695,0
1486894963.636,43.457,27.344,48.340,31.738,-3.906,0
1486894963.640,23.438,9.766,31.738,15.137,3.418,0
1486894963.644,23.926,0.000,30.273,13.672,21.484,0
1486894963.647,31.250,5.859,32.715,20.508,16.602,0
1486894963.651,16.113,-2.441,22.461,12.695,8.789,0
1486894963.655,10.742,-7.324,21.973,10.254,18.555,0
1486894963.659,18.066,7.812,28.809,18.555,3.418,0
1486894963.663,18.555,8.301,38.086,25.391,7.812,0
1486894963.667,31.738,11.719,46.875,34.668,54.688,0
1486894963.671,33.691,7.812,46.875,31.738,43.457,0
1486894963.675,13.184,2.441,45.410,19.043,-4.395,0
1486894963.679,6.836,6.348,30.273,16.113,-6.348,0
1486894963.683,10.742,10.254,22.461,15.625,32.227,0
1486894963.687,19.531,23.438,37.598,24.414,31.250,0
1486894963.690,21.973,31.738,46.875,38.574,43.457,0
1486894963.694,28.320,38.574,43.457,43.945,23.926,0
1486894963.698,38.574,40.039,37.109,50.781,17.578,0
1486894963.702,37.598,39.062,42.969,50.293,85.938,0
1486894963.706,34.180,39.551,48.340,42.480,77.637,0
1486894963.710,26.367,21.973,40.527,35.156,35.156,0
1486894963.714,19.531,18.555,36.133,21.973,49.316,0
1486894963.718,16.602,28.809,42.480,15.625,37.598,0
1486894963.722,20.996,19.531,48.340,24.414,38.086,0
1486894963.726,20.996,11.230,34.668,26.855,45.898,0
1486894963.729,11.719,7.812,17.578,13.672,25.391,0
1486894963.733,15.137,6.836,32.227,9.277,41.504,0
1486894963.737,19.531,10.254,49.805,11.230,62.500,0
1486894963.741,5.859,4.395,37.109,2.441,38.086,0
1486894963.745,7.812,3.906,26.855,-5.371,24.414,0
1486894963.749,21.484,13.672,29.297,0.488,42.480,0
1486894963.753,14.160,30.273,27.344,-0.977,32.227,0
1486894963.757,-1.953,24.414,19.043,-11.230,39.062,0
1486894963.761,-0.977,23.926,13.672,-9.277,18.066,0
1486894963.765,6.348,34.668,20.020,-4.395,22.949,0
1486894963.769,-6.836,18.066,14.160,-15.625,61.035,0
1486894963.772,-18.555,4.395,16.113,-21.484,28.320,0
1486894963.776,-19.531,-1.953,20.996,-26.367,41.992,0
1486894963.780,-14.160,-6.348,14.648,-30.273,58.594,0
1486894963.784,-3.906,5.371,25.879,-20.020,70.801,0
1486894963.788,-8.789,20.996,29.785,-13.672,73.730,0
1486894963.792,-1.953,33.691,44.922,-0.488,38.086,0
1486894963.796,9.277,45.898,75.195,10.254,29.785,0
1486894963.800,2.441,46.387,74.219,5.859,9.277,0
1486894963.804,-9.277,31.738,41.504,-1.465,38.086,0
1486894963.808,-23.438,10.742,7.812,-8.789,18.555,0
1486894963.812,-24.414,8.789,19.043,-13.672,7.812,0
1486894963.815,-20.996,0.488,38.574,-9.277,16.602,0
1486894963.819,-11.719,-3.418,43.945,3.418,29.785,0
1486894963.823,3.906,4.395,27.344,10.742,77.148,0
1486894963.827,20.020,20.020,37.598,25.879,36.621,0
1486894963.831,48.340,44.434,71.777,52.246,-20.508,0
1486894963.835,53.711,42.969,69.824,50.781,-1.465,0
1486894963.839,41.992,26.367,53.223,39.551,20.020,0
1486894963.843,33.691,14.160,39.551,35.156,18.555,0
1486894963.847,34.180,21.484,45.410,32.227,10.742,0
1486894963.851,44.434,20.996,54.199,34.180,36.133,0
1486894963.854,52.734,26.855,33.203,40.039,28.320,0
1486894963.858,58.594,32.715,18.555,41.504,4.883,0
1486894963.862,59.082,21.973,31.738,41.992,4.883,0
1486894963.866,58.105,26.855,44.434,44.434,41.992,0
1486894963.870,57.617,35.156,45.410,43.457,57.129,0
1486894963.874,51.758,30.762,39.062,39.551,24.902,0
1486894963.878,62.012,28.809,38.086,44.434,31.738,0
1486894963.882,69.336,16.113,33.203,43.945,39.062,0
1486894963.886,62.500,14.648,20.020,37.598,15.137,0
1486894963.890,66.895,21.484,14.160,43.457,-3.418,4
1486894963.894,73.730,27.832,23.438,43.457,2.930,0
1486894963.897,70.312,33.691,11.719,42.969,3.418,0
1486894963.901,68.848,22.461,14.160,47.852,15.625,0
1486894963.905,80.566,12.695,42.480,41.992,63.477,0
1486894963.909,84.473,12.207,44.922,35.645,54.688,0
1486894963.913,91.309,17.578,40.527,39.062,33.691,0
1486894963.917,104.492,24.414,40.039,49.316,14.648,0
1486894963.921,102.051,24.902,34.180,54.688,-5.371,0
1486894963.925,95.215,32.227,31.250,61.035,-10.742,0
1486894963.929,78.125,26.367,15.625,70.801,32.227,0
1486894963.933,65.918,14.160,15.625,75.684,50.293,0
1486894963.937,67.383,19.531,15.625,81.055,13.184,0
1486894963.940,80.078,25.391,15.137,93.262,46.387,0
1486894963.944,98.145,46.387,27.344,99.609,116.211,0
1486894963.948,99.121,64.941,43.457,92.773,78.125,0
1486894963.952,98.145,63.477,47.363,92.285,53.711,0
1486894963.956,116.211,62.988,56.641,105.957,81.543,0
1486894963.960,123.047,64.453,65.918,104.492,63.477,0
1486894963.964,113.281,58.105,54.199,90.332,6.836,0
1486894963.968,112.305,53.711,39.551,83.984,-10.742,0
1486894963.972,122.070,64.453,41.016,94.727,-12.207,0
1486894963.976,123.535,64.453,50.781,104.980,-1.465,0
1486894963.979,119.141,56.152,36.621,100.586,-13.184,0
1486894963.983,128.906,72.754,55.664,110.840,14.160,0
1486894963.987,137.207,74.219,76.660,118.652,50.781,0
1486894963.991,131.348,68.848,65.430,109.375,-7.812,0
1486894963.995,124.512,70.801,61.035,105.957,3.906,0
1486894963.999,118.652,62.012,57.617,99.609,52.734,0
1486894964.003,104.004,57.129,44.434,88.867,49.316,0
1486894964.007,95.215,57.617,37.109,87.402,25.879,0
1486894964.011,103.027,64.453,65.430,92.773,18.555,0
1486894964.015,104.004,60.547,74.707,99.609,65.918,0
1486894964.019,94.727,52.734,48.340,95.215,58.105,0
1486894964.022,90.820,55.664,53.223,87.891,19.043,0
1486894964.026,86.426,60.059,68.359,84.961,64.941,0
1486894964.030,82.520,58.105,80.566,83.008,60.547,0
1486894964.034,78.125,53.711,77.637,87.402,25.391,0
1486894964.038,72.754,56.152,52.246,92.285,36.133,0
1486894964.042,59.570,57.129,49.316,83.984,2.930,0
1486894964.046,52.734,51.270,62.988,77.148,5.859,0
1486894964.050,61.523,49.805,62.988,80.078,36.133,0
1486894964.054,58.594,49.805,56.152,75.195,7.324,0
1486894964.058,46.875,34.668,49.805,59.082,-11.230,0
1486894964.062,47.852,30.273,55.176,50.781,27.344,0
1486894964.065,53.711,41.016,61.523,60.547,15.625,0
1486894964.069,54.199,41.016,41.992,65.430,-29.785,0
1486894964.073,59.082,46.387,49.805,67.383,1.465,0
1486894964.077,68.848,53.223,81.543,70.801,40.039,0
1486894964.081,67.383,35.156,64.453,58.105,39.062,0
1486894964.085,65.430,30.762,46.875,54.688,15.625,0
1486894964.089,64.453,39.551,57.129,57.129,25.391,0
1486894964.093,57.129,29.785,45.898,47.852,28.809,0
1486894964.097,64.941,27.832,32.715,53.223,41.992,0
1486894964.101,73.730,39.062,30.762,63.965,47.363,0
1486894964.104,62.500,33.203,24.902,52.246,39.551,0
1486894964.108,63.965,20.508,35.156,46.875,48.340,0
1486894964.112,67.871,18.555,44.434,53.711,36.133,0
1486894964.116,66.406,24.902,35.645,52.734,-9.766,0
1486894964.120,64.453,18.555,26.855,43.945,-13.672,0
1486894964.124,57.617,11.719,11.230,45.410,27.832,0
1486894964.128,59.570,17.090,16.113,46.875,15.625,0
1486894964.132,57.617,11.230,56.152,44.434,-1.953,0
1486894964.136,42.969,3.418,65.430,38.574,20.996,0
1486894964.140,37.598,4.883,52.734,33.203,38.086,0
1486894964.144,34.668,8.789,36.621,34.180,19.531,0
1486894964.147,36.621,9.277,28.809,37.598,23.926,0
1486894964.151,46.387,22.949,36.133,45.898,55.664,0
1486894964.155,32.715,13.184,13.672,38.086,66.406,0
1486894964.159,39.551,15.625,5.859,40.039,41.016,0
1486894964.163,53.223,30.273,30.273,51.758,-1.465,0
1486894964.167,41.016,14.160,34.668,44.922,36.621,0
1486894964.171,35.645,19.043,40.527,44.922,73.730,0
1486894964.175,28.809,16.602,47.363,43.945,65.430,0
1486894964.179,20.996,7.812,27.344,34.180,55.176,0
1486894964.183,25.391,20.508,22.949,41.016,31.738,0
1486894964.187,29.297,25.879,45.410,39.551,18.066,0
1486894964.190,22.461,12.695,47.852,30.273,6.348,0
1486894964.194,20.996,-2.441,40.039,27.832,22.949,0
1486894964.198,19.043,-2.930,38.574,21.973,13.184,0
1486894964.202,15.625,12.695,45.898,25.879,-27.344,0
1486894964.206,22.461,19.531,44.434,37.109,-1.465,0
1486894964.210,19.043,15.137,17.578,33.691,3.906,0
1486894964.214,21.484,10.742,4.883,28.809,-21.973,0
1486894964.218,31.250,8.789,19.043,32.715,-3.418,0
1486894964.222,26.367,4.883,35.156,36.621,17.090,0
1486894964.226,39.062,12.207,53.223,47.852,9.277,0
1486894964.229,54.199,23.926,61.523,48.828,22.461,0
1486894964.233,60.059,37.109,63.477,47.852,77.148,0
1486894964.237,65.918,39.062,79.102,56.641,50.781,0
1486894964.241,63.965,27.832,82.031,52.246,29.297,0
1486894964.245,55.176,27.344,50.293,36.621,54.688,0
1486894964.249,43.457,34.668,12.207,28.809,13.672,0
1486894964.253,38.086,29.297,4.395,28.320,3.418,0
1486894964.257,29.297,19.043,19.043,25.879,25.879,0
1486894964.261,16.602,8.789,44.434,19.531,39.551,0
1486894964.265,20.996,20.508,50.781,24.902,35.156,0
1486894964.269,17.578,21.484,33.691,17.090,29.785,0
1486894964.272,6.348,1.465,25.879,8.789,65.430,0
1486894964.276,3.418,-0.977,39.062,11.230,41.504,0
1486894964.280,4.883,0.977,34.668,13.184,16.113,0
1486894964.284,11.230,17.090,24.414,22.461,20.996,0
1486894964.288,17.578,24.902,21.973,22.461,20.508,0
1486894964.292,24.414,20.020,16.602,22.949,31.738,0
1486894964.296,23.438,23.438,27.832,19.043,34.180,0
1486894964.300,21.973,23.926,44.434,19.043,45.410,0
1486894964.304,19.531,20.020,57.129,22.461,59.082,0
1486894964.308,21.484,22.949,60.059,26.855,37.109,0
1486894964.312,29.785,32.227,46.875,34.668,9.766,0
1486894964.315,31.738,34.668,43.457,35.156,18.066,0
1486894964.319,40.039,34.180,51.270,45.410,57.617,0
1486894964.323,41.504,28.809,36.621,48.828,46.387,0
1486894964.327,49.805,25.391,21.484,54.688,4.883,0
1486894964.331,55.664,23.438,23.438,56.152,42.480,0
1486894964.335,55.664,26.855,20.996,57.129,60.059,0
1486894964.339,61.035,32.227,22.461,67.871,63.965,0
1486894964.343,62.012,31.250,49.316,68.848,74.219,0
1486894964.347,73.730,30.273,62.012,74.707,58.105,0
1486894964.351,94.238,43.945,39.062,81.055,55.176,0
1486894964.354,104.492,55.664,46.875,84.961,39.551,0
1486894964.358,106.445,47.852,57.617,86.426,27.344,0
1486894964.362,118.652,43.457,43.945,90.820,36.133,0
1486894964.366,126.465,54.199,55.176,99.121,34.668,0
1486894964.370,128.418,57.617,59.570,99.609,39.062,0
1486894964.374,127.930,50.293,52.246,93.262,24.414,0
1486894964.378,124.023,57.129,65.430,91.309,18.066,0
1486894964.382,124.512,52.246,38.574,89.844,26.855,0
1486894964.386,116.699,28.809,5.859,81.543,42.480,0
1486894964.390,98.145,27.832,16.113,71.289,54.688,5
1486894964.394,89.355,27.832,27.832,62.500,39.062,0
1486894964.397,83.984,20.508,41.016,57.617,45.410,0
1486894964.401,73.242,22.949,49.805,51.270,56.152,0
1486894964.405,71.777,29.785,43.945,52.734,61.523,0
1486894964.409,71.289,26.855,41.504,57.617,36.621,0
1486894964.413,66.406,20.996,46.875,47.852,27.832,0
1486894964.417,60.547,14.160,30.762,43.945,79.102,0
1486894964.421,54.199,7.324,0.977,47.852,47.363,0
1486894964.425,44.434,0.977,6.348,38.086,46.875,0
1486894964.429,33.203,-3.906,30.762,20.996,48.340,0
1486894964.433,34.668,1.953,34.668,20.020,40.527,0
1486894964.437,43.457,3.418,40.527,26.855,62.012,0
1486894964.440,41.992,-2.930,33.691,22.461,12.695,0
1486894964.444,44.434,0.977,19.043,28.320,-4.395,0
1486894964.448,54.199,10.254,5.371,41.016,61.035,0
1486894964.452,50.293,-4.883,17.578,37.109,81.055,0
1486894964.456,38.086,-30.762,55.176,25.879,49.805,0
1486894964.460,37.109,-18.066,59.082,20.020,13.672,0
1486894964.464,38.086,-6.348,23.438,22.461,-20.996,0
1486894964.468,32.715,-14.160,-3.418,13.672,46.387,0
1486894964.472,34.180,-3.906,20.020,12.695,41.992,0
1486894964.476,31.250,-11.719,11.230,16.602,-5.371,0
1486894964.479,28.809,-19.043,-15.137,15.625,48.340,0
1486894964.483,31.738,-2.930,3.906,21.973,56.152,0
1486894964.487,26.367,0.000,39.062,13.184,22.461,0
1486894964.491,23.926,-6.836,52.246,11.719,47.852,0
1486894964.495,25.879,-9.766,37.598,14.160,26.855,0
1486894964.499,34.180,-8.789,22.461,13.184,0.000,0
1486894964.503,43.457,5.371,19.043,29.785,53.711,0
1486894964.507,42.480,8.789,7.812,34.180,47.852,0
1486894964.511,32.715,-3.418,-39.551,15.625,39.551,0
1486894964.515,24.902,0.977,-48.828,4.395,31.738,0
1486894964.519,30.273,7.812,8.301,14.160,20.020,0
1486894964.522,25.391,-3.906,37.598,14.648,45.410,0
1486894964.526,18.066,-6.836,36.621,9.277,66.895,0
1486894964.530,21.484,-0.488,20.996,6.348,42.969,0
1486894964.534,21.484,2.930,19.531,7.324,39.551,0
1486894964.538,30.762,17.578,15.137,18.555,23.926,0
1486894964.542,43.457,24.902,-17.578,21.484,41.504,0
1486894964.546,51.758,22.949,-18.066,22.949,73.730,0
1486894964.550,59.082,21.484,4.883,26.855,39.062,0
1486894964.554,50.293,20.996,14.648,28.809,48.340,0
1486894964.558,37.598,14.648,22.461,19.531,61.035,0
1486894964.562,40.527,9.766,49.316,18.066,73.242,0
1486894964.565,39.062,17.578,55.664,24.902,45.898,0
1486894964.569,41.016,29.785,48.828,22.949,24.414,0
1486894964.573,35.645,28.320,27.344,17.090,55.664,0
1486894964.577,30.273,27.832,-7.812,19.043,40.039,0
1486894964.581,43.457,36.133,-0.488,31.250,29.297,0
1486894964.585,53.223,40.527,5.859,32.715,35.645,0
1486894964.589,55.176,41.016,11.230,33.691,39.062,0
1486894964.593,56.641,44.434,46.387,41.016,14.648,0
1486894964.597,54.199,31.250,62.500,35.645,5.371,0
1486894964.601,48.340,29.297,43.457,21.484,27.344,0
1486894964.604,46.875,38.086,25.879,16.113,9.277,0
1486894964.608,45.898,37.598,25.879,10.254,16.113,0
1486894964.612,46.875,40.527,18.066,3.418,32.715,0
1486894964.616,46.387,27.344,10.742,2.441,31.738,0
1486894964.620,35.645,23.438,18.555,6.836,6.836,0
1486894964.624,34.668,35.645,45.410,21.973,7.324,0
1486894964.628,41.992,45.898,59.082,41.016,25.391,0
1486894964.632,34.180,36.621,29.785,39.551,45.410,0
1486894964.636,28.809,16.602,35.156,36.621,62.012,0
1486894964.640,23.926,11.230,56.152,31.738,46.387,0
1486894964.644,23.926,31.738,53.223,22.949,40.039,0
1486894964.647,25.879,36.133,36.133,23.926,46.387,0
1486894964.651,20.020,14.648,28.809,15.625,81.543,0
1486894964.655,11.230,10.742,14.648,0.000,75.195,0
1486894964.659,6.348,5.371,-0.977,-1.465,54.688,0
1486894964.663,11.719,-5.371,10.254,11.719,38.086,0
1486894964.667,17.090,-5.859,11.230,20.996,-12.207,0
1486894964.671,28.809,1.465,18.555,26.855,10.254,0
1486894964.675,20.020,5.371,22.461,19.043,43.945,0
1486894964.679,3.418,4.395,21.973,5.371,40.039,0
1486894964.683,4.395,8.301,36.133,11.719,15.137,0
1486894964.687,0.977,5.859,38.086,8.301,-8.789,0
1486894964.690,-7.812,7.812,20.508,-6.348,-3.906,0
1486894964.694,-2.930,9.766,-0.488,2.930,26.367,0
1486894964.698,15.137,8.789,17.578,24.902,46.875,0
1486894964.702,10.254,1.953,42.969,18.555,34.668,0
1486894964.706,-1.953,-5.859,39.551,0.488,40.039,0
1486894964.710,-0.977,-7.812,42.969,-5.371,62.988,0
1486894964.714,4.883,-13.672,46.875,4.883,55.176,0
1486894964.718,7.812,-16.113,43.945,9.277,18.555,0
1486894964.722,13.672,-4.395,38.574,10.254,-12.207,0
1486894964.726,17.578,-4.883,38.574,11.719,19.043,0
1486894964.729,10.254,-6.836,28.320,7.324,30.762,0
1486894964.733,4.883,4.883,-19.531,8.301,-24.414,0
1486894964.737,11.230,15.137,-34.180,14.160,-30.273,0
1486894964.741,12.207,9.277,10.254,22.949,27.832,0
1486894964.745,-1.953,-10.742,42.969,14.160,75.684,0
1486894964.749,4.395,-10.742,40.527,10.254,63.965,0
1486894964.753,16.602,4.395,18.066,21.973,25.879,0
1486894964.757,10.742,10.742,24.902,22.949,14.648,0
1486894964.761,16.113,19.043,40.527,24.902,-3.418,0
1486894964.765,30.762,35.645,37.598,36.621,2.930,0
1486894964.769,31.738,27.832,42.480,34.668,30.273,0
1486894964.772,30.273,24.902,47.852,36.133,63.965,0
1486894964.776,34.668,26.855,56.152,44.434,27.344,0
1486894964.780,31.738,11.719,56.641,31.250,-21.973,0
1486894964.784,33.203,18.555,52.734,33.203,13.184,0
1486894964.788,35.645,22.949,44.922,44.922,2.441,0
1486894964.792,21.973,-7.812,28.320,25.879,10.254,0
1486894964.796,16.113,-12.695,28.320,16.602,17.090,0
1486894964.800,18.066,5.371,21.973,17.090,32.715,0
1486894964.804,10.742,-4.395,-4.395,10.742,72.754,0
1486894964.808,7.324,-11.719,1.953,12.695,70.801,0
1486894964.812,15.625,-6.348,12.207,17.578,35.156,0
1486894964.815,20.020,-4.883,9.766,23.438,15.137,0
1486894964.819,18.066,-1.465,10.254,21.484,34.668,0
1486894964.823,23.438,11.719,22.461,18.066,14.648,0
1486894964.827,32.227,5.859,35.156,13.184,32.715,0
1486894964.831,35.645,-11.719,14.648,5.859,48.340,0
1486894964.835,31.738,-13.672,-7.324,8.789,34.668,0
1486894964.839,38.086,3.418,10.742,18.555,39.062,0
1486894964.843,42.969,11.719,26.367,25.391,54.199,0
1486894964.847,55.176,22.949,24.902,46.387,49.316,0
1486894964.851,73.730,37.598,41.992,68.848,-7.324,0
1486894964.854,73.242,26.367,48.340,67.383,20.020,0
1486894964.858,59.570,13.184,28.320,53.223,38.574,0
1486894964.862,69.824,22.949,36.621,51.758,26.367,0
1486894964.866,85.449,39.062,59.570,64.453,33.203,0
1486894964.870,80.566,28.320,51.758,66.895,-10.254,0
1486894964.874,76.172,25.391,34.180,69.824,31.250,0
1486894964.878,76.172,37.598,35.645,77.637,42.480,0
1486894964.882,74.707,39.062,24.902,77.148,3.906,0
1486894964.886,70.312,21.973,27.832,72.266,26.367,0
1486894964.890,54.688,13.672,45.898,62.988,32.715,0
1486894964.894,45.410,24.902,52.734,51.758,8.301,0
1486894964.897,54.688,37.109,55.176,61.035,11.230,0
1486894964.901,57.129,40.527,50.781,69.824,32.227,0
1486894964.905,50.293,39.062,33.691,64.453,58.594,0
1486894964.909,41.992,35.645,31.738,59.570,53.711,0
1486894964.913,44.922,19.043,35.156,56.152,15.137,0
1486894964.917,41.992,6.836,35.156,39.551,6.348,0
1486894964.921,33.203,15.137,48.828,35.645,10.254,0
1486894964.925,29.785,20.020,32.715,38.086,35.156,0
1486894964.929,26.855,13.672,8.301,34.180,31.250,0
1486894964.933,32.715,22.949,21.484,40.039,28.320,0
1486894964.937,35.645,30.273,41.016,42.480,10.254,0
1486894964.940,40.039,30.273,50.781,41.992,-1.953,0
1486894964.944,45.898,33.203,56.641,39.551,13.672,0
1486894964.948,39.062,25.879,53.223,37.109,-12.695,0
1486894964.952,34.180,21.973,58.105,41.016,-0.977,0
1486894964.956,26.367,10.742,44.922,35.156,39.551,0
1486894964.960,28.320,14.160,17.578,27.344,30.762,0
1486894964.964,38.574,22.949,10.254,31.738,20.020,0
1486894964.968,24.414,1.953,9.766,12.207,8.301,0
1486894964.972,2.441,-5.859,23.438,3.418,21.973,0
1486894964.976,1.465,7.324,26.855,14.160,24.414,0
1486894964.979,10.742,6.836,14.160,5.371,18.555,0
1486894964.983,22.461,11.230,13.672,11.230,16.602,0
1486894964.987,31.250,14.160,30.273,20.508,13.672,0
1486894964.991,29.297,12.695,29.785,21.484,26.367,0
1486894964.995,24.902,12.695,16.113,17.578,22.461,0
1486894964.999,28.320,10.742,-1.465,11.719,4.883,0
1486894965.003,31.738,24.902,-3.906,16.113,12.207,0
1486894965.007,22.461,31.738,6.348,8.789,26.367,0
1486894965.011,18.066,11.719,23.438,-6.836,21.973,0
1486894965.015,31.250,6.836,41.992,-2.441,24.414,0
1486894965.019,32.715,16.602,29.297,6.348,20.508,0
1486894965.022,19.531,7.324,10.742,-7.812,37.109,0
1486894965.026,19.043,7.324,1.953,-16.113,41.504,0
1486894965.030,35.645,21.973,1.465,-6.348,5.859,0
1486894965.034,42.969,24.414,10.254,-3.418,-21.484,0
1486894965.038,48.340,29.785,25.391,8.789,-13.672,0
1486894965.042,46.387,25.879,23.438,14.160,23.926,0
1486894965.046,44.922,31.250,17.578,17.578,1.465,0
1486894965.050,40.527,30.273,9.766,12.695,-27.344,0
1486894965.054,40.527,24.902,10.742,8.301,15.137,0
1486894965.058,43.457,35.645,24.902,7.812,34.180,0
1486894965.062,41.992,32.715,40.527,4.395,41.016,0
1486894965.065,42.969,27.832,45.410,7.324,20.508,0
1486894965.069,34.180,22.949,24.414,5.371,-0.977,0
1486894965.073,25.879,23.438,23.438,7.812,30.762,0
1486894965.077,28.809,19.531,30.762,14.648,41.504,0
1486894965.081,35.645,9.277,17.578,14.648,25.391,0
1486894965.085,40.527,12.207,5.859,16.602,30.762,0
1486894965.089,42.480,22.461,5.371,15.625,50.293,0
1486894965.093,38.086,19.043,7.324,3.906,58.594,0
1486894965.097,36.621,13.672,3.906,-4.395,43.457,0
1486894965.101,32.227,3.418,-3.418,-8.301,48.828,0
1486894965.104,25.391,-1.953,3.418,-8.301,39.551,0
1486894965.108,26.367,4.883,9.277,-4.883,15.137,0
1486894965.112,47.363,4.883,21.973,16.602,12.695,0
1486894965.116,48.828,-3.418,13.672,18.066,31.738,0
1486894965.120,21.973,-1.953,-10.742,-7.324,24.902,0
1486894965.124,17.578,14.648,17.578,-10.254,35.645,0
1486894965.128,22.949,26.855,40.039,-7.324,26.855,0
1486894965.132,31.738,26.367,29.785,1.465,14.648,0
1486894965.136,31.250,20.020,11.719,8.789,14.648,0
1486894965.140,26.855,16.602,14.648,12.207,30.762,0
1486894965.144,33.203,14.160,32.715,8.789,43.457,0
1486894965.147,35.156,13.184,30.273,4.395,-12.695,0
1486894965.151,20.020,1.465,4.395,-7.324,-40.039,0
1486894965.155,17.578,0.488,3.418,0.488,31.738,0
1486894965.159,37.109,27.832,17.578,16.113,76.660,0
1486894965.163,44.434,26.367,10.742,13.184,34.668,0
1486894965.167,35.156,15.625,17.578,10.742,36.621,0
1486894965.171,29.785,30.762,35.645,12.207,58.105,0
1486894965.175,37.109,41.504,57.617,22.461,47.852,0
1486894965.179,41.016,40.527,54.688,25.391,36.621,0
1486894965.183,34.668,28.320,27.344,11.719,33.691,0
1486894965.187,34.668,20.020,29.785,22.461,33.691,0
1486894965.190,46.387,22.949,39.062,38.574,29.297,0
1486894965.194,45.898,12.695,34.668,31.250,39.062,0
1486894965.198,31.250,-4.395,42.480,20.508,15.625,0
1486894965.202,27.344,-6.348,42.969,15.625,20.508,0
1486894965.206,31.738,0.000,23.438,20.996,45.410,0
1486894965.210,28.809,3.418,6.836,20.020,11.230,0
1486894965.214,26.855,7.324,3.418,18.555,2.930,0
1486894965.218,39.551,20.020,5.371,34.180,34.668,0
1486894965.222,42.969,18.555,18.066,44.434,40.527,0
1486894965.226,24.414,-1.953,27.344,31.250,42.969,0
1486894965.229,24.902,2.930,35.156,26.367,62.988,0
1486894965.233,41.992,21.973,45.898,38.574,0.977,0
1486894965.237,38.574,23.926,45.898,34.668,-1.465,0
1486894965.241,32.715,16.113,46.387,22.461,39.062,0
1486894965.245,36.621,6.348,40.039,20.020,6.348,0
1486894965.249,33.691,8.301,18.555,17.578,12.207,0
1486894965.253,29.785,19.531,0.488,14.648,57.617,0
1486894965.257,26.367,13.672,7.324,14.648,80.078,0
1486894965.261,24.414,10.742,14.160,16.602,44.922,0
1486894965.265,41.016,26.855,39.551,29.785,101.562,0
1486894965.269,30.762,17.090,62.988,24.902,62.988,0
1486894965.272,12.207,8.301,59.570,9.277,17.578,0
1486894965.276,18.066,8.789,41.992,16.113,85.938,0
1486894965.280,18.555,3.906,21.973,15.137,50.781,0
1486894965.284,16.113,1.953,16.113,16.602,1.953,0
1486894965.288,22.949,-2.930,15.137,20.508,17.578,0
1486894965.292,25.391,5.859,17.578,15.137,49.316,0
1486894965.296,21.484,9.277,-2.930,6.348,40.527,0
1486894965.300,27.832,13.184,2.441,8.789,41.016,0
1486894965.304,35.156,22.949,34.180,22.949,7.812,0
1486894965.308,39.551,22.949,38.574,23.438,15.625,0
1486894965.312,38.574,23.438,30.762,28.320,22.461,0
1486894965.315,26.855,15.625,31.250,22.461,-6.836,0
1486894965.319,22.461,8.789,40.039,19.043,4.883,0
1486894965.323,17.090,13.184,30.273,14.648,-5.859,0
1486894965.327,9.277,3.906,16.602,0.977,-37.109,0
1486894965.331,15.137,-1.465,20.508,2.930,-9.277,0
1486894965.335,20.020,1.953,19.531,-6.348,63.477,0
1486894965.339,24.414,0.977,20.508,-12.695,89.844,0
1486894965.343,34.668,4.883,26.855,-2.930,47.852,0
1486894965.347,34.180,8.789,31.738,5.371,10.254,0
1486894965.351,21.484,13.672,28.320,6.348,16.113,0
1486894965.354,6.836,7.812,33.203,8.301,22.949,0
1486894965.358,2.930,1.465,42.969,10.742,42.480,0
1486894965.362,2.441,0.488,30.273,10.254,22.949,0
1486894965.366,3.906,0.977,17.090,9.766,0.977,0
1486894965.370,12.207,14.648,30.273,17.090,33.203,0
1486894965.374,12.695,20.508,40.527,27.832,40.527,0
1486894965.378,14.160,15.625,28.320,26.367,5.371,0
1486894965.382,19.531,21.484,19.043,14.160,9.277,0
1486894965.386,17.090,21.484,34.180,2.930,43.457,0
1486894965.390,24.902,20.020,40.039,17.090,46.875,0
1486894965.394,27.832,22.949,22.461,26.855,26.855,0
1486894965.397,20.508,17.578,20.996,15.137,5.859,0
1486894965.401,21.484,25.391,22.949,10.742,6.836,0
1486894965.405,28.809,30.762,27.344,21.973,45.898,0
1486894965.409,36.133,27.344,23.438,30.762,48.340,0
1486894965.413,41.504,35.645,6.348,27.344,28.320,0
1486894965.417,48.340,49.805,9.277,34.668,48.340,0
1486894965.421,59.570,59.082,30.273,50.781,46.875,0
1486894965.425,52.734,38.086,47.852,41.016,-15.137,0
1486894965.429,47.852,11.719,42.480,35.645,-12.207,0
1486894965.433,62.988,23.438,47.363,58.105,-7.324,0
1486894965.437,68.359,42.969,57.617,69.824,14.648,0
1486894965.440,66.406,49.805,43.457,67.871,46.387,0
1486894965.444,65.430,36.133,28.320,61.035,36.133,0
1486894965.448,62.988,16.602,43.457,59.570,-4.883,0
1486894965.452,45.898,8.789,47.363,56.152,-9.277,0
1486894965.456,30.762,13.184,39.062,48.828,24.902,0
1486894965.460,29.785,14.648,38.086,46.387,6.348,0
1486894965.464,34.180,0.977,39.062,45.410,-0.488,0
1486894965.468,24.414,-12.207,9.766,42.969,-17.090,0
1486894965.472,1.465,-30.273,-27.832,20.996,-0.977,0
1486894965.476,9.277,-26.367,-6.348,18.066,32.227,0
1486894965.479,27.832,1.465,13.672,39.062,32.715,0
1486894965.483,24.414,20.996,23.438,42.480,-7.324,0
1486894965.487,20.508,21.484,33.691,40.527,-19.531,0
1486894965.491,24.414,25.879,27.832,49.316,14.160,0
1486894965.495,31.738,35.156,17.578,58.594,21.973,0
1486894965.499,24.902,18.555,-7.324,42.969,5.371,0
1486894965.503,12.207,1.465,-12.207,26.855,18.066,0
1486894965.507,10.254,3.418,18.555,22.949,31.250,0
1486894965.511,19.531,4.883,47.363,31.738,9.277,0
1486894965.515,26.367,-7.324,57.617,36.133,20.996,0
1486894965.519,16.113,-4.395,56.641,24.902,45.410,0
1486894965.522,21.973,13.184,62.012,33.691,36.621,0
1486894965.526,34.668,20.020,48.828,47.852,-12.207,0
1486894965.530,25.391,7.812,12.207,37.598,6.836,0
1486894965.534,26.367,-6.348,1.953,38.574,68.359,0
1486894965.538,33.203,0.000,33.691,44.434,40.039,0
1486894965.542,32.715,8.789,55.176,39.551,32.715,0
1486894965.546,25.879,8.301,43.457,31.250,53.711,0
1486894965.550,28.809,2.930,39.062,33.691,46.875,0
1486894965.554,40.039,6.836,43.457,42.969,31.250,0
1486894965.558,47.852,15.625,49.805,51.270,62.012,0
1486894965.562,45.898,12.695,47.363,53.711,44.434,0
1486894965.565,48.828,9.277,25.879,53.223,-6.836,0
1486894965.569,51.758,-4.883,3.906,54.688,9.277,0
1486894965.573,48.340,-21.973,2.441,52.734,2.441,0
1486894965.577,51.270,-12.207,26.367,56.152,35.156,0
1486894965.581,49.805,7.324,42.480,52.734,35.645,0
1486894965.585,51.270,19.043,51.758,52.246,-0.977,0
1486894965.589,38.574,12.695,38.574,47.852,-3.906,0
1486894965.593,30.273,3.906,27.344,42.480,-0.488,0
1486894965.597,37.598,4.395,55.176,46.387,-12.695,0
1486894965.601,24.414,5.371,62.988,35.645,-16.602,0
1486894965.604,-3.906,-6.348,17.578,12.695,1.953,0
1486894965.608,-6.836,-13.672,-2.930,12.207,7.812,0
1486894965.612,13.672,4.883,23.438,27.832,23.438,0
1486894965.616,5.859,3.906,38.086,19.043,45.898,0
1486894965.620,-5.859,-7.324,24.902,12.207,63.965,0
1486894965.624,-0.977,-14.160,14.648,15.137,35.645,0
1486894965.628,-6.836,-12.207,38.574,4.395,-11.719,0
1486894965.632,-10.254,-5.371,55.664,-0.977,-26.855,0
1486894965.636,0.488,0.977,39.062,8.301,25.879,0
1486894965.640,17.090,14.160,26.855,26.367,87.402,0
1486894965.644,27.344,34.180,35.156,35.156,61.523,0
1486894965.647,27.832,31.250,41.992,26.855,13.184,0
1486894965.651,20.508,16.602,42.969,17.090,33.203,0
1486894965.655,22.949,26.855,49.316,17.578,66.406,0
1486894965.659,38.086,44.922,50.781,31.250,20.020,0
1486894965.663,40.527,41.992,23.926,34.668,33.203,0
1486894965.667,27.344,27.832,20.508,21.484,51.270,0
1486894965.671,28.320,27.344,46.387,17.090,29.297,0
1486894965.675,34.668,28.320,50.293,17.090,23.926,0
1486894965.679,35.645,16.602,31.250,18.555,28.809,0
1486894965.683,42.480,5.371,25.879,18.066,51.758,0
1486894965.687,42.969,9.766,33.203,20.020,50.781,0
1486894965.690,37.598,14.160,25.391,16.113,23.926,0
1486894965.694,42.480,20.996,16.113,17.090,50.293,0
1486894965.698,53.711,28.320,19.531,33.203,23.926,0
1486894965.702,53.223,25.879,31.250,30.762,-13.672,0
1486894965.706,56.641,29.785,39.062,33.203,7.812,0
1486894965.710,56.152,29.297,39.062,35.645,0.000,0
1486894965.714,60.547,33.203,33.691,40.039,14.160,0
1486894965.718,65.430,32.227,29.785,46.875,25.391,0
1486894965.722,53.223,25.879,27.344,41.992,-4.395,0
1486894965.726,46.387,39.062,45.410,46.875,-10.254,0
1486894965.729,31.250,27.344,53.223,32.715,4.395,0
1486894965.733,33.203,15.137,49.316,30.762,20.508,0
1486894965.737,41.992,31.738,61.523,38.086,25.391,0
1486894965.741,41.016,39.551,70.312,34.180,14.648,0
1486894965.745,36.133,26.367,33.691,33.203,32.715,0
1486894965.749,29.297,15.625,13.672,27.832,33.203,0
1486894965.753,16.113,13.184,25.391,20.020,8.301,0
1486894965.757,10.742,15.137,39.551,20.020,-4.395,0
1486894965.761,19.531,17.090,52.246,24.902,13.672,0
1486894965.765,15.137,24.414,32.715,20.020,4.395,0
1486894965.769,15.137,33.203,36.133,25.391,-12.207,0
1486894965.772,24.414,30.273,52.246,32.715,34.668,0
1486894965.776,17.578,25.879,28.320,23.438,32.227,0
1486894965.780,5.371,8.301,6.348,7.812,-3.906,0
1486894965.784,4.395,-1.465,4.883,5.859,0.488,0
1486894965.788,3.906,10.254,-4.395,4.883,20.996,0
1486894965.792,0.977,-1.465,-7.812,-6.836,50.781,0
1486894965.796,14.160,-8.789,11.230,0.977,22.461,0
1486894965.800,24.414,9.277,33.203,8.789,-0.977,0
1486894965.804,18.066,7.324,25.879,-0.488,54.199,0
1486894965.808,22.461,1.465,17.578,-3.418,74.707,0
1486894965.812,32.715,14.648,40.527,4.395,34.668,0
1486894965.815,43.945,33.691,49.316,13.672,4.883,0
1486894965.819,52.734,51.758,30.762,22.461,28.320,0
1486894965.823,42.480,37.109,9.277,26.367,16.113,0
1486894965.827,49.316,16.113,6.836,30.273,-6.348,0
1486894965.831,61.035,13.672,24.414,36.621,43.945,0
1486894965.835,56.152,5.371,52.246,40.039,81.055,0
1486894965.839,57.129,12.207,66.895,42.480,85.938,0
1486894965.843,53.711,25.391,52.734,32.227,70.312,0
1486894965.847,55.664,32.227,39.062,26.855,19.531,0
1486894965.851,69.824,36.133,43.457,36.133,-4.395,0
1486894965.854,63.477,22.949,38.574,35.156,24.414,0
1486894965.858,53.223,13.184,36.621,35.156,49.805,0
1486894965.862,60.547,22.461,37.598,38.574,55.664,0
1486894965.866,60.059,26.367,27.832,39.062,32.227,0
1486894965.870,55.176,25.391,20.996,41.992,43.945,0
1486894965.874,51.270,27.344,32.227,36.133,21.973,0
1486894965.878,45.898,27.344,46.387,24.902,-17.090,0
1486894965.882,48.828,26.855,58.105,24.902,6.348,0
1486894965.886,47.363,27.344,54.199,27.832,24.902,0
1486894965.890,42.480,24.902,50.781,28.809,34.180,0
1486894965.894,52.246,28.320,59.570,41.504,48.828,0
1486894965.897,57.129,42.969,51.758,52.734,53.223,0
1486894965.901,56.152,32.715,30.762,43.945,7.812,0
1486894965.905,47.363,20.508,37.109,36.133,19.043,0
1486894965.909,40.039,25.391,47.363,43.457,67.383,0
1486894965.913,49.805,30.762,44.434,54.199,-6.348,0
1486894965.917,47.363,31.738,32.227,50.781,-33.203,0
1486894965.921,44.434,24.902,26.855,46.387,49.316,0
1486894965.925,48.340,32.715,44.922,53.711,59.570,0
1486894965.929,61.035,51.270,69.336,66.895,22.461,0
1486894965.933,72.754,44.922,64.453,78.613,29.297,0
1486894965.937,73.242,38.086,49.805,74.707,43.457,0
1486894965.940,66.895,49.805,65.430,67.871,34.180,0
1486894965.944,69.336,53.711,76.660,62.500,51.758,0
1486894965.948,78.125,32.715,65.430,51.270,41.992,0
1486894965.952,76.172,16.602,50.781,46.387,38.574,0
1486894965.956,68.848,21.484,35.156,33.203,30.273,0
1486894965.960,62.500,20.020,4.883,15.137,26.367,0
1486894965.964,68.848,24.414,-11.719,25.391,37.109,0
1486894965.968,64.941,19.531,-1.465,36.133,18.066,0
1486894965.972,50.293,20.996,19.043,45.410,51.270,0
1486894965.976,44.922,34.668,43.457,55.664,67.383,0
1486894965.979,44.434,33.691,60.547,49.316,16.113,0
1486894965.983,40.527,17.578,57.617,41.016,18.555,0
1486894965.987,39.551,18.066,53.223,44.434,31.738,0
1486894965.991,40.527,30.762,50.293,48.340,8.789,0
1486894965.995,41.016,27.344,48.340,46.875,-0.977,0
1486894965.999,46.387,33.691,58.105,48.828,19.531,0
1486894966.003,35.645,31.738,49.316,38.574,21.484,0
1486894966.007,23.438,13.184,28.320,28.320,45.410,0
1486894966.011,25.879,15.137,28.320,34.180,64.453,0
1486894966.015,33.691,24.902,45.410,41.016,38.574,0
1486894966.019,40.527,33.203,56.152,47.852,36.621,0
1486894966.022,48.340,44.434,67.871,57.129,40.527,0
1486894966.026,58.105,39.551,80.078,63.965,5.859,0
1486894966.030,48.340,28.809,80.566,59.570,27.344,0
1486894966.034,43.945,41.504,72.266,57.617,43.457,0
1486894966.038,43.457,41.992,64.453,53.711,0.977,0
1486894966.042,34.668,27.344,68.848,44.922,26.855,0
1486894966.046,27.344,23.438,56.641,38.086,34.668,0
1486894966.050,20.508,28.320,55.664,28.809,4.395,0
1486894966.054,17.578,32.715,72.754,28.320,23.926,0
1486894966.058,5.859,22.949,46.875,17.090,18.066,0
1486894966.062,-1.953,14.648,21.484,9.277,33.691,0
1486894966.065,5.371,25.391,33.203,12.695,42.480,0
1486894966.069,1.465,20.996,38.574,5.371,35.156,0
1486894966.073,-4.395,8.301,43.457,-2.930,42.969,0
1486894966.077,-16.113,-6.836,42.969,-11.719,23.926,0
1486894966.081,-28.320,-27.344,11.719,-30.762,-15.137,0
1486894966.085,-34.668,-33.203,-0.488,-39.062,8.301,0
1486894966.089,-29.785,-24.902,19.531,-33.691,81.543,0
1486894966.093,-17.090,-19.043,24.414,-20.508,107.422,0
1486894966.097,-9.766,-18.555,34.180,-8.789,42.969,0
1486894966.101,-5.859,-8.301,41.504,-9.277,5.859,0
1486894966.104,-0.977,13.672,29.297,2.930,61.035,0
1486894966.108,-1.465,11.230,31.250,5.371,42.480,0
1486894966.112,-8.301,-18.066,37.109,-8.789,-29.297,0
1486894966.116,-12.207,-34.668,32.227,-15.137,-26.855,0
1486894966.120,-6.836,-18.066,39.551,-3.906,0.488,0
1486894966.124,8.301,0.000,49.805,15.625,3.418,0
1486894966.128,15.137,-3.418,44.922,17.578,26.855,0
1486894966.132,15.625,-4.395,39.551,23.438,32.227,0
1486894966.136,21.484,-1.953,54.199,29.785,-8.301,0
1486894966.140,24.414,0.000,54.199,37.598,23.438,0
1486894966.144,21.973,4.395,45.898,42.969,5.859,0
1486894966.147,27.344,9.277,48.828,40.039,-25.391,0
1486894966.151,25.391,-3.418,28.809,31.250,-17.090,0
1486894966.155,7.812,-14.160,23.926,22.949,-18.066,0
1486894966.159,-1.953,-5.859,52.734,17.090,6.836,0
1486894966.163,0.000,0.000,66.406,11.230,42.969,0
1486894966.167,1.465,3.906,51.270,17.578,19.043,0
1486894966.171,3.418,5.371,28.320,20.020,37.109,0
1486894966.175,7.812,3.906,38.086,20.508,50.293,0
1486894966.179,8.789,1.953,53.223,20.020,29.297,0
1486894966.183,24.414,23.926,55.664,32.715,29.297,0
1486894966.187,34.668,32.715,51.758,42.480,8.301,0
1486894966.190,16.602,-0.488,36.621,25.391,17.090,0
1486894966.194,6.836,-5.859,39.551,13.672,5.371,0
1486894966.198,6.836,2.930,30.273,15.625,-20.508,0
1486894966.202,9.277,-0.488,27.344,18.555,-11.719,0
1486894966.206,7.324,-7.324,43.457,17.578,-10.742,0
1486894966.210,4.883,-17.578,41.504,13.672,-3.418,0
1486894966.214,9.766,-9.766,35.156,10.742,-1.465,0
1486894966.218,24.902,13.184,62.012,21.973,5.859,0
1486894966.222,32.227,24.902,68.848,31.250,15.137,0
1486894966.226,34.668,18.555,43.457,30.273,20.508,0
1486894966.229,45.410,18.555,36.621,41.504,26.855,0
1486894966.233,44.922,22.461,51.270,45.898,15.625,0
1486894966.237,34.668,15.137,57.617,34.180,-12.207,0
1486894966.241,33.203,17.090,54.688,35.156,27.832,0
1486894966.245,34.180,17.090,55.664,37.598,41.992,0
1486894966.249,34.668,-0.977,67.383,33.203,3.906,0
1486894966.253,41.504,0.000,60.059,36.621,47.363,0
1486894966.257,51.758,17.578,47.852,48.340,62.988,0
1486894966.261,51.758,4.883,50.781,45.898,28.809,0
1486894966.265,36.621,-17.578,24.414,20.996,42.480,0
1486894966.269,18.066,-25.391,8.301,11.719,35.156,0
1486894966.272,13.672,-20.508,26.367,16.602,21.484,0
1486894966.276,15.625,-3.418,22.461,15.137,23.926,0
1486894966.280,20.020,5.859,20.508,14.160,14.160,0
1486894966.284,21.484,13.184,47.852,19.531,11.230,0
1486894966.288,14.160,17.578,58.594,18.066,9.766,0
1486894966.292,16.602,11.719,40.527,22.461,20.508,0
1486894966.296,23.926,8.301,15.137,24.414,33.691,0
1486894966.300,22.949,1.953,18.555,16.113,17.578,0
1486894966.304,12.207,-4.395,6.348,8.789,-5.859,0
1486894966.308,10.742,10.254,7.324,10.254,0.000,0
1486894966.312,18.555,23.438,39.062,18.555,38.086,0
1486894966.315,21.484,11.719,44.434,15.137,54.688,0
1486894966.319,27.832,21.973,45.410,22.949,35.645,0
1486894966.323,37.598,39.551,40.039,38.574,32.715,0
1486894966.327,37.598,38.086,34.180,32.715,18.066,0
1486894966.331,29.785,30.762,32.227,24.414,38.574,0
1486894966.335,24.414,20.020,22.949,25.879,40.039,0
1486894966.339,24.902,15.137,16.113,28.809,-4.883,0
1486894966.343,33.691,17.578,22.461,37.598,-1.953,0
1486894966.347,38.574,11.719,31.738,39.062,22.949,0
1486894966.351,36.621,3.906,35.156,29.785,7.812,0
1486894966.354,39.062,14.160,38.086,30.762,6.836,0
1486894966.358,41.016,18.555,37.598,40.527,39.551,0
1486894966.362,37.109,9.766,20.508,41.016,35.156,0
1486894966.366,50.293,17.578,24.414,44.434,6.348,0
1486894966.370,61.523,31.250,37.109,52.246,30.762,0
1486894966.374,62.500,39.062,24.414,55.176,35.645,0
1486894966.378,68.848,44.434,29.297,61.523,80.566,0
1486894966.382,70.801,28.320,41.016,65.430,120.117,0
1486894966.386,74.219,20.508,44.434,70.801,28.320,0
1486894966.390,65.918,35.156,45.898,65.430,53.223,0
1486894966.394,61.035,52.734,24.414,67.871,53.223,0
1486894966.397,73.730,64.453,-3.906,77.148,-10.254,0
1486894966.401,66.406,46.875,-1.465,69.824,18.066,0
1486894966.405,55.664,33.203,23.438,59.570,56.641,0
1486894966.409,54.688,40.039,21.973,56.152,39.062,0
1486894966.413,46.387,39.062,0.977,46.875,41.016,0
1486894966.417,29.785,14.160,0.488,27.832,62.500,0
1486894966.421,40.527,20.508,26.855,42.969,57.129,0
1486894966.425,60.059,49.316,19.043,69.336,40.039,0
1486894966.429,58.594,44.434,20.996,65.430,63.965,0
1486894966.433,64.453,48.828,56.152,59.570,53.223,0
1486894966.437,74.707,66.895,62.500,71.777,18.066,0
1486894966.440,74.219,61.523,45.898,74.707,20.508,0
1486894966.444,74.707,52.734,30.762,76.172,20.020,0
1486894966.448,91.797,59.082,45.898,82.520,34.180,0
1486894966.452,97.656,61.523,42.969,81.543,55.664,0
1486894966.456,82.520,56.152,32.227,72.266,81.055,0
1486894966.460,76.172,58.105,47.852,57.617,29.297,0
1486894966.464,83.984,64.453,41.504,61.035,-16.602,0
1486894966.468,90.820,49.316,39.062,73.730,14.160,0
1486894966.472,91.309,48.828,67.383,77.148,22.461,0
1486894966.476,83.008,63.965,58.594,71.777,-8.301,0
1486894966.479,68.848,55.664,26.367,57.617,-17.090,0
1486894966.483,65.918,52.734,23.926,49.805,33.203,0
1486894966.487,56.152,48.828,31.250,44.434,51.270,0
1486894966.491,53.223,42.480,37.109,45.410,56.641,0
1486894966.495,48.828,21.973,16.602,34.180,57.129,0
1486894966.499,37.109,13.672,11.719,20.996,36.133,0
1486894966.503,34.668,19.043,45.898,23.926,52.246,0
1486894966.507,32.715,11.230,59.082,21.973,31.738,0
1486894966.511,45.898,15.137,41.504,26.367,1.953,0
1486894966.515,57.617,22.461,46.875,29.785,29.785,0
1486894966.519,60.547,29.785,50.781,33.691,20.508,0
1486894966.522,62.012,33.691,26.855,36.133,42.480,0
1486894966.526,58.594,26.367,19.531,27.344,35.156,0
1486894966.530,63.965,27.344,27.344,23.438,-23.438,0
1486894966.534,56.152,32.227,26.367,29.785,6.348,0
1486894966.538,41.016,33.691,25.391,44.434,40.039,0
1486894966.542,28.320,20.020,32.227,49.805,66.895,0
1486894966.546,27.344,6.836,50.293,51.758,82.031,0
1486894966.550,35.156,12.207,43.945,64.941,9.277,0
1486894966.554,29.297,9.277,9.766,58.594,4.395,0
1486894966.558,22.949,4.395,10.742,45.898,49.316,0
1486894966.562,23.926,11.719,30.762,46.387,12.695,0
1486894966.565,10.254,7.324,20.020,32.715,0.977,0
1486894966.569,4.883,-4.395,14.160,20.508,42.969,0
1486894966.573,15.625,7.812,33.691,25.391,60.059,0
1486894966.577,22.949,26.367,32.227,32.715,45.410,0
1486894966.581,36.133,38.086,18.066,46.387,45.898,0
1486894966.585,34.180,30.762,29.785,44.434,33.691,0
1486894966.589,22.949,11.719,39.551,27.832,19.531,0
1486894966.593,25.391,13.672,25.391,28.320,49.316,0
1486894966.597,27.344,21.973,22.461,34.668,45.898,0
1486894966.601,24.414,18.066,18.066,30.273,76.172,0
1486894966.604,20.996,5.859,11.719,20.020,49.316,0
1486894966.608,20.996,0.488,29.785,20.996,18.066,0
1486894966.612,29.297,5.859,37.598,23.926,23.926,0
1486894966.616,26.855,-0.488,30.273,20.996,45.410,0
1486894966.620,25.391,5.371,30.762,27.832,62.500,0
1486894966.624,27.344,19.043,31.250,33.203,30.762,0
1486894966.628,15.625,0.000,21.484,20.996,19.043,0
1486894966.632,24.414,-7.324,43.457,22.461,32.227,0
1486894966.636,20.508,4.883,57.617,21.484,25.391,0
1486894966.640,16.602,20.996,68.359,28.809,35.156,0
1486894966.644,32.715,27.832,68.848,45.898,40.527,0
1486894966.647,31.738,27.344,45.898,43.945,21.484,0
1486894966.651,20.996,20.020,30.273,31.250,17.090,0
1486894966.655,14.648,10.742,34.668,20.020,23.438,0
1486894966.659,18.555,7.812,41.504,29.297,27.832,0
1486894966.663,35.156,18.066,51.758,45.898,16.602,0
1486894966.667,38.574,23.438,42.480,46.875,0.977,0
1486894966.671,28.320,8.301,20.020,36.621,34.180,0
1486894966.675,26.855,7.324,14.648,35.645,54.688,0
1486894966.679,31.250,17.578,14.648,41.504,26.367,0
1486894966.683,39.062,27.344,26.855,38.086,20.020,0
1486894966.687,39.062,26.367,29.785,40.527,68.359,0
1486894966.690,40.039,27.344,39.551,43.457,64.453,0
1486894966.694,46.875,32.227,56.152,40.039,77.637,0
1486894966.698,48.828,37.598,53.711,39.551,3.906,0
1486894966.702,48.828,31.738,20.996,37.598,-32.715,0
1486894966.706,46.875,23.438,24.414,31.250,40.039,0
1486894966.710,41.504,29.297,50.781,29.785,33.203,0
1486894966.714,36.621,20.508,25.879,27.832,-17.090,0
1486894966.718,32.715,14.160,6.348,18.555,-13.672,0
1486894966.722,31.738,11.719,17.578,12.207,11.719,0
1486894966.726,29.297,10.742,31.250,12.695,-14.160,0
1486894966.729,17.578,11.719,33.691,1.953,-30.273,0
1486894966.733,15.137,11.719,37.109,1.465,22.461,0
1486894966.737,18.066,14.648,35.645,5.859,21.973,0
1486894966.741,21.973,8.789,34.180,5.859,25.391,0
1486894966.745,33.203,12.695,37.598,15.625,26.367,0
1486894966.749,42.969,21.973,35.156,20.508,13.184,0
1486894966.753,37.598,20.020,15.625,16.113,27.832,0
1486894966.757,32.227,22.461,17.090,19.043,26.367,0
1486894966.761,34.180,21.484,35.156,20.508,6.836,0
1486894966.765,24.902,5.371,22.949,12.695,-20.508,0
1486894966.769,18.066,11.230,25.879,9.766,13.184,0
1486894966.772,11.230,17.578,39.062,0.488,26.367,0
1486894966.776,11.230,22.949,39.551,-2.441,31.738,0
1486894966.780,17.090,28.809,41.016,6.348,13.672,0
1486894966.784,15.137,15.625,22.949,6.348,16.113,0
1486894966.788,22.949,24.414,18.066,19.043,26.855,0
1486894966.792,22.461,28.809,30.762,20.996,24.902,0
1486894966.796,14.648,10.742,24.414,6.348,46.387,0
1486894966.800,13.184,2.930,11.719,3.906,29.785,0
1486894966.804,10.254,-5.371,22.461,4.395,24.414,0
1486894966.808,5.859,-17.090,36.133,7.324,61.523,0
1486894966.812,1.953,-11.230,33.691,5.371,60.059,0
1486894966.815,6.836,-1.953,40.039,9.766,47.852,0
1486894966.819,3.418,-0.977,29.297,11.230,28.809,0
1486894966.823,-11.719,-5.859,17.090,-2.930,33.203,0
1486894966.827,-14.160,-3.418,32.715,-4.395,57.129,0
1486894966.831,0.977,13.184,42.480,9.766,7.324,0
1486894966.835,8.301,18.555,31.738,19.043,-4.883,0
1486894966.839,2.930,13.184,31.250,16.602,4.395,0
1486894966.843,5.859,14.160,44.922,23.926,14.648,0
1486894966.847,8.301,13.184,32.227,25.879,20.020,0
1486894966.851,12.695,2.930,20.996,18.555,17.578,0
1486894966.854,15.625,-0.488,35.156,25.879,32.227,0
1486894966.858,7.324,1.465,30.762,20.508,0.977,0
1486894966.862,6.348,4.883,26.855,14.160,-13.184,0
1486894966.866,8.789,-3.906,16.113,12.207,37.109,0
1486894966.870,16.113,-13.672,-11.230,16.113,33.691,0
1486894966.874,21.973,0.977,2.930,31.738,53.223,0
1486894966.878,20.508,15.137,20.508,38.086,144.043,0
1486894966.882,22.949,13.672,13.184,27.832,98.145,0
1486894966.886,23.926,8.301,28.320,18.066,9.766,0
1486894966.890,16.113,4.883,41.504,19.043,-24.414,0
1486894966.894,21.484,10.254,46.387,29.785,0.000,0
1486894966.897,41.992,16.113,58.105,39.062,0.488,0
1486894966.901,45.898,10.254,59.082,37.598,-17.090,0
1486894966.905,44.434,18.555,53.711,45.410,51.270,0
1486894966.909,44.434,34.180,10.254,48.340,44.434,0
1486894966.913,43.457,40.039,-6.348,45.410,-27.832,0
1486894966.917,55.176,43.457,38.086,58.105,10.742,0
1486894966.921,64.941,46.875,52.734,71.777,8.789,0
1486894966.925,64.941,37.598,37.598,72.754,-20.020,0
1486894966.929,64.453,31.250,51.270,68.848,-12.207,0
1486894966.933,59.082,39.062,66.406,56.641,23.926,0
1486894966.937,62.988,51.270,58.105,63.965,31.738,0
1486894966.940,83.008,66.406,52.246,84.473,28.320,0
1486894966.944,94.727,67.871,22.949,94.238,32.715,0
1486894966.948,103.027,67.383,27.344,97.656,2.441,0
1486894966.952,106.445,58.105,66.406,95.215,6.836,0
1486894966.956,88.867,41.992,72.266,86.426,40.039,0
1486894966.960,81.543,38.574,60.059,82.520,19.043,0
1486894966.964,99.609,63.477,71.777,93.750,-37.598,0
1486894966.968,104.980,76.172,100.098,99.121,-36.621,0
1486894966.972,105.469,73.242,80.078,98.633,22.949,0
1486894966.976,101.074,70.312,56.641,94.238,30.762,0
1486894966.979,89.844,60.059,64.941,86.914,25.879,0
1486894966.983,88.379,55.176,58.105,81.543,20.020,0
1486894966.987,86.426,52.734,50.293,81.543,27.344,0
1486894966.991,86.426,50.293,59.570,81.543,44.434,0
1486894966.995,90.820,45.898,45.410,86.914,25.879,0
1486894966.999,91.309,52.246,19.531,88.867,7.324,0
1486894967.003,86.914,48.340,23.438,83.496,19.043,0
1486894967.007,84.961,48.828,32.227,91.309,41.016,0
1486894967.011,78.125,52.734,26.367,89.355,21.484,0
1486894967.015,65.918,46.875,29.785,69.336,1.465,0
1486894967.019,56.152,41.016,42.480,57.129,25.879,0
1486894967.022,43.945,19.531,31.738,50.293,34.668,0
1486894967.026,41.016,9.277,26.855,47.363,43.945,0
1486894967.030,50.293,27.344,46.387,49.316,14.648,0
1486894967.034,58.594,35.645,43.945,63.477,49.805,0
1486894967.038,67.871,50.293,29.297,76.660,73.730,0
1486894967.042,71.289,64.453,35.645,74.707,12.695,0
1486894967.046,71.777,53.711,33.203,71.777,-9.277,0
1486894967.050,82.031,53.711,42.969,76.172,-10.254,0
1486894967.054,77.637,39.551,60.059,76.660,16.602,0
1486894967.058,72.266,32.227,78.613,73.242,38.086,0
1486894967.062,65.918,41.016,84.961,65.430,11.719,0
1486894967.065,56.152,34.180,50.293,53.223,-5.371,0
1486894967.069,52.734,29.785,31.738,52.246,11.719,0
1486894967.073,47.852,32.227,43.945,50.781,15.625,0
1486894967.077,54.199,36.133,44.434,49.316,34.668,0
1486894967.081,56.641,28.809,29.297,49.316,41.992,0
1486894967.085,41.016,9.766,19.531,36.621,-7.324,0
1486894967.089,29.297,4.395,32.227,29.785,-2.930,0
1486894967.093,21.484,4.883,29.297,23.438,54.688,0
1486894967.097,14.160,-2.441,19.531,9.277,73.730,0
1486894967.101,27.344,11.719,23.926,23.926,1.465,0
1486894967.104,31.738,17.578,23.438,28.320,-0.977,0
1486894967.108,23.926,5.371,18.555,18.555,92.285,0
1486894967.112,15.625,0.977,20.996,14.160,75.684,0
1486894967.116,8.301,0.488,26.367,3.906,25.879,0
1486894967.120,16.602,4.883,18.066,12.695,25.879,0
1486894967.124,12.207,7.324,23.438,19.043,79.102,0
1486894967.128,7.812,8.789,29.297,14.648,46.875,0
1486894967.132,10.254,8.789,30.273,7.812,-12.207,0
1486894967.136,12.695,15.625,33.691,9.277,32.715,0
1486894967.140,19.531,23.926,34.668,17.090,47.363,0
1486894967.144,23.926,28.809,15.137,28.809,38.086,0
1486894967.147,20.996,15.625,-7.324,24.414,33.691,0
1486894967.151,16.113,4.395,9.766,13.672,24.902,0
1486894967.155,23.926,26.367,36.621,19.043,56.152,0
1486894967.159,27.832,38.086,36.133,9.766,64.453,0
1486894967.163,31.250,35.156,17.090,-8.301,5.859,0
1486894967.167,33.691,31.738,14.648,-16.113,30.762,0
1486894967.171,43.457,33.691,22.461,-11.719,60.059,0
1486894967.175,36.133,22.949,21.484,-4.883,54.199,0
1486894967.179,2.930,-7.324,0.000,-18.555,46.387,0
1486894967.183,-5.859,-10.254,-8.789,-18.066,73.730,0
1486894967.187,2.930,0.977,4.395,-3.418,90.332,0
1486894967.190,5.859,0.977,8.301,0.000,45.410,0
1486894967.194,5.859,-2.441,-0.977,-2.930,30.762,0
1486894967.198,17.090,-5.371,-0.977,2.441,42.969,0
1486894967.202,36.133,4.395,17.090,14.648,53.223,0
1486894967.206,28.809,11.719,-1.953,7.812,37.598,0
1486894967.210,16.602,13.672,-31.738,1.465,22.461,0
1486894967.214,12.207,7.812,2.930,-2.930,33.203,0
1486894967.218,9.277,1.465,45.410,-8.789,32.715,0
1486894967.222,13.184,5.371,48.828,-6.348,1.953,0
1486894967.226,9.277,4.395,28.320,-10.742,41.504,0
1486894967.229,18.066,5.371,20.508,0.488,73.730,0
1486894967.233,38.574,9.277,20.020,23.926,29.297,0
1486894967.237,34.668,12.207,10.742,30.762,26.367,0
1486894967.241,22.949,6.348,15.137,20.996,51.270,0
1486894967.245,20.508,10.254,21.973,18.066,36.621,0
1486894967.249,17.578,14.648,18.066,16.602,53.223,0
1486894967.253,7.324,2.441,31.250,9.766,54.199,0
1486894967.257,0.000,-0.977,29.297,6.348,32.227,0
1486894967.261,5.859,3.418,18.555,5.859,45.410,0
1486894967.265,18.066,9.277,23.438,14.648,12.207,0
1486894967.269,29.297,17.090,21.973,28.809,25.391,0
1486894967.272,26.855,15.137,32.227,25.391,30.273,0
1486894967.276,22.461,10.742,41.016,19.531,12.695,0
1486894967.280,19.043,8.789,34.668,18.066,26.367,0
1486894967.284,17.090,0.977,28.320,15.625,30.273,0
1486894967.288,21.484,-0.488,8.789,20.996,42.480,0
1486894967.292,29.297,17.090,16.113,31.738,67.871,0
1486894967.296,26.367,4.395,32.715,30.762,-17.578,0
1486894967.300,23.438,-16.113,33.691,21.973,-39.551,0
1486894967.304,28.809,11.230,46.875,27.344,29.785,0
1486894967.308,27.344,21.484,46.875,32.227,18.555,0
1486894967.312,30.273,15.625,37.109,32.715,4.883,0
1486894967.315,23.926,10.254,-0.488,22.949,-20.996,0
1486894967.319,18.555,8.301,-12.695,17.090,0.000,0
1486894967.323,15.625,1.953,7.324,18.555,42.480,0
1486894967.327,9.766,-13.184,29.297,11.719,41.504,0
1486894967.331,6.836,-7.324,50.293,0.977,53.223,0
1486894967.335,10.254,7.812,51.270,0.977,56.152,0
1486894967.339,22.949,15.625,49.805,11.230,3.906,0
1486894967.343,14.648,19.043,37.598,8.789,7.812,0
1486894967.347,1.465,14.648,33.691,0.488,20.020,0
1486894967.351,8.301,-1.465,20.996,1.953,11.719,0
1486894967.354,10.742,-9.766,-19.043,-0.977,26.367,0
1486894967.358,7.324,0.000,-5.371,-4.395,0.977,0
1486894967.362,5.371,0.000,26.855,-12.695,-2.441,0
1486894967.366,10.254,3.418,38.574,-5.371,22.461,0
1486894967.370,3.418,8.301,42.969,-5.859,66.406,0
1486894967.374,2.441,1.465,32.715,-15.137,45.898,0
1486894967.378,5.859,-2.930,10.254,-6.836,-22.461,0
1486894967.382,0.977,-5.859,-2.441,-4.883,-7.324,0
1486894967.386,9.766,6.836,7.324,-7.812,2.441,0
1486894967.390,17.578,14.160,12.207,0.488,13.672,0
1486894967.394,23.926,19.531,14.160,15.137,31.738,0
1486894967.397,33.203,24.414,20.996,14.160,-6.836,0
1486894967.401,27.832,18.555,28.809,9.277,12.695,0
1486894967.405,10.742,-7.324,14.648,1.953,39.062,0
1486894967.409,6.836,-14.160,-5.859,-3.418,53.711,0
1486894967.413,20.996,-6.836,-4.395,3.418,85.938,0
1486894967.417,35.156,-0.977,3.906,18.066,47.852,0
1486894967.421,35.156,9.766,20.020,19.531,20.508,0
1486894967.425,40.527,16.602,41.504,24.414,25.879,0
1486894967.429,64.941,33.203,70.312,50.781,16.602,0
1486894967.433,69.824,29.785,49.316,53.223,-3.906,0
1486894967.437,59.082,17.578,-7.324,41.992,-9.277,0
1486894967.440,55.664,15.625,-13.184,41.016,9.766,0
1486894967.444,53.223,11.719,6.836,38.086,40.039,0
1486894967.448,61.523,16.602,-1.953,43.945,16.113,0
1486894967.452,59.082,15.137,-26.367,41.504,-1.465,0
1486894967.456,43.457,-4.395,-41.016,24.902,-8.301,0
1486894967.460,37.598,-17.578,-42.480,20.996,47.852,0
1486894967.464,46.387,4.883,-31.250,39.062,80.566,0
1486894967.468,60.059,24.902,-17.090,53.711,33.203,0
1486894967.472,52.734,16.602,-14.160,42.480,10.254,0
1486894967.476,51.270,18.066,3.906,40.039,16.113,0
1486894967.479,59.570,28.320,26.855,47.852,33.691,0
1486894967.483,57.129,27.832,27.344,42.480,0.000,0
1486894967.487,47.363,24.902,10.254,35.645,30.273,0
1486894967.491,45.410,29.785,2.930,36.133,55.664,0
1486894967.495,55.176,29.785,20.020,50.781,12.207,0
1486894967.499,61.035,31.250,34.180,54.688,-4.883,0
1486894967.503,50.293,27.344,41.992,44.922,47.852,0
1486894967.507,40.527,20.508,41.992,40.039,73.242,0
1486894967.511,47.852,38.086,33.691,47.852,14.648,0
1486894967.515,58.105,48.828,15.137,59.082,11.719,0
1486894967.519,56.641,41.504,-4.395,61.035,43.457,0
1486894967.522,43.945,26.855,-6.836,48.340,44.922,0
1486894967.526,36.621,7.324,3.418,31.738,21.484,0
1486894967.530,35.156,5.371,23.438,30.762,23.438,0
1486894967.534,50.781,22.461,28.809,47.852,12.695,0
1486894967.538,58.594,29.297,20.508,53.711,8.301,0
1486894967.542,48.340,20.020,28.320,39.062,51.758,0
1486894967.546,57.617,23.438,32.227,41.504,26.367,0
1486894967.550,70.801,37.109,27.344,53.711,-24.902,0
1486894967.554,68.848,43.457,20.020,53.711,17.090,0
1486894967.558,70.801,38.086,22.949,48.828,65.430,0
1486894967.562,68.359,34.668,45.410,43.457,78.613,0
1486894967.565,66.895,38.086,71.289,54.688,42.969,0
1486894967.569,73.730,43.945,60.059,65.918,36.621,0
1486894967.573,76.172,37.109,18.555,66.406,58.594,0
1486894967.577,66.895,32.227,25.879,57.129,44.922,0
1486894967.581,54.199,35.645,47.363,41.504,5.371,0
1486894967.585,48.340,29.297,30.273,29.785,-5.371,0
1486894967.589,53.223,27.832,20.996,36.621,55.664,0
1486894967.593,59.570,42.480,41.016,53.711,52.734,0
1486894967.597,49.316,46.387,52.734,42.969,-8.301,0
1486894967.601,43.457,34.668,51.270,35.156,-17.090,0
1486894967.604,37.109,30.762,36.133,34.180,35.645,0
1486894967.608,31.250,27.344,16.602,32.227,46.387,0
1486894967.612,33.203,25.879,13.672,33.203,-20.508,0
1486894967.616,35.645,26.855,28.809,27.832,3.418,0
1486894967.620,41.992,28.320,48.340,29.785,52.246,0
1486894967.624,41.016,31.250,45.898,35.156,51.758,0
1486894967.628,30.273,33.203,22.949,25.879,26.855,0
1486894967.632,35.156,31.738,21.484,26.367,19.531,0
1486894967.636,42.480,16.113,25.391,28.809,58.105,0
1486894967.640,27.344,13.672,11.230,16.113,72.266,0
1486894967.644,20.996,35.645,24.902,14.648,30.273,0
1486894967.647,21.484,31.738,46.875,4.883,24.902,0
1486894967.651,24.902,34.668,55.664,-0.488,47.852,0
1486894967.655,33.203,52.246,57.129,11.719,67.383,0
1486894967.659,28.809,42.480,46.875,18.066,21.484,0
1486894967.663,19.043,22.461,46.387,12.207,4.883,0
1486894967.667,14.160,15.137,26.367,6.836,49.316,0
1486894967.671,11.719,6.836,-10.254,7.812,45.410,0
1486894967.675,14.160,4.883,-4.883,18.066,22.949,0
1486894967.679,14.648,4.883,2.441,14.648,10.742,0
1486894967.683,12.207,1.953,11.719,4.883,25.391,0
1486894967.687,12.207,6.836,24.414,13.184,28.320,0
1486894967.690,20.996,3.418,21.484,22.461,38.574,0
1486894967.694,27.344,2.441,33.203,23.438,52.734,0
1486894967.698,24.902,3.418,37.598,22.949,27.344,0
1486894967.702,24.902,2.441,33.203,27.832,41.504,0
1486894967.706,29.785,13.672,60.547,35.156,30.762,0
1486894967.710,26.855,15.137,70.312,34.668,10.254,0
1486894967.714,23.926,5.371,62.500,30.273,31.738,0
1486894967.718,31.250,5.859,51.270,29.785,50.293,0
1486894967.722,24.902,-7.324,25.879,25.391,17.578,0
1486894967.726,28.809,0.488,26.855,35.645,46.387,0
1486894967.729,42.969,20.020,31.738,46.387,56.152,0
1486894967.733,34.180,9.766,45.410,42.480,0.000,0
1486894967.737,22.461,5.859,52.734,37.598,45.898,0
1486894967.741,23.926,20.996,47.852,36.621,32.715,0
1486894967.745,29.297,28.809,59.082,30.762,20.020,0
1486894967.749,33.203,22.461,57.129,22.461,40.527,0
1486894967.753,25.391,13.184,29.297,7.812,18.066,0
1486894967.757,17.578,10.254,19.531,-9.277,23.926,0
1486894967.761,22.949,4.395,35.156,-9.766,48.828,0
1486894967.765,22.461,-9.277,34.668,-13.672,50.293,0
1486894967.769,11.230,-19.043,15.625,-11.230,58.594,0
1486894967.772,-1.465,-15.625,11.230,5.371,20.020,0
1486894967.776,-12.695,1.953,36.133,14.160,1.465,0
1486894967.780,-17.090,6.836,36.621,9.766,14.160,0
1486894967.784,-3.418,2.930,22.949,11.230,22.461,0
1486894967.788,1.465,-3.906,22.949,22.461,18.555,0
1486894967.792,3.418,-7.812,24.414,22.949,14.160,0
1486894967.796,9.277,-2.441,35.645,21.484,43.945,0
1486894967.800,8.301,0.000,36.133,15.625,74.219,0
1486894967.804,11.719,6.836,40.039,16.602,63.477,0
1486894967.808,24.902,4.883,52.246,29.785,15.625,0
1486894967.812,22.461,-0.977,52.246,28.320,-4.395,0
1486894967.815,20.996,19.043,52.246,29.785,30.273,0
1486894967.819,26.855,29.297,59.082,29.785,34.180,0
1486894967.823,20.996,31.738,49.316,24.902,44.434,0
1486894967.827,22.949,40.527,41.992,29.785,24.902,0
1486894967.831,36.621,44.434,41.992,39.551,-5.371,0
1486894967.835,38.086,35.156,16.113,40.527,20.020,0
1486894967.839,27.832,20.020,11.230,27.344,41.992,0
1486894967.843,13.672,2.930,23.438,11.719,62.012,0
1486894967.847,13.184,-1.953,35.156,18.555,30.273,0
1486894967.851,24.902,11.719,58.594,23.438,-13.672,0
1486894967.854,24.414,15.625,71.777,11.719,26.855,0
1486894967.858,25.879,16.602,66.895,14.160,75.684,0
1486894967.862,30.762,13.184,54.688,23.926,51.758,0
1486894967.866,21.973,6.836,18.555,16.602,24.902,0
1486894967.870,23.926,21.484,-1.953,19.043,42.969,0
1486894967.874,27.344,23.438,18.066,29.297,34.180,0
1486894967.878,20.508,14.648,34.668,26.855,16.113,0
1486894967.882,8.301,9.277,42.480,11.719,10.254,0
1486894967.886,15.137,20.508,64.941,17.578,-14.648,0
1486894967.890,29.297,24.902,70.312,33.203,-6.348,0
1486894967.894,33.203,34.180,70.312,33.691,21.973,0
1486894967.897,32.715,41.504,57.617,32.715,72.754,0
1486894967.901,25.879,28.320,25.879,27.832,45.410,0
1486894967.905,26.367,17.578,19.043,23.926,10.742,0
1486894967.909,34.668,26.367,39.551,41.016,6.836,0
1486894967.913,41.016,36.133,61.035,52.246,17.578,0
1486894967.917,34.668,28.809,50.781,38.574,34.180,0
1486894967.921,31.250,26.367,46.875,37.109,30.762,0
1486894967.925,33.691,20.020,43.945,41.504,54.688,0
1486894967.929,34.180,18.066,12.695,40.039,42.480,0
1486894967.933,37.109,14.648,19.043,38.086,10.742,0
1486894967.937,35.156,15.137,58.105,32.715,-5.371,0
1486894967.940,23.438,20.996,64.941,28.809,-18.066,0
1486894967.944,29.785,18.066,50.781,28.320,-26.367,0
1486894967.948,47.852,22.949,30.273,38.574,3.418,0
1486894967.952,45.898,28.809,15.137,40.039,18.066,0
1486894967.956,40.527,30.273,17.578,38.086,-9.277,0
1486894967.960,44.922,17.578,29.297,45.898,5.859,0
1486894967.964,53.711,12.695,14.648,50.781,17.578,0
1486894967.968,56.641,18.555,-7.324,47.852,12.207,0
1486894967.972,55.176,24.414,29.785,44.922,40.039,0
1486894967.976,63.965,27.344,55.176,50.781,16.113,0
1486894967.979,76.660,37.109,48.828,59.082,-29.297,0
1486894967.983,79.590,52.734,47.363,62.012,-35.156,0
1486894967.987,91.309,61.523,41.992,66.895,-15.625,0
1486894967.991,89.844,57.129,21.484,62.988,8.789,0
1486894967.995,81.543,36.621,7.324,55.176,-4.395,0
1486894967.999,98.633,42.480,17.578,65.918,38.086,0
1486894968.003,105.957,65.918,27.832,72.754,62.500,0
1486894968.007,102.539,68.848,30.762,75.684,7.324,0
1486894968.011,100.098,62.012,23.926,64.453,17.090,0
1486894968.015,83.496,46.387,23.438,43.457,0.000,0
1486894968.019,75.684,40.527,26.367,35.645,-0.977,0
1486894968.022,74.707,42.969,21.484,35.156,51.270,0
1486894968.026,63.965,40.527,3.418,34.180,31.250,0
1486894968.030,55.664,29.785,-26.367,22.949,-23.926,0
1486894968.034,55.664,22.461,-17.090,17.578,-16.602,0
1486894968.038,54.688,20.020,7.812,24.902,28.320,0
1486894968.042,46.387,14.648,-3.906,17.090,32.227,0
1486894968.046,45.898,20.996,-14.160,10.254,-6.348,0
1486894968.050,56.152,25.391,4.395,15.137,-7.324,0
1486894968.054,59.082,20.996,12.207,20.508,-3.418,0
1486894968.058,58.105,27.832,5.859,23.926,17.578,0
1486894968.062,57.617,34.180,22.949,19.043,35.645,0
1486894968.065,52.734,27.832,22.461,18.555,21.973,0
1486894968.069,59.082,31.250,-2.441,25.391,19.531,0
1486894968.073,61.035,33.203,-9.766,18.066,11.230,0
1486894968.077,54.199,28.320,-1.465,7.812,16.113,0
1486894968.081,61.523,33.203,8.301,18.555,34.668,0
1486894968.085,60.547,40.527,25.879,18.066,31.738,0
1486894968.089,42.480,30.273,25.391,-2.441,13.184,0
1486894968.093,29.785,13.184,14.648,-10.254,24.414,0
1486894968.097,34.180,21.484,22.949,-0.488,63.965,0
1486894968.101,38.574,21.484,26.367,4.395,49.316,0
1486894968.104,40.039,8.789,0.488,9.277,-16.113,0
1486894968.108,33.203,-8.789,-21.484,11.230,32.227,0
1486894968.112,37.598,-15.137,-6.836,10.742,64.453,0
1486894968.116,58.105,12.207,20.996,25.879,80.078,0
1486894968.120,56.641,24.414,36.621,35.156,74.219,0
1486894968.124,40.527,6.348,27.344,23.926,50.781,0
1486894968.128,33.203,4.883,23.926,10.254,54.199,0
1486894968.132,40.039,25.879,40.039,16.602,49.316,0
1486894968.136,48.340,27.344,43.945,29.297,72.754,0
1486894968.140,36.621,22.949,29.785,30.762,70.312,0
1486894968.144,25.879,20.996,13.672,21.973,42.480,0
1486894968.147,22.949,14.648,18.066,13.184,23.438,0
1486894968.151,19.531,13.184,26.855,5.371,31.250,0
1486894968.155,15.625,6.836,33.203,2.930,40.527,0
1486894968.159,24.414,6.348,29.297,10.742,56.152,0
1486894968.163,29.785,19.531,19.531,19.043,-8.301,0
1486894968.167,31.250,37.598,25.879,31.738,-16.602,0
1486894968.171,19.043,31.250,29.297,21.484,38.574,0
1486894968.175,9.766,24.902,48.340,11.230,52.246,0
1486894968.179,20.508,27.832,61.523,14.648,40.039,0
1486894968.183,20.020,23.438,48.828,12.207,33.691,0
1486894968.187,17.090,18.066,35.156,8.301,9.277,0
1486894968.190,12.695,20.996,31.738,3.906,14.648,0
1486894968.194,0.488,20.020,17.578,-2.441,77.637,0
1486894968.198,4.395,17.090,17.578,-3.906,62.012,0
1486894968.202,6.836,18.555,24.414,-5.859,18.066,0
1486894968.206,0.488,19.531,16.113,-4.395,39.062,0
1486894968.210,7.324,22.949,23.926,8.301,18.555,0
1486894968.214,5.371,12.695,12.695,7.812,-11.230,0
1486894968.218,8.789,13.184,25.391,8.301,33.203,0
1486894968.222,17.578,30.273,56.641,19.043,34.180,0
1486894968.226,18.555,29.785,50.293,21.973,10.742,0
1486894968.229,16.113,15.625,40.039,11.230,45.410,0
1486894968.233,23.926,9.766,29.297,11.230,21.484,0
1486894968.237,32.227,23.438,29.785,25.879,-4.883,0
1486894968.241,27.832,35.645,38.574,36.133,29.297,0
1486894968.245,31.250,34.180,45.410,42.969,21.973,0
1486894968.249,35.645,30.762,41.504,40.527,6.836,0
1486894968.253,36.621,33.203,41.504,43.457,20.508,0
1486894968.257,36.133,37.109,43.457,42.480,8.789,0
1486894968.261,26.855,28.320,33.691,31.250,6.348,0
1486894968.265,28.320,25.391,42.969,30.273,34.180,0
1486894968.269,30.273,27.832,64.453,38.574,16.113,0
1486894968.272,20.996,22.461,71.289,36.621,45.410,0
1486894968.276,19.043,27.832,59.082,32.227,68.359,0
1486894968.280,28.320,34.668,55.664,38.086,41.992,0
1486894968.284,31.250,31.738,48.828,40.039,45.410,0
1486894968.288,31.250,40.039,29.785,42.969,49.805,0
1486894968.292,41.992,57.617,38.574,50.293,31.250,0
1486894968.296,35.156,43.945,51.270,36.621,7.324,0
1486894968.300,32.227,30.762,47.852,35.156,45.898,0
1486894968.304,37.598,31.738,49.805,38.086,51.758,0
1486894968.308,21.973,16.602,47.852,22.461,21.973,0
1486894968.312,16.602,14.160,44.434,24.414,37.598,0
1486894968.315,23.438,27.344,44.434,29.785,39.551,0
1486894968.319,35.645,30.762,49.316,36.621,46.387,0
1486894968.323,48.340,35.645,47.852,46.875,35.645,0
1486894968.327,50.781,43.457,43.945,45.898,19.531,0
1486894968.331,48.340,35.645,46.387,41.504,7.812,0
1486894968.335,46.387,26.855,56.641,35.645,20.020,0
1486894968.339,42.969,21.484,61.523,35.156,37.598,0
1486894968.343,34.180,17.090,39.551,31.250,30.762,0
1486894968.347,33.203,20.020,33.203,29.785,11.230,0
1486894968.351,40.039,18.555,30.762,36.133,-10.254,0
1486894968.354,36.621,16.113,21.973,31.738,-8.301,0
1486894968.358,26.855,11.719,13.184,24.414,26.855,0
1486894968.362,28.320,-3.418,23.438,29.785,33.691,0
1486894968.366,31.738,0.488,46.387,33.691,50.293,0
1486894968.370,31.738,14.648,44.434,25.879,50.781,0
1486894968.374,36.621,17.578,44.434,24.414,39.551,0
1486894968.378,40.039,26.367,50.293,36.133,40.039,0
1486894968.382,28.320,18.066,24.902,28.809,19.531,0
1486894968.386,21.973,2.441,17.578,23.926,34.180,0
1486894968.390,32.227,17.578,40.527,36.621,31.738,0
1486894968.394,37.598,19.531,49.316,44.434,41.504,0
1486894968.397,40.039,16.602,37.598,42.480,45.898,0
1486894968.401,50.293,36.621,39.062,51.270,29.785,0
1486894968.405,56.641,40.039,62.012,56.152,54.199,0
1486894968.409,55.176,34.180,62.988,38.574,72.266,0
1486894968.413,56.641,31.250,62.988,27.344,50.781,0
1486894968.417,50.781,12.695,38.574,16.113,37.598,0
1486894968.421,41.504,12.207,24.902,14.160,42.969,0
1486894968.425,33.203,28.320,49.316,29.297,31.738,0
1486894968.429,14.160,21.484,55.664,30.762,13.184,0
1486894968.433,9.277,16.113,62.988,33.691,27.344,0
1486894968.437,18.555,22.461,63.965,45.410,-6.836,0
1486894968.440,16.113,22.461,55.176,46.387,-16.113,0
1486894968.444,25.879,26.855,61.035,54.199,4.883,0
1486894968.448,30.762,29.785,52.246,55.664,36.621,0
1486894968.452,22.949,20.508,20.996,44.434,68.359,0
1486894968.456,12.207,7.812,7.812,34.180,79.102,0
1486894968.460,13.184,15.137,8.789,33.691,46.875,0
1486894968.464,25.879,34.180,31.250,44.922,21.484,0
1486894968.468,28.320,21.484,50.781,44.922,6.836,0
1486894968.472,21.484,10.254,55.176,31.250,16.602,0
1486894968.476,22.461,25.879,63.477,25.391,30.762,0
1486894968.479,23.438,28.320,49.805,28.320,-1.953,0
1486894968.483,14.648,20.020,20.020,23.926,-14.648,0
1486894968.487,3.418,6.348,11.230,12.695,-5.371,0
1486894968.491,-1.465,-1.465,18.066,13.184,27.832,0
1486894968.495,2.930,15.137,-1.465,16.113,10.742,0
1486894968.499,9.277,25.879,-5.859,18.066,14.160,0
1486894968.503,18.066,36.133,32.715,32.715,45.898,0
1486894968.507,17.578,37.109,59.082,36.621,41.504,0
1486894968.511,10.254,21.973,51.270,30.273,23.438,0
1486894968.515,0.488,7.324,30.273,28.320,12.695,0
1486894968.519,1.465,14.160,17.090,29.297,3.906,0
1486894968.522,0.977,19.531,16.113,34.180,30.273,0
1486894968.526,-2.930,15.137,26.367,36.133,70.312,0
1486894968.530,3.906,24.902,43.945,43.945,24.902,0
1486894968.534,4.883,20.508,33.691,43.945,-12.695,0
1486894968.538,-5.859,6.836,8.301,30.762,-16.113,0
1486894968.542,-18.555,8.301,11.719,19.531,-4.395,0
1486894968.546,-23.438,6.836,16.602,15.137,31.738,0
1486894968.550,-24.414,-2.441,24.902,11.719,20.508,0
1486894968.554,-8.789,8.789,39.062,19.531,18.555,0
1486894968.558,-1.465,18.066,37.598,22.949,27.344,0
1486894968.562,-11.230,19.043,25.879,13.184,22.949,0
1486894968.565,-8.301,18.066,6.348,9.766,29.785,0
1486894968.569,-8.789,6.836,6.836,3.418,38.574,0
1486894968.573,-11.719,9.277,6.836,-0.488,50.293,0
1486894968.577,-5.371,15.137,-5.371,1.953,33.203,0
1486894968.581,6.348,20.020,11.719,6.348,39.062,0
1486894968.585,17.090,22.949,19.043,10.254,41.992,0
1486894968.589,20.996,26.367,18.555,14.160,42.480,0
1486894968.593,26.367,30.273,26.855,14.648,56.641,0
1486894968.597,34.180,30.762,34.180,21.973,57.617,0
1486894968.601,34.668,23.438,40.039,15.625,16.113,0
1486894968.604,25.879,16.602,28.320,-0.977,1.953,0
1486894968.608,31.250,24.414,31.738,5.859,38.086,0
1486894968.612,45.410,34.668,30.273,14.160,7.812,0
1486894968.616,40.039,28.320,15.137,10.254,-31.738,0
1486894968.620,33.203,19.043,15.625,2.930,-9.277,0
1486894968.624,36.133,10.254,-3.418,4.395,26.367,0
1486894968.628,45.410,23.926,-3.906,12.207,20.020,0
1486894968.632,53.711,42.969,29.297,20.020,22.461,0
1486894968.636,47.363,26.367,41.504,9.766,27.344,0
1486894968.640,38.086,19.043,36.621,1.953,18.066,0
1486894968.644,41.016,29.785,32.715,10.254,51.758,0
1486894968.647,41.992,31.738,27.344,6.348,23.438,0
1486894968.651,46.875,37.109,29.785,6.836,10.742,0
1486894968.655,44.434,34.180,29.785,3.906,28.809,0
1486894968.659,34.668,28.320,27.344,1.465,11.719,0
1486894968.663,38.086,34.668,36.133,6.348,-1.953,0
1486894968.667,36.621,32.227,34.668,0.977,2.441,0
1486894968.671,25.879,25.879,23.926,-0.977,49.316,0
1486894968.675,23.926,28.320,20.996,-0.488,47.852,0
1486894968.679,31.738,25.391,27.832,7.812,1.953,0
1486894968.683,31.250,25.391,30.762,9.277,-20.996,0
1486894968.687,35.156,38.574,37.109,10.742,9.277,0
1486894968.690,25.391,31.738,31.738,5.859,68.848,0
1486894968.694,19.531,17.578,13.672,-8.301,88.379,0
1486894968.698,26.855,18.555,8.789,-10.742,67.871,0
1486894968.702,23.438,16.113,20.996,-6.836,8.301,0
1486894968.706,18.555,13.184,36.621,-4.395,10.254,0
1486894968.710,23.438,11.719,41.016,2.441,44.434,0
1486894968.714,38.574,15.137,48.340,15.137,50.781,0
1486894968.718,47.852,24.902,46.387,19.531,33.203,0
1486894968.722,41.992,18.066,30.762,20.020,17.090,0
1486894968.726,27.832,7.324,-2.930,15.137,62.988,0
1486894968.729,34.180,17.090,-0.488,18.555,83.984,0
1486894968.733,54.688,31.250,38.086,32.715,41.016,0
1486894968.737,59.570,46.875,54.199,40.039,2.930,0
1486894968.741,58.594,50.781,52.734,39.551,4.883,0
1486894968.745,55.176,36.133,35.156,34.668,18.066,0
1486894968.749,44.922,27.832,29.785,28.320,33.691,0
1486894968.753,39.062,18.555,38.574,18.555,15.137,0
1486894968.757,32.227,7.324,33.203,14.648,6.836,0
1486894968.761,16.113,-6.836,25.391,7.812,19.043,0
1486894968.765,14.648,-4.395,20.020,2.441,15.625,0
1486894968.769,28.809,12.207,14.160,8.789,-13.672,0
1486894968.772,30.762,13.184,8.301,17.090,-20.020,0
1486894968.776,36.621,13.672,7.324,31.738,33.203,0
1486894968.780,58.105,23.438,34.668,47.363,73.242,0
1486894968.784,52.734,17.090,54.688,41.016,104.004,0
1486894968.788,35.156,-6.836,64.941,28.320,103.516,0
1486894968.792,29.297,-7.324,57.617,27.344,23.438,0
1486894968.796,13.672,0.977,40.527,19.043,-5.859,0
1486894968.800,-0.488,-8.789,26.367,5.859,17.578,0
1486894968.804,13.184,2.441,24.414,11.719,5.371,0
1486894968.808,20.996,16.113,44.434,18.555,41.016,0
1486894968.812,18.066,12.695,48.340,20.996,43.945,0
1486894968.815,14.160,5.859,19.531,21.484,2.930,0
1486894968.819,19.043,8.789,-5.371,25.879,45.410,0
1486894968.823,20.508,6.836,3.418,31.250,62.500,0
1486894968.827,12.695,-1.465,20.508,25.391,22.949,0
1486894968.831,14.648,7.324,27.832,20.020,-26.855,0
1486894968.835,23.926,7.324,24.902,19.531,-5.371,0
1486894968.839,24.414,0.000,25.879,28.809,26.367,0
1486894968.843,22.461,-4.883,31.738,29.785,19.531,0
1486894968.847,39.551,0.977,40.527,30.273,-15.137,0
1486894968.851,59.082,27.832,45.410,41.992,-9.766,0
1486894968.854,68.848,37.109,49.316,50.293,34.180,0
1486894968.858,69.336,31.738,60.547,53.711,25.879,0
1486894968.862,74.219,25.879,35.645,59.570,18.066,0
1486894968.866,82.031,39.062,7.324,64.941,37.109,0
1486894968.870,73.242,47.363,26.855,57.129,38.574,0
1486894968.874,67.383,44.922,53.711,54.199,28.809,0
1486894968.878,55.664,32.227,57.129,43.457,34.180,0
1486894968.882,56.152,30.273,62.988,40.527,37.109,0
1486894968.886,61.035,38.574,58.594,45.410,26.855,0
1486894968.890,42.480,22.461,21.484,35.645,22.949,0
1486894968.894,34.668,-0.488,24.902,35.156,21.973,0
1486894968.897,39.551,8.301,49.805,41.992,23.438,0
1486894968.901,37.598,25.391,48.828,43.945,10.742,0
1486894968.905,28.320,19.043,34.180,28.320,30.762,0
1486894968.909,15.137,4.395,27.344,18.555,47.363,0
1486894968.913,20.996,-2.441,36.621,20.996,42.480,0
1486894968.917,23.438,-3.418,42.969,20.996,41.992,0
1486894968.921,25.391,7.324,44.922,32.715,31.738,0
1486894968.925,39.062,19.043,52.246,47.852,31.738,0
1486894968.929,44.434,12.207,50.293,52.734,42.969,0
1486894968.933,35.645,-4.883,39.062,40.527,43.457,0
1486894968.937,29.297,-9.277,38.574,31.250,43.945,0
1486894968.940,37.598,1.465,55.664,40.039,12.695,0
1486894968.944,41.504,17.090,71.289,45.898,-14.160,0
1486894968.948,41.992,2.441,49.805,42.480,47.852,0
1486894968.952,45.410,11.719,26.367,48.828,47.852,0
1486894968.956,51.270,44.434,45.410,58.105,10.742,0
1486894968.960,49.805,46.387,62.500,57.617,36.621,0
1486894968.964,49.316,42.480,57.617,53.223,53.711,0
1486894968.968,48.340,36.621,45.898,53.711,85.938,0
1486894968.972,46.387,30.762,57.129,54.199,113.281,0
1486894968.976,43.945,29.297,70.312,50.781,63.477,0
1486894968.979,48.340,28.320,54.688,54.199,-3.418,0
1486894968.983,55.176,26.855,35.645,56.152,-1.953,0
1486894968.987,53.711,30.762,38.086,58.105,18.066,0
1486894968.991,42.969,28.809,44.922,45.898,19.531,0
1486894968.995,26.367,8.789,29.297,25.879,20.508,0
1486894968.999,31.250,15.625,28.809,32.227,37.598,0
1486894969.003,43.945,42.969,55.176,46.387,45.410,0
1486894969.007,44.434,48.340,71.777,52.246,50.293,0
1486894969.011,51.758,39.062,46.875,60.059,50.781,0
1486894969.015,62.012,42.969,26.855,62.500,57.617,0
1486894969.019,52.734,47.363,49.316,51.270,63.477,0
1486894969.022,35.156,29.785,60.547,37.598,47.363,0
1486894969.026,36.621,27.344,57.617,35.156,50.781,0
1486894969.030,41.016,41.504,37.109,39.062,28.809,0
1486894969.034,41.504,44.922,18.066,41.016,-24.414,0
1486894969.038,46.387,36.621,31.250,45.410,-23.926,0
1486894969.042,47.852,35.645,33.203,51.270,14.160,0
1486894969.046,45.410,41.992,30.762,43.945,17.578,0
1486894969.050,41.504,31.250,37.598,39.551,10.742,0
1486894969.054,41.504,27.832,30.273,40.039,13.184,0
1486894969.058,47.363,32.715,37.598,34.180,-8.789,0
1486894969.062,43.457,18.555,32.227,27.832,-3.418,0
1486894969.065,40.039,7.812,7.324,26.855,41.016,0
1486894969.069,57.617,16.602,21.973,34.668,40.527,0
1486894969.073,73.242,30.273,33.691,41.016,35.156,0
1486894969.077,71.289,27.344,22.949,38.574,45.410,0
1486894969.081,82.031,19.043,26.855,44.922,25.879,0
1486894969.085,83.496,21.973,26.367,54.688,47.363,0
1486894969.089,62.988,26.855,33.691,52.246,61.523,0
1486894969.093,48.340,31.738,46.875,54.199,54.688,0
1486894969.097,41.504,22.949,44.434,66.406,20.020,0
1486894969.101,51.758,27.832,50.293,81.543,21.973,0
1486894969.104,54.199,40.527,48.340,80.566,60.547,0
1486894969.108,38.574,42.480,41.504,65.918,64.941,0
1486894969.112,47.852,44.922,45.898,66.406,31.250,0
1486894969.116,64.941,42.480,59.082,78.125,4.395,0
1486894969.120,56.152,35.156,57.617,78.613,18.555,0
1486894969.124,44.434,23.438,16.602,71.777,39.551,0
1486894969.128,43.945,16.602,13.184,61.035,30.762,0
1486894969.132,41.504,8.789,43.457,50.293,1.465,0
1486894969.136,33.203,0.488,42.480,41.504,26.855,0
1486894969.140,30.762,6.836,20.020,36.133,35.156,0
1486894969.144,38.086,17.578,-8.789,40.039,10.254,0
1486894969.147,41.504,22.461,-26.367,38.574,-8.789,0
1486894969.151,44.922,15.625,-33.691,36.133,-20.508,0
1486894969.155,46.875,11.230,-16.602,40.527,17.578,0
1486894969.159,45.898,25.879,31.738,49.316,53.223,0
1486894969.163,46.875,33.691,41.992,53.223,46.387,0
1486894969.167,54.199,27.832,31.738,56.152,35.156,0
1486894969.171,57.129,18.066,36.133,53.223,42.480,0
1486894969.175,50.293,9.766,39.062,46.875,28.320,0
1486894969.179,55.176,20.020,36.621,55.664,59.082,0
1486894969.183,61.035,26.367,21.484,55.664,73.730,0
1486894969.187,76.660,36.621,31.738,68.359,39.551,0
1486894969.190,88.867,42.480,54.688,85.449,20.996,0
1486894969.194,73.242,27.832,60.059,71.777,20.996,0
1486894969.198,68.359,29.297,59.082,71.777,18.555,0
1486894969.202,75.195,32.715,60.547,73.730,27.832,0
1486894969.206,74.707,33.691,54.199,71.777,41.992,0
1486894969.210,63.965,28.809,36.621,70.312,27.832,0
1486894969.214,55.664,12.207,36.621,60.547,20.508,0
1486894969.218,51.270,13.184,46.875,49.316,28.809,0
1486894969.222,48.340,26.855,53.711,50.293,18.066,0
1486894969.226,38.086,18.066,41.504,49.316,30.273,0
1486894969.229,31.250,10.254,31.738,43.457,29.785,0
1486894969.233,38.574,14.160,29.785,44.922,11.230,0
1486894969.237,49.316,29.785,37.109,54.199,36.621,0
1486894969.241,35.156,21.973,30.762,48.828,74.219,0
1486894969.245,10.742,-3.906,22.461,32.227,41.992,0
1486894969.249,12.695,-1.953,33.691,33.203,-9.766,0
1486894969.253,20.996,6.836,41.504,40.527,23.438,0
1486894969.257,13.672,5.371,39.062,41.016,82.520,0
1486894969.261,15.625,5.371,58.594,44.434,47.852,0
1486894969.265,15.625,0.000,62.988,40.527,22.461,0
1486894969.269,14.648,5.371,37.598,38.574,62.500,0
1486894969.272,18.066,18.066,21.484,38.574,64.453,0
1486894969.276,17.578,20.508,17.090,36.621,-15.625,0
1486894969.280,13.672,13.184,20.996,32.715,30.762,0
1486894969.284,12.695,6.836,21.973,29.297,58.594,0
1486894969.288,22.949,8.301,41.992,39.062,12.695,0
1486894969.292,39.062,10.742,76.172,54.199,0.000,0
1486894969.296,55.176,26.855,70.801,65.430,-1.953,0
1486894969.300,55.664,33.203,46.875,64.941,52.246,0
1486894969.304,45.410,20.508,54.688,57.129,46.875,0
1486894969.308,42.969,12.695,67.383,51.758,13.184,0
1486894969.312,33.691,5.859,66.406,40.527,35.156,0
1486894969.315,24.414,6.348,41.504,33.691,38.574,0
1486894969.319,22.461,7.324,23.926,32.227,30.273,0
1486894969.323,20.508,4.395,20.508,30.273,-14.648,0
1486894969.327,20.020,4.395,12.695,25.879,-51.758,0
1486894969.331,24.414,8.789,29.297,22.949,-22.949,0
1486894969.335,28.809,14.648,42.480,27.344,7.812,0
1486894969.339,26.367,7.812,31.738,24.902,19.531,0
1486894969.343,17.090,0.977,27.832,13.672,91.797,0
1486894969.347,16.113,8.789,34.668,13.184,68.359,0
1486894969.351,26.855,22.461,24.414,21.484,-20.996,0
1486894969.354,33.203,36.133,15.137,25.391,15.137,0
1486894969.358,28.320,14.160,27.832,20.996,45.898,0
1486894969.362,18.555,-5.371,23.438,13.184,28.320,0
1486894969.366,18.555,5.859,34.668,14.160,16.602,0
1486894969.370,27.344,18.555,46.387,20.996,18.066,0
1486894969.374,31.250,19.043,20.996,24.902,33.691,0
1486894969.378,29.297,15.137,11.719,23.926,35.645,0
1486894969.382,29.297,16.113,37.109,20.508,41.504,0
1486894969.386,27.344,17.090,40.527,19.043,5.371,0
1486894969.390,22.461,13.672,28.320,18.066,1.465,0
1486894969.394,21.973,0.488,18.555,11.719,38.086,0
1486894969.397,23.438,12.207,17.090,13.672,23.438,0
1486894969.401,20.020,12.207,4.395,9.766,32.227,0
1486894969.405,28.320,6.348,-16.602,6.836,47.852,0
1486894969.409,35.645,18.066,-28.320,9.277,35.645,0
1486894969.413,23.438,3.418,-20.508,0.000,4.395,0
1486894969.417,26.855,3.906,13.184,3.906,-14.160,0
1486894969.421,36.133,18.555,44.434,11.719,16.113,0
1486894969.425,33.203,10.254,46.387,14.160,6.836,0
1486894969.429,32.715,-0.977,29.297,15.625,2.930,0
1486894969.433,45.410,6.348,26.855,20.020,53.223,0
1486894969.437,52.734,12.207,33.203,26.367,62.988,0
1486894969.440,53.223,17.090,38.086,31.250,48.340,0
1486894969.444,49.316,9.766,37.109,27.344,33.203,0
1486894969.448,42.480,1.953,9.277,19.043,-22.461,0
1486894969.452,40.039,7.324,1.465,16.113,5.859,0
1486894969.456,45.898,14.648,33.691,31.250,44.434,0
1486894969.460,45.898,23.438,55.664,36.621,47.852,0
1486894969.464,45.410,18.555,44.922,32.715,44.434,0
1486894969.468,40.039,0.977,28.320,31.738,48.828,0
1486894969.472,37.109,9.766,39.062,34.180,49.805,0
1486894969.476,43.457,28.809,50.781,40.527,38.086,0
1486894969.479,42.480,27.832,59.082,34.668,66.406,0
1486894969.483,43.945,23.438,73.730,38.086,52.734,0
1486894969.487,46.875,30.762,53.223,47.852,50.293,0
1486894969.491,36.621,27.832,9.766,35.156,43.945,0
1486894969.495,30.762,14.648,0.977,36.133,16.113,0
1486894969.499,47.852,30.273,35.645,57.617,33.691,0
1486894969.503,43.945,37.598,68.359,59.570,19.043,0
1486894969.507,34.180,30.762,76.172,47.852,25.879,0
1486894969.511,32.715,27.344,72.266,38.086,21.973,0
1486894969.515,34.668,31.738,75.195,35.156,0.977,0
1486894969.519,37.598,35.156,75.684,41.016,24.902,0
1486894969.522,40.039,23.438,33.691,40.527,37.109,0
1486894969.526,30.273,23.926,13.184,24.902,6.348,0
1486894969.530,20.020,28.809,35.645,16.113,3.418,0
1486894969.534,28.809,31.250,41.504,23.438,-12.695,0
1486894969.538,37.598,40.039,57.617,27.344,44.434,0
1486894969.542,36.621,41.016,67.871,23.438,65.918,0
1486894969.546,25.391,34.668,56.152,16.602,-1.465,0
1486894969.550,28.320,31.738,40.039,16.113,7.812,0
1486894969.554,42.480,37.598,51.270,27.832,28.320,0
1486894969.558,45.898,43.457,65.918,37.109,27.832,0
1486894969.562,56.152,47.363,46.387,46.875,7.324,0
1486894969.565,68.359,57.129,56.152,56.152,14.648,0
1486894969.569,66.895,62.500,65.918,52.734,0.977,0
1486894969.573,66.895,52.246,63.965,60.059,28.320,0
1486894969.577,63.477,36.621,74.707,60.059,40.527,0
1486894969.581,50.293,35.156,54.688,45.898,5.371,0
1486894969.585,54.688,34.668,43.945,48.828,-13.184,0
1486894969.589,46.875,23.438,48.340,39.062,-2.930,0
1486894969.593,41.016,28.809,57.129,38.086,42.969,0
1486894969.597,42.480,31.250,28.809,38.574,55.664,0
1486894969.601,33.203,10.254,1.953,22.461,-5.371,0
1486894969.604,30.762,10.742,11.230,19.043,-31.738,0
1486894969.608,35.156,19.043,8.301,26.855,-4.395,0
1486894969.612,21.484,4.883,10.254,12.207,5.371,0
1486894969.616,17.578,-3.418,29.297,2.930,-1.465,0
1486894969.620,18.066,0.977,37.598,3.906,25.391,0
1486894969.624,9.277,-0.977,26.367,2.930,69.336,0
1486894969.628,19.531,-5.859,27.344,14.648,37.598,0
1486894969.632,42.480,11.230,43.945,24.414,34.668,0
1486894969.636,53.711,33.691,34.180,36.133,112.305,0
1486894969.640,54.199,53.223,10.742,42.969,109.863,0
1486894969.644,50.293,52.246,10.254,36.133,69.336,0
1486894969.647,55.176,41.504,28.809,35.156,18.066,0
1486894969.651,54.688,45.898,64.453,40.527,7.812,0
1486894969.655,54.688,44.922,74.219,42.969,84.961,0
1486894969.659,63.965,45.898,60.059,48.828,118.652,0
1486894969.663,52.734,29.297,48.340,40.527,70.801,0
1486894969.667,33.203,10.254,28.320,21.973,22.949,0
1486894969.671,27.832,6.348,11.230,20.508,15.137,0
1486894969.675,29.785,3.418,14.648,22.949,41.016,0
1486894969.679,34.668,10.254,26.855,31.738,49.805,0
1486894969.683,46.875,18.066,45.898,48.340,14.648,0
1486894969.687,57.129,25.391,49.805,56.641,44.922,0
1486894969.690,60.547,37.109,21.973,67.383,48.828,0
1486894969.694,55.176,28.809,15.137,68.848,37.109,0
1486894969.698,55.176,22.949,28.809,69.336,0.488,0
1486894969.702,51.758,21.484,20.020,58.594,-20.020,0
1486894969.706,37.109,14.648,20.996,41.992,-4.883,0
1486894969.710,34.668,16.602,28.320,45.410,55.664,0
1486894969.714,46.875,27.344,45.410,59.570,57.129,0
1486894969.718,53.711,31.250,64.453,63.965,26.367,0
1486894969.722,49.316,23.926,42.480,56.152,56.641,0
1486894969.726,31.250,4.395,9.277,36.621,45.410,0
1486894969.729,24.902,-2.441,10.254,29.297,38.086,0
1486894969.733,26.855,-7.812,-3.906,25.879,36.621,0
1486894969.737,23.438,-29.297,-37.598,30.273,44.434,0
1486894969.741,28.320,-17.578,-35.156,42.480,37.598,0
1486894969.745,30.273,13.672,-26.367,35.156,21.973,0
1486894969.749,44.434,22.949,8.789,43.457,8.789,0
1486894969.753,54.688,16.602,40.039,48.828,7.324,0
1486894969.757,54.688,22.461,36.621,34.180,7.812,0
1486894969.761,57.617,28.320,32.715,25.879,7.812,0
1486894969.765,67.383,25.879,34.180,26.855,47.852,0
1486894969.769,76.172,28.809,32.227,24.414,7.812,0
1486894969.772,76.660,35.645,31.738,24.414,-4.395,0
1486894969.776,73.730,44.922,34.668,37.109,53.223,0
1486894969.780,67.383,43.945,8.301,56.641,51.758,0
1486894969.784,51.758,18.066,-2.930,60.547,42.480,0
1486894969.788,31.738,12.207,29.785,41.992,46.387,0
1486894969.792,23.926,22.461,50.781,35.645,77.148,0
1486894969.796,29.297,19.531,44.922,41.504,69.336,0
1486894969.800,29.785,17.090,44.434,34.180,-21.973,0
1486894969.804,25.391,13.184,42.969,23.926,-19.043,0
1486894969.808,25.391,8.789,28.320,28.809,66.406,0
1486894969.812,29.297,-1.953,20.020,29.785,68.848,0
1486894969.815,27.832,-5.859,-5.371,26.367,12.695,0
1486894969.819,27.832,9.277,-30.273,27.344,-0.488,0
1486894969.823,28.320,18.555,-9.766,23.438,4.883,0
1486894969.827,33.203,20.508,26.855,33.691,35.645,0
1486894969.831,40.039,12.695,34.668,44.434,1.953,0
1486894969.835,39.551,2.930,33.691,40.527,-12.207,0
1486894969.839,27.832,4.395,36.133,24.902,31.738,0
1486894969.843,16.113,9.277,33.203,14.648,23.926,0
1486894969.847,16.113,4.883,27.344,19.531,17.578,0
1486894969.851,11.719,-0.977,32.715,19.531,8.789,0
1486894969.854,8.789,4.883,17.578,15.137,15.625,0
1486894969.858,14.648,8.301,-4.395,20.020,40.039,0
1486894969.862,19.043,15.625,10.742,23.926,42.969,0
1486894969.866,23.438,17.090,43.457,24.902,0.488,0
1486894969.870,25.391,3.418,54.688,18.555,10.254,0
1486894969.874,14.648,0.488,40.527,6.836,37.109,0
1486894969.878,9.766,4.883,26.367,8.301,44.434,0
1486894969.882,26.367,25.391,16.602,21.973,38.574,0
1486894969.886,33.203,34.668,18.066,29.297,20.020,0
1486894969.890,25.391,13.184,44.434,25.391,20.996,0
1486894969.894,23.438,6.348,53.711,27.344,75.195,0
1486894969.897,39.062,36.133,59.570,43.457,53.223,0
1486894969.901,49.316,49.316,46.387,51.270,-12.207,0
1486894969.905,43.945,41.992,13.672,45.410,2.441,0
1486894969.909,46.387,39.551,36.621,46.875,39.062,0
1486894969.913,41.016,22.949,62.500,45.410,37.598,0
1486894969.917,23.926,3.906,51.270,31.250,-18.555,0
1486894969.921,20.996,-2.930,39.062,23.438,-11.230,0
1486894969.925,21.484,2.930,19.043,34.180,24.414,0
1486894969.929,23.438,7.812,21.484,38.086,43.945,0
1486894969.933,42.969,15.137,34.668,35.645,57.129,0
1486894969.937,54.688,33.691,42.480,53.711,25.391,0
1486894969.940,58.105,38.574,54.688,71.777,19.531,0
1486894969.944,73.242,32.227,47.363,73.730,21.973,0
1486894969.948,62.500,26.367,46.875,54.688,37.109,0
1486894969.952,29.785,9.766,53.711,21.973,26.855,0
1486894969.956,13.672,8.789,59.570,15.137,2.441,0
1486894969.960,16.113,16.113,47.852,20.508,15.625,0
1486894969.964,23.438,12.695,29.785,20.508,18.555,0
1486894969.968,29.297,11.719,41.504,26.855,19.043,0
1486894969.972,26.855,14.160,54.199,23.926,17.090,0
1486894969.976,24.902,12.207,38.574,24.414,33.203,0
1486894969.979,40.039,22.949,26.855,33.691,20.508,0
1486894969.983,36.621,20.020,16.602,26.855,-6.348,0
1486894969.987,19.531,3.418,15.137,8.301,-4.883,0
1486894969.991,7.812,-19.531,4.395,-12.207,36.621,0
1486894969.995,9.277,-29.297,13.672,-16.602,44.922,0
1486894969.999,17.578,-6.348,33.203,-9.277,20.508,0
1486894970.003,22.461,15.625,23.438,0.000,-1.465,0
1486894970.007,34.668,19.043,21.484,8.301,26.855,0
1486894970.011,35.645,8.789,15.625,9.766,64.453,0
1486894970.015,40.527,10.742,35.156,20.020,11.719,0
1486894970.019,42.969,5.859,58.105,24.414,20.020,0
1486894970.022,37.109,7.324,44.434,18.555,32.715,0
1486894970.026,36.621,20.996,39.062,15.137,4.883,0
1486894970.030,34.180,14.648,28.320,11.230,30.762,0
1486894970.034,35.645,16.602,4.395,19.043,21.973,0
1486894970.038,29.297,22.461,18.066,19.531,6.348,0
1486894970.042,21.484,25.879,41.016,18.555,17.578,0
1486894970.046,21.484,22.461,56.152,21.973,17.090,0
1486894970.050,29.785,19.531,75.684,19.043,29.785,0
1486894970.054,29.785,17.090,79.102,20.508,57.129,0
1486894970.058,20.508,13.672,62.012,20.508,68.848,0
1486894970.062,19.531,23.438,50.293,12.207,35.156,0
1486894970.065,9.277,15.137,25.391,-0.488,-4.883,0
1486894970.069,1.953,8.789,12.207,0.488,23.926,0
1486894970.073,3.906,11.719,35.156,6.348,30.273,0
1486894970.077,-1.465,3.418,24.414,1.953,31.738,0
1486894970.081,-0.977,-2.441,14.648,7.324,56.641,0
1486894970.085,8.789,11.719,48.828,16.113,31.250,0
1486894970.089,10.742,20.996,67.871,13.672,9.277,0
1486894970.093,6.348,9.277,64.453,13.184,6.348,0
1486894970.097,3.906,0.977,52.734,7.812,24.902,0
1486894970.101,3.418,-1.953,29.297,3.906,28.320,0
1486894970.104,5.859,7.812,25.391,11.719,50.781,0
1486894970.108,-3.906,-3.418,5.859,7.324,82.520,0
1486894970.112,-4.395,-13.184,-4.395,3.906,27.832,0
1486894970.116,15.137,-1.465,31.250,14.160,3.418,0
1486894970.120,10.742,-0.977,34.180,9.277,19.043,0
1486894970.124,-3.418,-2.930,10.742,1.465,10.742,0
1486894970.128,1.953,-0.977,25.879,4.883,17.578,0
1486894970.132,18.555,1.465,49.805,17.578,20.996,0
1486894970.136,35.156,6.836,59.082,32.227,7.324,0
1486894970.140,30.273,12.207,58.594,33.203,49.805,0
1486894970.144,16.113,4.395,56.641,24.902,92.285,0
1486894970.147,22.461,-5.859,36.621,28.320,47.852,0
1486894970.151,33.691,16.113,16.113,46.875,40.039,0
1486894970.155,36.621,36.621,18.555,51.270,81.543,0
1486894970.159,37.598,19.531,29.297,44.922,53.711,0
