timestamps,TP9,AF7,AF8,TP10,Right AUX,Marker0
1486808824.609,35.645,58.105,36.133,21.484,132.812,0
1486808824.613,55.176,49.316,59.082,53.223,134.766,0
1486808824.617,53.223,63.477,60.547,77.637,89.844,0
1486808824.621,38.574,46.387,-4.395,64.941,98.145,0
1486808824.625,37.109,14.160,-47.363,36.621,125.977,0
1486808824.629,32.715,18.066,-83.984,36.133,134.766,0
1486808824.633,0.000,46.387,-48.828,40.039,130.371,0
1486808824.637,25.879,62.012,69.824,67.871,89.844,0
1486808824.640,49.805,57.129,110.352,72.754,57.129,0
1486808824.644,-1.953,40.527,55.176,15.137,103.516,0
1486808824.648,10.254,27.344,1.465,37.598,136.230,0
1486808824.652,24.902,27.832,-25.391,63.965,103.027,0
1486808824.656,32.715,24.902,-27.344,52.734,101.562,0
1486808824.660,47.363,31.738,5.371,48.828,155.273,0
1486808824.664,50.293,50.293,59.570,42.969,142.578,0
1486808824.668,46.387,49.805,37.598,31.738,115.723,0
1486808824.672,38.086,35.156,15.137,39.551,126.465,0
1486808824.676,21.973,33.203,34.180,43.945,133.301,0
1486808824.680,5.371,34.668,6.836,34.668,133.301,0
1486808824.683,5.371,25.879,-7.324,47.363,89.844,0
1486808824.687,7.324,8.301,0.488,37.598,68.359,0
1486808824.691,7.324,-2.441,-5.371,11.719,93.262,0
1486808824.695,8.789,6.836,1.953,12.695,117.188,0
1486808824.699,18.066,41.992,7.324,29.785,110.840,0
1486808824.703,19.531,43.945,-31.738,35.645,119.141,0
1486808824.707,34.668,20.020,-27.832,40.039,145.508,0
1486808824.711,36.621,23.438,4.883,40.527,131.836,0
1486808824.715,14.648,21.973,24.902,4.395,103.027,0
1486808824.719,4.395,16.113,42.480,-4.395,101.074,0
1486808824.723,-13.184,33.203,28.809,9.766,104.004,0
1486808824.726,-0.488,13.184,17.090,12.695,85.449,0
1486808824.730,26.367,-8.301,10.742,24.414,95.703,0
1486808824.734,25.879,16.602,-5.859,31.250,92.773,0
1486808824.738,23.438,27.832,-1.953,18.555,83.984,0
1486808824.742,42.480,58.594,34.668,44.922,103.027,0
1486808824.746,55.664,70.312,32.715,71.777,122.559,0
1486808824.750,56.152,53.223,47.852,51.758,144.043,0
1486808824.754,53.711,46.875,72.266,71.289,142.578,0
1486808824.758,34.180,24.902,76.660,71.289,132.812,0
1486808824.762,28.320,16.602,79.102,31.738,113.281,0
1486808824.765,50.293,40.527,83.984,45.898,94.727,0
1486808824.769,49.805,58.105,73.730,55.664,78.125,0
1486808824.773,22.461,55.176,41.016,35.645,71.777,0
1486808824.777,30.762,46.387,-33.203,45.410,98.633,0
1486808824.781,76.660,41.992,-64.453,78.613,134.277,0
1486808824.785,91.309,59.570,27.344,95.703,85.449,0
1486808824.789,48.828,52.734,82.520,49.805,59.570,0
1486808824.793,18.066,22.461,59.082,8.789,90.820,0
1486808824.797,12.207,13.184,52.246,9.766,108.887,0
1486808824.801,8.789,12.695,53.711,26.855,79.590,0
1486808824.805,0.488,11.230,50.293,29.785,60.059,0
1486808824.808,12.207,13.184,24.902,26.367,68.359,0
1486808824.812,24.902,27.344,-6.348,36.621,69.824,0
1486808824.816,20.508,37.598,0.000,24.414,59.570,0
1486808824.820,14.160,30.762,-30.273,14.160,54.688,0
1486808824.824,40.527,43.945,-52.734,53.711,73.730,0
1486808824.828,54.688,52.246,5.371,57.617,101.562,0
1486808824.832,40.039,59.570,80.566,42.969,87.402,0
1486808824.836,35.156,33.691,66.895,56.641,56.152,0
1486808824.840,0.000,-13.184,37.109,47.852,66.406,0
1486808824.844,0.000,23.438,62.988,38.574,74.219,0
1486808824.848,43.457,58.594,76.660,42.969,91.797,0
1486808824.851,53.223,51.758,50.781,38.086,79.590,0
1486808824.855,41.016,36.621,30.762,35.156,71.777,0
1486808824.859,20.508,4.883,10.742,28.809,117.188,0
1486808824.863,22.461,3.906,-8.789,35.156,90.332,0
1486808824.867,47.852,28.320,7.812,62.500,34.668,0
1486808824.871,44.922,38.086,20.020,52.734,97.168,0
1486808824.875,53.711,49.805,49.316,60.547,109.375,0
1486808824.879,59.082,45.410,81.543,71.777,97.656,0
1486808824.883,34.180,28.809,72.266,57.129,107.910,0
1486808824.887,20.508,54.199,19.531,30.762,85.938,0
1486808824.890,20.508,46.387,-14.648,-8.301,88.867,0
1486808824.894,25.879,27.832,19.043,6.348,100.098,0
1486808824.898,41.016,62.988,54.199,37.109,117.188,0
1486808824.902,45.898,54.199,45.898,39.062,114.258,0
1486808824.906,23.438,7.812,14.648,17.090,120.117,0
1486808824.910,26.855,25.879,40.039,27.344,127.441,0
1486808824.914,13.184,50.781,59.570,23.926,115.234,0
1486808824.918,4.883,43.945,40.527,11.719,93.750,0
1486808824.922,12.695,39.551,69.824,16.602,69.336,0
1486808824.926,3.906,31.250,52.734,42.480,84.473,0
1486808824.930,43.945,41.504,15.137,63.965,129.395,0
1486808824.933,70.801,56.152,2.930,52.734,142.090,0
1486808824.937,4.883,26.367,-2.930,8.789,121.582,0
1486808824.941,-8.789,15.137,20.020,-5.371,135.254,0
1486808824.945,10.742,18.066,18.555,18.066,144.531,0
1486808824.949,-11.719,5.859,-35.645,2.441,137.695,0
1486808824.953,31.250,36.133,-41.992,60.547,139.160,0
1486808824.957,76.172,53.223,41.016,101.074,128.418,0
1486808824.961,27.344,45.898,56.152,29.785,142.090,0
1486808824.965,9.766,31.738,11.230,13.184,140.625,0
1486808824.969,1.953,-1.465,-20.508,33.691,110.352,0
1486808824.973,0.977,2.441,-17.090,37.598,143.066,0
1486808824.976,25.879,18.066,44.434,32.715,190.430,0
1486808824.980,16.602,29.785,62.012,36.133,171.875,0
1486808824.984,-9.766,40.039,21.484,41.992,119.141,0
1486808824.988,-12.695,25.879,-9.277,24.902,146.973,0
1486808824.992,13.184,20.508,10.254,33.203,192.871,0
1486808824.996,12.695,20.508,-1.465,33.203,162.598,0
1486808825.000,26.367,37.109,-48.340,41.992,152.344,0
1486808825.004,62.012,72.266,-28.809,70.312,177.246,0
1486808825.008,59.082,57.129,70.801,77.637,178.711,0
1486808825.012,8.789,19.531,118.164,43.945,141.602,0
1486808825.015,-36.133,-9.277,59.082,0.488,154.297,0
1486808825.019,-34.668,-14.648,-39.551,-6.836,189.453,0
1486808825.023,6.836,20.508,-28.809,16.602,204.102,0
1486808825.027,46.387,53.223,37.109,59.570,212.402,0
1486808825.031,44.922,65.430,34.668,52.246,213.379,0
1486808825.035,54.688,62.500,8.789,45.410,227.051,0
1486808825.039,62.500,48.340,-3.418,63.477,227.539,0
1486808825.043,35.156,15.137,-24.414,45.410,230.469,0
1486808825.047,19.043,-12.695,-24.414,46.387,241.699,0
1486808825.051,13.672,-11.230,27.344,41.504,222.656,0
1486808825.055,11.230,20.508,62.988,33.691,218.750,0
1486808825.058,43.945,61.523,52.246,88.379,232.422,0
1486808825.062,54.688,57.129,27.832,112.793,252.441,0
1486808825.066,25.391,55.176,41.504,87.402,250.488,0
1486808825.070,17.090,45.410,41.016,63.965,240.723,0
1486808825.074,58.594,57.129,65.430,90.820,250.000,0
1486808825.078,62.988,67.383,75.195,114.746,257.324,0
1486808825.082,26.367,37.598,40.527,99.609,262.207,0
1486808825.086,27.344,37.109,22.461,89.355,236.328,0
1486808825.090,21.973,39.062,31.738,62.988,302.734,0
1486808825.094,20.508,27.344,64.453,65.430,431.152,0
1486808825.098,38.086,45.410,54.688,71.289,445.801,0
1486808825.101,46.387,40.039,47.363,72.754,407.715,0
1486808825.105,43.945,31.250,51.270,83.984,389.648,0
1486808825.109,53.223,56.152,0.488,83.496,426.270,0
1486808825.113,57.129,74.707,-51.758,100.098,401.855,0
1486808825.117,53.223,57.617,-1.953,99.609,344.238,0
1486808825.121,28.320,38.086,60.547,49.316,330.566,0
1486808825.125,12.207,34.668,34.180,26.367,360.840,0
1486808825.129,33.203,39.551,43.945,62.988,365.234,0
1486808825.133,29.785,38.574,58.594,63.965,332.520,0
1486808825.137,54.688,55.176,72.266,87.402,320.312,0
1486808825.140,82.520,70.312,113.281,117.676,297.363,0
1486808825.144,50.781,46.387,63.477,90.332,257.812,0
1486808825.148,31.738,31.738,-29.785,73.730,253.418,0
1486808825.152,41.992,41.504,22.461,75.195,274.414,0
1486808825.156,40.039,62.500,83.984,87.402,296.387,0
1486808825.160,44.922,74.219,69.824,104.980,299.805,0
1486808825.164,58.594,70.801,57.129,85.938,290.527,0
1486808825.168,53.711,83.984,48.340,69.824,280.273,0
1486808825.172,73.242,82.520,94.727,106.934,253.418,0
1486808825.176,75.684,61.035,91.797,111.816,277.832,0
1486808825.180,69.336,65.430,41.016,89.844,268.066,0
1486808825.183,78.613,75.195,53.711,89.844,257.324,0
1486808825.187,65.918,64.453,53.711,83.984,282.715,0
1486808825.191,70.312,60.059,33.203,82.031,262.695,0
1486808825.195,69.824,57.129,50.781,80.078,269.043,0
1486808825.199,51.270,54.688,27.344,82.031,279.297,0
1486808825.203,49.316,78.613,29.297,102.051,266.113,0
1486808825.207,49.805,75.195,55.664,109.375,239.258,0
1486808825.211,27.344,43.457,70.312,91.309,228.516,0
1486808825.215,22.461,36.621,41.992,61.523,237.305,0
1486808825.219,26.855,38.086,-8.789,43.457,253.418,0
1486808825.223,50.781,42.480,20.020,74.219,265.137,0
1486808825.226,66.895,39.551,55.176,86.914,285.156,0
1486808825.230,48.340,28.320,28.320,69.336,288.574,0
1486808825.234,60.547,38.086,24.902,71.777,259.277,0
1486808825.238,85.938,58.594,14.160,104.004,219.238,0
1486808825.242,65.918,62.012,-18.555,84.473,191.406,0
1486808825.246,46.387,46.387,-20.996,60.547,192.871,0
1486808825.250,67.871,36.621,15.625,88.867,166.016,0
1486808825.254,55.664,36.621,64.941,70.312,110.352,0
1486808825.258,15.625,18.066,43.457,27.832,110.352,0
1486808825.262,16.602,17.090,29.297,35.645,112.305,0
1486808825.265,40.039,56.641,-2.441,77.637,81.543,0
1486808825.269,51.270,75.195,-15.625,98.145,65.918,0
1486808825.273,81.055,90.332,66.895,117.188,43.945,0
1486808825.277,94.238,106.445,94.238,121.582,35.156,0
1486808825.281,60.059,53.711,35.156,78.613,41.016,0
1486808825.285,19.043,-1.953,-1.465,48.340,-16.602,0
1486808825.289,20.508,-1.465,36.621,57.129,-41.992,0
1486808825.293,5.859,5.859,35.645,54.199,-20.020,0
1486808825.297,0.977,11.230,20.996,48.340,-55.664,0
1486808825.301,14.648,9.277,-73.730,46.875,-59.082,0
1486808825.305,32.715,38.574,-178.223,59.570,-61.035,0
1486808825.308,40.039,60.547,-183.594,62.500,-105.957,0
1486808825.312,15.625,14.648,-185.059,60.059,-83.496,0
1486808825.316,-7.812,1.465,-154.297,41.992,-82.520,0
1486808825.320,-0.977,13.184,-161.621,19.531,-103.027,0
1486808825.324,32.227,15.137,-188.965,46.387,-120.117,0
1486808825.328,29.785,31.250,-138.672,50.293,-110.840,0
1486808825.332,9.277,15.625,-86.914,50.781,-74.707,0
1486808825.336,8.789,4.395,-79.102,48.340,-64.453,0
1486808825.340,21.484,23.438,-117.676,59.082,-88.867,0
1486808825.344,23.926,3.906,-163.574,67.871,-113.770,0
1486808825.348,27.832,-11.719,-131.348,53.223,-114.258,0
1486808825.351,18.066,7.812,-101.562,39.551,-115.723,0
1486808825.355,28.320,20.020,-104.492,70.312,-139.160,0
1486808825.359,48.340,38.574,-30.273,95.703,-117.188,0
1486808825.363,33.203,61.035,-0.977,68.359,-110.352,0
1486808825.367,32.227,60.547,-63.965,62.500,-145.996,0
1486808825.371,23.926,44.434,-38.086,47.363,-164.551,0
1486808825.375,12.695,38.574,-53.223,23.926,-182.617,0
1486808825.379,46.387,38.574,-64.453,42.969,-192.871,0
1486808825.383,60.059,22.949,-39.062,63.477,-178.223,0
1486808825.387,55.176,34.180,-20.508,78.613,-186.035,0
1486808825.390,57.129,57.129,5.371,90.820,-202.148,0
1486808825.394,47.363,51.758,12.695,85.449,-164.062,0
1486808825.398,45.410,49.805,-20.508,83.496,-162.109,0
1486808825.402,39.062,36.133,-29.785,60.547,-223.633,0
1486808825.406,19.043,27.832,-0.488,24.414,-224.121,0
1486808825.410,23.926,31.738,-12.207,26.367,-166.992,0
1486808825.414,17.578,27.832,-57.129,38.574,-189.453,0
1486808825.418,5.859,40.039,-60.059,44.434,-195.801,0
1486808825.422,43.457,53.711,-31.250,66.895,-173.828,0
1486808825.426,63.477,46.387,-25.391,75.684,-199.707,0
1486808825.430,54.688,66.406,48.828,80.078,-210.938,0
1486808825.433,66.406,100.586,65.430,97.168,-215.332,0
1486808825.437,51.270,73.242,0.000,72.266,-201.660,0
1486808825.441,33.203,58.105,1.465,52.246,-165.527,0
1486808825.445,51.758,74.219,33.691,73.242,-152.832,0
1486808825.449,50.293,68.359,-5.859,60.547,-143.066,0
1486808825.453,47.363,43.945,-31.738,56.152,-144.531,0
1486808825.457,49.805,29.297,-15.137,48.340,-142.578,0
1486808825.461,35.156,30.762,-23.438,20.508,-133.301,0
1486808825.465,43.945,36.621,-26.367,51.270,-145.508,0
1486808825.469,49.316,44.434,-13.184,73.242,-161.133,0
1486808825.473,28.809,37.598,-16.113,48.340,-146.484,0
1486808825.476,32.715,32.715,-10.254,37.598,-133.789,0
1486808825.480,43.457,38.574,-0.488,47.363,-148.438,0
1486808825.484,9.277,25.391,8.301,13.672,-155.273,0
1486808825.488,-10.742,8.301,-31.250,5.371,-152.832,0
1486808825.492,18.066,-12.207,-84.961,30.762,-145.508,0
1486808825.496,49.805,19.531,-63.965,54.688,-141.113,0
1486808825.500,83.984,84.961,-19.043,87.402,-136.719,0
1486808825.504,52.734,63.965,38.574,67.383,-143.066,0
1486808825.508,20.508,20.996,71.289,41.504,-149.902,0
1486808825.512,21.484,13.672,22.461,28.809,-148.926,0
1486808825.515,15.137,32.227,-13.184,41.504,-145.020,0
1486808825.519,10.742,27.344,1.465,57.129,-153.320,0
1486808825.523,0.977,4.883,52.246,28.809,-147.949,0
1486808825.527,3.906,23.926,72.266,13.672,-158.203,0
1486808825.531,25.391,37.598,22.461,40.039,-140.625,0
1486808825.535,19.043,43.457,-24.414,51.270,-150.879,0
1486808825.539,17.090,31.250,-30.762,35.645,-191.406,0
1486808825.543,47.852,19.043,35.645,50.293,-157.227,0
1486808825.547,28.809,30.762,117.188,56.641,-125.488,0
1486808825.551,23.438,22.949,79.590,52.246,-145.996,0
1486808825.555,22.949,14.648,22.949,39.551,-141.602,0
1486808825.558,-12.695,13.184,27.344,25.391,-115.234,0
1486808825.562,-26.367,14.160,12.207,24.902,-127.441,0
1486808825.566,14.648,15.137,28.809,55.176,-154.297,0
1486808825.570,20.996,11.230,13.672,60.547,-179.688,0
1486808825.574,4.883,23.438,0.000,38.086,-134.277,0
1486808825.578,67.383,54.199,52.246,77.148,-106.934,0
1486808825.582,92.773,85.449,71.289,98.145,-152.344,0
1486808825.586,75.195,86.426,88.867,100.098,-166.504,0
1486808825.590,64.941,86.426,96.191,101.074,-121.582,0
1486808825.594,65.430,90.820,83.984,106.934,-99.121,0
1486808825.598,66.406,68.848,89.355,108.398,-94.238,0
1486808825.601,47.363,47.363,67.383,74.219,-102.051,0
1486808825.605,16.113,19.043,3.906,41.016,-121.094,0
1486808825.609,11.719,35.156,18.555,46.875,-132.812,0
1486808825.613,50.293,69.336,32.715,89.844,-121.094,0
1486808825.617,72.754,84.473,51.758,101.074,-104.492,0
1486808825.621,43.457,68.359,91.797,68.848,-106.934,0
1486808825.625,23.438,50.781,89.355,59.570,-90.332,0
1486808825.629,46.387,62.012,127.441,71.289,-64.453,0
1486808825.633,31.250,47.852,140.625,64.941,-73.730,0
1486808825.637,22.949,43.945,80.078,46.387,-101.562,0
1486808825.640,27.832,35.156,39.062,34.180,-122.559,0
1486808825.644,12.695,7.812,-2.930,20.020,-116.699,0
1486808825.648,22.949,-11.719,-33.691,27.832,-84.961,0
1486808825.652,36.621,-4.883,55.664,48.828,-44.922,0
1486808825.656,19.043,37.109,126.465,41.016,-43.457,0
1486808825.660,15.625,61.523,125.977,37.598,-48.340,0
1486808825.664,26.367,60.059,94.727,39.062,-47.852,0
1486808825.668,11.230,48.828,43.457,32.227,-44.434,0
1486808825.672,21.973,56.641,24.902,29.785,-57.129,0
1486808825.676,37.598,47.363,20.020,34.180,-52.734,0
1486808825.680,32.715,29.297,50.781,33.691,-25.391,0
1486808825.683,42.480,55.664,116.699,54.688,-22.949,0
1486808825.687,36.621,66.406,114.746,49.316,-59.082,0
1486808825.691,43.457,68.848,27.344,48.340,-51.270,0
1486808825.695,62.988,79.102,-34.668,65.918,-10.254,0
1486808825.699,83.008,79.590,2.930,75.195,-21.484,0
1486808825.703,67.871,63.477,82.031,51.270,-42.969,0
1486808825.707,45.898,33.691,82.520,37.109,-51.758,0
1486808825.711,35.156,39.551,54.688,29.785,-34.180,0
1486808825.715,54.199,77.148,86.914,45.410,-19.043,0
1486808825.719,79.102,87.402,87.891,64.453,-51.758,0
1486808825.723,77.148,65.430,32.227,57.617,-59.082,0
1486808825.726,75.195,72.754,44.434,60.547,-42.969,0
1486808825.730,66.895,66.895,74.707,58.105,-36.133,0
1486808825.734,43.457,42.480,41.504,51.758,-36.133,0
1486808825.738,22.461,29.297,15.137,27.832,-22.949,0
1486808825.742,37.109,52.246,-8.789,26.367,-35.156,0
1486808825.746,72.754,74.707,-8.301,67.383,-46.387,0
1486808825.750,66.895,56.641,-55.664,66.895,-47.852,0
1486808825.754,54.688,56.641,-63.477,39.062,-56.641,0
1486808825.758,60.547,84.961,15.625,55.176,-18.555,0
1486808825.762,61.035,92.285,77.148,78.125,33.203,0
1486808825.765,73.730,75.195,80.078,78.125,35.156,0
1486808825.769,58.594,40.039,19.531,51.270,41.504,0
1486808825.773,36.621,43.945,-23.926,28.809,72.266,0
1486808825.777,56.641,49.805,-50.293,31.738,55.664,0
1486808825.781,61.035,49.805,-21.484,38.574,37.598,0
1486808825.785,58.105,67.383,6.836,48.828,24.414,0
1486808825.789,68.848,59.570,24.414,64.453,-31.738,0
1486808825.793,49.316,69.336,64.453,62.012,-26.367,0
1486808825.797,59.570,78.613,102.051,52.246,-17.090,0
1486808825.801,60.547,71.777,106.445,39.062,-37.598,0
1486808825.805,62.012,80.078,96.191,52.734,-62.012,0
1486808825.808,75.195,80.566,85.938,62.988,-76.172,0
1486808825.812,60.059,66.895,84.473,58.105,-58.594,0
1486808825.816,60.059,83.984,102.051,76.660,-29.297,0
1486808825.820,43.945,81.543,99.609,62.012,-52.734,0
1486808825.824,41.992,62.988,91.309,43.457,-84.961,0
1486808825.828,45.410,52.246,72.266,37.598,-56.641,0
1486808825.832,38.574,42.969,43.945,33.691,-43.457,0
1486808825.836,30.273,47.852,61.523,38.574,-66.406,0
1486808825.840,32.715,49.316,43.457,33.203,-93.750,0
1486808825.844,37.598,40.527,-30.273,44.922,-74.707,0
1486808825.848,41.016,41.016,-52.246,50.293,-63.965,0
1486808825.851,56.152,58.594,-44.434,53.711,-82.520,0
1486808825.855,53.223,48.828,-40.039,47.363,-107.422,0
1486808825.859,22.949,23.438,-67.383,20.020,-74.707,0
1486808825.863,45.410,45.410,-85.938,37.598,-72.754,0
1486808825.867,75.195,56.152,-51.270,49.316,-113.281,0
1486808825.871,38.086,24.902,-38.574,26.367,-92.773,0
1486808825.875,12.207,16.113,-42.969,3.906,-76.172,0
1486808825.879,49.316,44.922,-23.926,37.109,-94.727,0
1486808825.883,43.457,65.430,-20.508,57.129,-103.027,0
1486808825.887,2.441,42.480,2.930,11.719,-113.281,0
1486808825.890,1.465,15.137,22.461,-7.812,-101.074,0
1486808825.894,27.832,18.066,1.465,2.930,-108.398,0
1486808825.898,15.137,34.668,15.137,9.766,-160.645,0
1486808825.902,0.488,41.504,25.391,4.395,-172.852,0
1486808825.906,32.227,41.992,22.461,20.020,-124.512,0
1486808825.910,56.152,69.336,50.293,44.922,-129.395,0
1486808825.914,79.590,80.078,72.754,59.570,-126.953,0
1486808825.918,79.590,63.477,38.574,44.922,-108.887,0
1486808825.922,33.203,41.992,39.551,-1.953,-131.348,0
1486808825.926,24.902,31.738,88.379,-13.184,-142.090,0
1486808825.930,36.133,26.367,82.031,-17.090,-140.625,0
1486808825.933,27.832,39.551,59.082,-14.648,-139.160,0
1486808825.937,30.273,69.824,81.543,27.344,-148.926,0
1486808825.941,46.387,83.008,105.469,79.102,-184.082,0
1486808825.945,45.410,61.035,66.406,63.477,-191.406,0
1486808825.949,-5.371,32.715,53.223,5.859,-157.227,0
1486808825.953,-8.301,36.133,77.148,3.418,-143.066,0
1486808825.957,6.836,48.340,21.484,-8.301,-170.898,0
1486808825.961,-7.324,45.410,10.254,-17.090,-152.832,0
1486808825.965,28.320,42.480,90.332,28.809,-130.371,0
1486808825.969,43.945,64.941,86.426,49.805,-167.480,0
1486808825.973,23.438,74.219,81.543,35.156,-182.617,0
1486808825.976,26.855,61.523,121.094,45.898,-158.691,0
1486808825.980,42.480,49.316,92.773,59.082,-144.043,0
1486808825.984,37.598,70.312,50.293,44.434,-135.742,0
1486808825.988,34.668,86.914,58.594,53.223,-171.387,0
1486808825.992,47.363,58.594,36.621,58.105,-165.527,0
1486808825.996,37.598,64.941,-17.090,38.086,-102.539,0
1486808826.000,63.965,80.078,-61.523,58.594,-118.652,0
1486808826.004,81.055,62.500,5.859,75.684,-155.273,0
1486808826.008,39.551,45.410,125.000,40.039,-125.977,0
1486808826.012,11.230,52.734,127.441,19.043,-109.863,0
1486808826.015,-0.488,59.082,73.242,25.879,-123.047,0
1486808826.019,0.977,52.734,35.156,16.602,-107.422,0
1486808826.023,-1.953,52.246,-13.184,-14.160,-87.891,0
1486808826.027,12.695,58.105,-7.324,-10.742,-92.285,0
1486808826.031,12.695,43.457,52.734,18.066,-98.633,0
1486808826.035,7.324,42.480,93.262,31.738,-105.957,0
1486808826.039,34.180,79.590,63.965,34.668,-121.094,0
1486808826.043,43.457,78.125,48.340,50.293,-97.656,0
1486808826.047,33.203,51.270,69.824,29.297,-75.195,0
1486808826.051,17.090,37.109,31.250,6.836,-63.477,0
1486808826.055,8.789,12.207,0.977,4.883,-35.156,0
1486808826.058,27.344,30.273,49.316,30.762,-42.969,0
1486808826.062,41.992,56.641,41.016,69.336,-51.758,0
1486808826.066,32.715,26.367,-5.859,62.988,-50.293,0
1486808826.070,41.016,42.480,98.633,65.430,-54.199,0
1486808826.074,56.641,63.477,95.703,75.684,-40.527,0
1486808826.078,40.039,39.062,-18.555,60.059,0.977,0
1486808826.082,50.781,37.109,26.855,72.754,-12.695,0
1486808826.086,40.527,51.270,107.910,52.246,-42.480,0
1486808826.090,18.066,66.406,130.859,33.203,-41.016,0
1486808826.094,-1.953,40.039,64.941,16.113,-40.039,0
1486808826.098,-9.277,-8.301,32.227,-12.207,-30.273,0
1486808826.101,23.926,-1.465,32.715,34.180,-27.832,0
1486808826.105,55.176,29.297,-20.996,73.242,-20.020,0
1486808826.109,64.941,51.758,22.461,73.730,-20.020,0
1486808826.113,44.922,65.918,94.727,76.660,-21.484,0
1486808826.117,29.297,50.293,89.355,55.176,-23.438,0
1486808826.121,25.391,35.645,59.570,44.434,-54.199,0
1486808826.125,33.691,29.785,91.309,46.387,-53.223,0
1486808826.129,14.648,28.809,62.500,19.531,-40.527,0
1486808826.133,18.066,17.090,15.625,10.254,-46.387,0
1486808826.137,41.016,34.668,3.906,39.062,-65.430,0
1486808826.140,51.758,55.176,13.672,73.730,-45.898,0
1486808826.144,63.477,43.945,68.848,70.801,-5.859,0
1486808826.148,72.754,62.988,81.543,83.496,0.977,0
1486808826.152,48.828,62.012,51.270,75.195,-26.855,0
1486808826.156,39.551,58.105,46.387,52.734,-30.273,0
1486808826.160,59.570,84.473,73.730,58.105,14.160,0
1486808826.164,49.316,63.965,97.168,57.129,7.324,0
1486808826.168,46.875,28.809,81.543,60.547,-20.996,0
1486808826.172,37.109,44.434,30.762,16.113,-15.137,0
1486808826.176,66.895,64.453,54.199,51.758,4.395,0
1486808826.180,82.031,75.684,122.070,86.914,-1.465,0
1486808826.183,56.641,54.199,94.727,58.594,-4.395,0
1486808826.187,45.898,26.367,68.848,60.547,-1.465,0
1486808826.191,44.434,33.203,76.660,56.641,6.348,0
1486808826.195,36.133,33.203,66.406,43.457,10.254,0
1486808826.199,38.086,34.180,107.422,49.805,24.902,0
1486808826.203,54.688,50.293,116.211,71.777,52.246,0
1486808826.207,44.434,65.430,89.844,73.730,31.738,0
1486808826.211,40.039,66.895,69.824,72.754,20.020,0
1486808826.215,48.828,51.270,78.613,52.734,11.230,0
1486808826.219,27.344,39.062,92.285,26.855,33.691,0
1486808826.223,26.855,35.645,121.094,43.945,33.691,0
1486808826.226,43.945,21.973,126.465,45.410,3.906,0
1486808826.230,62.012,52.246,-8.301,61.035,27.344,0
1486808826.234,69.824,76.660,-21.973,82.520,53.223,0
1486808826.238,64.453,72.754,51.758,83.984,29.785,0
1486808826.242,60.547,66.895,45.410,73.730,17.090,0
1486808826.246,67.871,79.590,130.371,79.590,32.227,0
1486808826.250,88.379,95.215,194.336,105.957,16.602,0
1486808826.254,60.547,69.824,130.371,88.867,23.438,0
1486808826.258,39.551,55.664,38.574,73.730,22.949,0
1486808826.262,37.109,40.527,20.020,46.387,15.137,0
1486808826.265,20.020,21.484,52.734,20.508,58.105,0
1486808826.269,18.555,32.715,87.402,39.062,43.457,0
1486808826.273,28.809,59.082,32.715,62.988,0.977,0
1486808826.277,28.809,55.176,11.230,61.035,30.762,0
1486808826.281,24.902,33.203,101.562,53.223,41.992,0
1486808826.285,21.973,34.180,141.602,51.270,49.316,0
1486808826.289,23.438,44.434,98.633,43.945,54.199,0
1486808826.293,18.555,32.715,66.406,34.180,53.711,0
1486808826.297,31.738,51.758,32.715,46.387,47.363,0
1486808826.301,43.457,82.031,32.715,75.684,34.180,0
1486808826.305,23.926,60.547,45.410,71.289,17.090,0
1486808826.308,12.207,57.617,-4.395,43.457,-10.254,0
1486808826.312,39.062,69.824,-24.414,56.152,17.578,0
1486808826.316,62.988,62.988,-5.371,68.848,-20.020,0
1486808826.320,64.941,53.711,-4.883,76.660,-30.762,0
1486808826.324,62.988,47.852,10.254,71.289,38.086,0
1486808826.328,64.453,62.012,31.250,69.824,64.941,0
1486808826.332,60.547,75.684,1.465,82.520,5.859,0
1486808826.336,53.223,59.570,-46.387,60.059,-7.812,0
1486808826.340,52.734,52.246,20.996,67.383,29.297,0
1486808826.344,43.457,69.336,134.277,85.449,33.691,0
1486808826.348,43.945,66.895,175.293,56.641,49.805,0
1486808826.351,34.668,46.875,128.906,28.809,28.809,0
1486808826.355,14.648,41.016,50.293,30.273,20.508,0
1486808826.359,27.344,61.523,36.133,52.246,26.367,0
1486808826.363,49.805,84.473,29.297,76.172,18.066,0
1486808826.367,48.340,78.125,15.137,66.895,24.414,0
1486808826.371,18.555,43.457,4.883,40.039,7.812,0
1486808826.375,-2.441,21.973,21.484,31.738,13.672,0
1486808826.379,7.324,38.086,17.578,31.738,-7.812,0
1486808826.383,9.277,31.738,-1.953,13.184,-12.207,0
1486808826.387,9.277,26.367,-0.488,17.090,3.906,0
1486808826.390,39.062,51.758,50.781,47.363,-8.789,0
1486808826.394,32.715,59.570,63.477,33.691,-5.371,0
1486808826.398,13.184,41.016,7.812,17.090,4.883,0
1486808826.402,35.156,42.969,94.727,49.316,1.953,0
1486808826.406,36.621,54.688,153.320,61.035,-20.020,0
1486808826.410,23.926,56.641,74.219,47.852,-19.531,0
1486808826.414,25.879,61.035,21.973,63.477,7.324,0
1486808826.418,33.203,61.523,36.621,62.500,15.625,0
1486808826.422,45.410,67.871,36.133,47.852,-5.859,0
1486808826.426,20.996,50.781,-38.574,23.926,7.324,0
1486808826.430,8.301,28.809,-72.754,14.160,26.855,0
1486808826.433,22.461,63.965,-46.875,45.410,4.883,0
1486808826.437,37.109,78.125,7.812,62.500,-11.230,0
1486808826.441,44.922,48.828,83.008,63.965,-11.230,0
1486808826.445,35.645,32.227,78.125,54.688,22.461,0
1486808826.449,37.598,38.574,57.129,61.523,5.371,0
1486808826.453,47.852,48.828,22.949,75.195,-23.926,0
1486808826.457,56.641,67.383,-27.832,65.430,6.348,0
1486808826.461,57.129,78.125,-27.344,63.965,16.113,0
1486808826.465,41.016,55.176,25.879,50.781,2.441,0
1486808826.469,18.555,35.645,49.805,26.367,-20.020,0
1486808826.473,22.461,37.109,24.902,59.082,1.465,0
1486808826.476,43.945,70.801,55.176,91.309,8.301,0
1486808826.480,41.992,84.473,113.281,67.871,-13.672,0
1486808826.484,14.160,53.711,103.516,30.762,-19.043,0
1486808826.488,-17.578,6.836,35.645,7.812,10.254,0
1486808826.492,-12.695,-2.441,33.203,17.090,36.621,0
1486808826.496,-12.695,20.020,46.387,9.277,5.859,0
1486808826.500,-2.441,39.062,53.711,27.832,-0.977,0
1486808826.504,29.785,54.688,62.500,62.500,2.441,0
1486808826.508,34.668,77.637,-29.785,56.152,2.441,0
1486808826.512,55.176,80.566,-34.180,63.965,18.066,0
1486808826.515,55.664,59.570,29.785,62.500,11.230,0
1486808826.519,20.508,47.363,83.008,30.762,29.785,0
1486808826.523,-6.348,36.621,76.172,4.395,30.762,0
1486808826.527,-11.230,23.438,30.273,-5.371,0.977,0
1486808826.531,11.719,34.180,-18.066,17.090,6.348,0
1486808826.535,34.180,40.039,-52.734,40.039,22.949,0
1486808826.539,51.758,47.852,14.648,58.105,3.906,0
1486808826.543,48.828,44.434,75.684,51.758,30.762,0
1486808826.547,25.391,28.320,74.219,37.598,72.266,0
1486808826.551,37.109,49.805,42.480,51.270,44.434,0
1486808826.555,57.617,80.566,8.301,61.035,-0.977,0
1486808826.558,43.945,56.641,12.207,41.992,23.926,0
1486808826.562,23.926,27.832,27.344,19.531,56.152,0
1486808826.566,22.461,38.574,2.441,41.504,37.598,0
1486808826.570,18.555,42.969,21.973,40.527,2.441,0
1486808826.574,30.762,37.109,50.781,20.996,11.230,0
1486808826.578,29.785,36.621,41.992,12.695,42.480,0
1486808826.582,39.551,59.570,20.508,45.410,67.383,0
1486808826.586,58.594,86.426,56.152,80.078,41.992,0
1486808826.590,59.570,72.266,115.234,61.035,17.578,0
1486808826.594,49.316,49.805,80.078,38.574,39.551,0
1486808826.598,37.598,44.434,30.762,50.293,26.855,0
1486808826.601,39.062,38.086,41.992,48.828,22.461,0
1486808826.605,29.785,55.176,15.625,40.527,30.273,0
1486808826.609,33.203,48.340,-9.277,40.527,28.809,0
1486808826.613,47.363,33.691,26.367,43.945,27.344,0
1486808826.617,55.664,45.898,27.344,51.758,30.762,0
1486808826.621,61.035,54.688,13.672,58.594,19.531,0
1486808826.625,53.711,67.383,20.508,37.598,28.320,0
1486808826.629,61.523,89.355,67.871,34.180,36.621,0
1486808826.633,82.031,92.285,105.957,54.688,17.090,0
1486808826.637,74.219,67.383,47.852,38.086,18.555,0
1486808826.640,58.105,68.359,-30.762,38.086,19.531,0
1486808826.644,88.867,91.309,-46.875,70.801,43.945,0
1486808826.648,83.984,105.957,-37.109,74.219,43.945,0
1486808826.652,37.598,68.359,-38.086,44.434,24.414,0
1486808826.656,35.156,53.223,55.664,52.734,40.039,0
1486808826.660,45.898,66.895,81.055,80.566,63.965,0
1486808826.664,50.293,60.547,-1.465,67.383,62.988,0
1486808826.668,45.898,56.152,12.207,52.734,40.527,0
1486808826.672,27.344,46.875,79.102,63.477,52.246,0
1486808826.676,42.480,68.848,68.848,78.125,47.363,0
1486808826.680,59.570,88.379,34.668,96.680,34.668,0
1486808826.683,63.965,79.102,38.086,67.871,4.883,0
1486808826.687,54.199,68.848,28.809,28.320,7.812,0
1486808826.691,42.480,67.871,-14.160,40.039,5.371,0
1486808826.695,39.062,42.969,-67.871,45.898,-16.602,0
1486808826.699,28.320,7.812,-84.961,32.715,10.254,0
1486808826.703,21.973,32.715,-45.898,30.273,19.043,0
1486808826.707,29.297,68.359,50.781,51.270,6.836,0
1486808826.711,45.898,75.195,98.145,70.312,27.832,0
1486808826.715,43.457,72.754,59.570,65.918,44.922,0
1486808826.719,51.270,46.875,61.035,34.180,20.020,0
1486808826.723,22.461,36.133,36.133,3.418,2.441,0
1486808826.726,-13.672,45.410,2.441,-0.977,-10.254,0
1486808826.730,26.855,44.922,18.066,41.016,5.859,0
1486808826.734,67.383,62.500,12.207,67.383,3.906,0
1486808826.738,37.109,47.363,-45.898,26.367,6.348,0
1486808826.742,31.250,20.508,-104.492,30.762,20.020,0
1486808826.746,60.547,62.012,-74.219,60.059,10.254,0
1486808826.750,65.918,65.430,-73.242,54.688,-13.672,0
1486808826.754,40.527,40.039,-55.176,28.809,-15.137,0
1486808826.758,25.879,38.574,-18.066,17.578,30.273,0
1486808826.762,50.293,39.551,-18.066,43.945,62.012,0
1486808826.765,69.824,70.801,7.324,56.641,36.621,0
1486808826.769,54.199,63.965,-40.527,44.922,13.184,0
1486808826.773,33.203,39.551,-90.332,35.645,17.578,0
1486808826.777,53.223,55.664,-31.738,40.039,50.293,0
1486808826.781,71.289,75.195,55.176,57.617,44.922,0
1486808826.785,67.383,84.961,67.383,85.938,32.715,0
1486808826.789,46.387,73.242,30.762,59.570,45.898,0
1486808826.793,21.973,64.453,64.941,14.648,55.176,0
1486808826.797,34.668,45.898,114.258,32.227,33.691,0
1486808826.801,39.551,16.602,94.727,14.648,14.160,0
1486808826.805,10.254,-4.883,51.270,0.488,41.016,0
1486808826.808,-18.066,-11.719,17.090,-7.324,50.293,0
1486808826.812,17.090,37.598,-19.043,9.277,51.758,0
1486808826.816,69.336,81.055,28.809,73.242,84.961,0
1486808826.820,64.941,50.293,57.129,65.430,109.863,0
1486808826.824,22.949,34.668,70.312,29.785,75.684,0
1486808826.828,14.160,32.715,116.699,31.738,90.820,0
1486808826.832,44.434,32.715,66.406,44.434,109.375,0
1486808826.836,22.461,48.828,29.297,36.133,119.141,0
1486808826.840,23.438,43.945,76.660,40.527,128.418,0
1486808826.844,73.730,42.969,66.406,64.941,111.328,0
1486808826.848,82.031,46.387,62.012,47.852,132.324,0
1486808826.851,57.129,55.664,117.676,35.645,137.695,0
1486808826.855,39.062,71.777,91.309,46.875,102.051,0
1486808826.859,50.781,92.285,78.125,62.500,84.961,0
1486808826.863,56.152,75.684,91.309,52.734,76.660,0
1486808826.867,40.039,48.828,80.078,34.180,76.172,0
1486808826.871,31.250,42.480,94.238,43.945,62.988,0
1486808826.875,27.344,28.320,86.914,35.645,78.613,0
1486808826.879,27.344,15.625,52.734,31.738,78.125,0
1486808826.883,58.594,43.945,72.754,82.031,59.082,0
1486808826.887,105.957,98.145,107.910,122.070,29.297,0
1486808826.890,108.398,87.402,68.359,99.609,14.160,0
1486808826.894,70.312,41.504,29.785,52.734,68.848,0
1486808826.898,45.410,44.434,29.297,30.273,88.867,0
1486808826.902,35.645,47.852,-6.836,28.809,75.195,0
1486808826.906,20.996,32.715,-62.988,27.832,62.500,0
1486808826.910,25.879,28.320,-83.984,20.996,57.617,0
1486808826.914,45.898,38.574,-51.270,34.180,41.992,0
1486808826.918,18.066,43.945,-0.488,19.043,41.504,0
1486808826.922,32.227,49.805,0.977,28.320,30.762,0
1486808826.926,82.031,67.383,32.715,83.984,29.297,0
1486808826.930,90.820,83.496,71.289,97.656,56.152,0
1486808826.933,72.754,77.637,33.203,86.914,30.762,0
1486808826.937,66.406,55.176,6.348,68.848,17.578,0
1486808826.941,55.176,57.129,35.645,45.898,36.621,0
1486808826.945,29.785,28.320,49.805,28.809,52.246,0
1486808826.949,23.926,13.672,2.930,20.508,56.641,0
1486808826.953,19.531,19.043,-38.574,14.648,31.738,0
1486808826.957,22.949,13.672,25.879,25.391,33.203,0
1486808826.961,32.227,32.715,77.637,45.410,56.641,0
1486808826.965,23.926,30.273,44.922,41.992,61.523,0
1486808826.969,27.832,30.762,-4.883,26.367,66.895,0
1486808826.973,35.156,44.434,-20.996,20.020,72.754,0
1486808826.976,59.570,44.434,5.859,52.734,55.664,0
1486808826.980,50.781,35.645,-15.625,58.105,42.480,0
1486808826.984,9.277,17.578,-38.574,2.441,69.824,0
1486808826.988,44.434,41.992,-12.695,20.508,79.102,0
1486808826.992,81.055,59.570,14.160,76.660,56.641,0
1486808826.996,37.109,20.996,0.000,38.086,55.664,0
1486808827.000,30.762,14.160,7.812,14.648,76.172,0
1486808827.004,61.035,53.711,39.551,54.688,50.293,0
1486808827.008,34.668,44.434,11.719,28.809,35.156,0
1486808827.012,29.297,39.062,-14.160,21.484,46.875,0
1486808827.015,39.062,61.035,23.926,46.875,51.270,0
1486808827.019,24.902,47.363,50.293,12.207,42.969,0
1486808827.023,9.277,34.180,37.598,7.812,20.508,0
1486808827.027,23.926,28.320,69.824,30.273,46.875,0
1486808827.031,45.410,16.602,110.352,23.438,81.055,0
1486808827.035,43.945,30.762,81.055,5.371,67.383,0
1486808827.039,62.988,37.598,57.129,31.738,35.645,0
1486808827.043,56.641,38.574,62.988,52.734,52.246,0
1486808827.047,36.133,43.945,61.523,50.781,71.289,0
1486808827.051,18.066,39.551,36.621,41.016,62.500,0
1486808827.055,14.160,36.133,18.066,10.254,44.434,0
1486808827.058,32.715,43.945,-15.137,32.715,66.895,0
1486808827.062,46.387,53.711,-26.367,68.359,69.336,0
1486808827.066,33.691,56.152,20.508,51.270,43.945,0
1486808827.070,30.762,42.969,46.875,38.574,18.066,0
1486808827.074,58.105,43.457,41.504,56.152,21.484,0
1486808827.078,59.570,49.316,31.250,74.219,69.336,0
1486808827.082,43.457,31.738,24.902,64.453,36.133,0
1486808827.086,15.625,22.461,20.020,33.691,-4.883,0
1486808827.090,4.395,20.020,34.180,19.531,25.391,0
1486808827.094,27.344,13.184,81.543,29.785,41.016,0
1486808827.098,41.016,22.461,61.523,47.363,32.227,0
1486808827.101,54.688,36.133,-1.465,52.246,44.922,0
1486808827.105,59.082,46.875,-19.531,59.570,67.383,0
1486808827.109,64.453,60.059,31.738,70.801,52.246,0
1486808827.113,58.594,57.617,29.297,41.992,31.250,0
1486808827.117,38.086,35.156,-12.207,24.902,25.391,0
1486808827.121,25.879,22.949,16.602,34.180,8.301,0
1486808827.125,41.992,34.180,37.109,50.781,18.555,0
1486808827.129,52.734,40.039,3.906,43.945,28.809,0
1486808827.133,-14.648,28.320,-99.609,-16.113,37.109,0
1486808827.137,-3.906,29.785,-55.664,5.371,3.418,0
1486808827.140,61.035,35.645,49.805,62.500,-37.109,0
1486808827.144,41.992,33.203,53.223,52.734,-0.488,0
1486808827.148,37.109,47.852,40.039,35.645,33.203,0
1486808827.152,75.195,71.777,40.039,60.547,26.367,0
1486808827.156,72.266,71.777,23.926,49.316,2.930,0
1486808827.160,69.336,66.406,-21.973,54.199,-15.137,0
1486808827.164,66.895,50.293,-18.555,79.102,-1.465,0
1486808827.168,45.410,30.762,15.137,57.129,19.043,0
1486808827.172,68.359,27.344,17.578,67.383,-14.648,0
1486808827.176,55.176,13.184,0.977,44.922,-5.371,0
1486808827.180,29.785,26.367,47.363,25.391,26.367,0
1486808827.183,42.480,69.336,125.488,41.016,-2.441,0
1486808827.187,34.668,71.289,146.484,25.879,0.977,0
1486808827.191,33.203,53.711,126.953,27.832,9.277,0
1486808827.195,33.203,31.250,77.148,18.066,53.223,0
1486808827.199,16.113,14.160,21.484,-6.348,41.992,0
1486808827.203,10.254,23.926,23.926,-12.695,6.836,0
1486808827.207,31.250,46.387,22.461,15.625,-2.930,0
1486808827.211,31.250,44.922,0.977,25.391,8.789,0
1486808827.215,29.785,55.176,65.918,35.645,20.996,0
1486808827.219,43.457,68.359,79.590,56.152,-18.555,0
1486808827.223,52.734,47.852,41.504,39.062,-16.113,0
1486808827.226,33.691,34.180,95.215,21.973,12.695,0
1486808827.230,18.555,30.762,104.980,18.066,13.672,0
1486808827.234,3.906,16.602,55.664,12.695,-18.066,0
1486808827.238,2.441,9.766,25.391,16.602,-17.090,0
1486808827.242,25.391,28.320,20.020,13.184,33.203,0
1486808827.246,26.367,36.133,45.410,22.461,31.738,0
1486808827.250,2.930,30.762,91.309,19.043,21.484,0
1486808827.254,-16.113,2.441,73.730,-1.465,27.344,0
1486808827.258,-9.766,-9.277,12.207,10.254,21.484,0
1486808827.262,14.648,22.461,22.461,13.672,-2.930,0
1486808827.265,41.016,26.855,-10.254,5.371,-26.855,0
1486808827.269,27.344,14.648,-82.031,-7.324,22.461,0
1486808827.273,12.207,26.367,-30.762,0.488,25.879,0
1486808827.277,41.992,25.391,-19.531,51.758,-19.043,0
1486808827.281,45.898,12.695,-14.648,72.754,13.184,0
1486808827.285,17.578,0.977,29.785,48.340,41.992,0
1486808827.289,16.602,-2.930,41.016,38.574,11.719,0
1486808827.293,38.086,14.160,62.012,38.086,25.391,0
1486808827.297,52.734,37.598,30.273,46.387,40.039,0
1486808827.301,51.270,55.176,-11.719,59.570,23.438,0
1486808827.305,32.227,32.715,34.668,36.621,5.371,0
1486808827.308,17.578,14.648,55.664,33.691,-22.949,0
1486808827.312,18.555,11.719,-6.348,32.227,-4.395,0
1486808827.316,43.945,20.020,-56.152,36.133,17.090,0
1486808827.320,48.828,37.598,-48.828,52.246,21.484,0
1486808827.324,42.969,45.410,-6.348,49.316,0.977,0
1486808827.328,42.480,54.199,41.504,43.457,19.531,0
1486808827.332,52.246,58.594,64.941,44.434,41.504,0
1486808827.336,31.250,68.848,67.383,16.113,10.254,0
1486808827.340,23.438,57.129,73.242,23.926,-0.488,0
1486808827.344,51.270,36.621,41.016,65.918,10.742,0
1486808827.348,62.500,60.547,-9.766,55.664,3.418,0
1486808827.351,102.051,86.426,14.648,79.590,-24.414,0
1486808827.355,101.562,68.359,27.832,87.402,-26.367,0
1486808827.359,52.734,47.363,21.484,53.223,12.207,0
1486808827.363,31.738,45.410,14.160,47.852,29.785,0
1486808827.367,14.648,19.531,-2.930,18.066,20.508,0
1486808827.371,-3.418,18.555,18.066,-17.578,8.789,0
1486808827.375,-3.906,24.902,39.551,-9.766,32.227,0
1486808827.379,3.418,28.320,23.926,1.465,16.113,0
1486808827.383,41.016,39.062,11.719,36.621,23.438,0
1486808827.387,52.246,45.898,3.418,39.062,38.086,0
1486808827.390,39.551,53.223,-11.719,15.137,16.602,0
1486808827.394,38.086,28.809,14.160,25.391,-7.812,0
1486808827.398,16.602,30.762,40.527,19.043,-27.832,0
1486808827.402,9.766,47.363,3.906,9.277,-8.789,0
1486808827.406,27.832,26.855,-37.109,-6.836,13.672,0
1486808827.410,37.109,41.016,-22.949,2.441,20.508,0
1486808827.414,41.504,53.223,30.762,23.926,15.137,0
1486808827.418,29.785,36.133,81.543,3.906,2.441,0
1486808827.422,25.391,22.461,64.941,-10.742,15.137,0
1486808827.426,29.785,41.992,16.113,-5.371,20.020,0
1486808827.430,53.223,74.707,-33.203,13.184,4.395,0
1486808827.433,55.664,63.477,-18.555,19.043,15.625,0
1486808827.437,27.832,45.410,41.504,-7.812,20.020,0
1486808827.441,47.852,58.594,77.637,5.859,-18.066,0
1486808827.445,49.316,69.336,95.703,15.625,-24.902,0
1486808827.449,4.883,44.434,70.312,-8.789,34.180,0
1486808827.453,0.977,21.484,51.270,-14.648,30.273,0
1486808827.457,15.625,20.508,20.020,-19.043,-31.738,0
1486808827.461,16.113,19.531,-22.949,5.859,-16.113,0
1486808827.465,21.973,25.391,9.766,36.133,4.883,0
1486808827.469,38.086,42.480,-18.066,60.059,-5.371,0
1486808827.473,56.152,41.504,-69.336,61.035,4.883,0
1486808827.476,58.105,62.988,26.367,32.715,-2.441,0
1486808827.480,72.266,97.656,98.145,47.852,38.574,0
1486808827.484,72.266,74.707,91.309,68.359,69.336,0
1486808827.488,32.227,41.504,92.773,41.992,13.672,0
1486808827.492,34.668,40.527,83.984,33.691,2.441,0
1486808827.496,30.273,45.410,83.984,27.832,20.996,0
1486808827.500,31.738,63.965,75.684,38.574,-10.742,0
1486808827.504,57.617,57.129,51.758,53.711,-17.090,0
1486808827.508,23.926,24.414,29.297,33.203,20.508,0
1486808827.512,26.367,20.020,-43.945,28.809,14.160,0
1486808827.515,58.594,55.176,-45.898,41.992,-14.648,0
1486808827.519,51.270,59.570,24.414,52.246,-21.484,0
1486808827.523,48.340,43.945,6.836,47.852,13.184,0
1486808827.527,43.457,59.570,-20.508,36.621,46.875,0
1486808827.531,24.414,50.781,9.766,29.785,19.531,0
1486808827.535,21.973,20.996,44.922,16.113,-21.973,0
1486808827.539,29.297,16.113,59.570,12.207,-35.156,0
1486808827.543,34.668,45.410,64.453,43.457,-23.438,0
1486808827.547,45.410,60.059,46.875,69.824,17.090,0
1486808827.551,61.035,35.156,2.930,61.035,-9.277,0
1486808827.555,65.918,48.828,-23.438,56.152,-43.945,0
1486808827.558,64.453,72.754,-2.441,72.266,-12.695,0
1486808827.562,60.547,55.664,-24.902,64.941,-0.488,0
1486808827.566,57.617,55.176,-28.809,63.965,5.859,0
1486808827.570,61.523,53.711,21.484,59.570,19.043,0
1486808827.574,23.926,46.387,10.742,22.949,-1.953,0
1486808827.578,-2.441,27.344,-17.090,-10.742,-35.645,0
1486808827.582,10.742,10.742,-2.930,-13.672,1.465,0
1486808827.586,9.277,18.555,17.090,-13.672,25.391,0
1486808827.590,35.645,33.691,-17.090,0.000,-18.555,0
1486808827.594,46.387,33.691,-98.633,14.648,-37.598,0
1486808827.598,20.508,22.949,-125.000,14.160,19.531,0
1486808827.601,22.461,34.668,-61.523,14.648,32.715,0
1486808827.605,45.898,47.363,-16.602,28.320,-10.742,0
1486808827.609,50.781,51.758,18.555,35.645,0.000,0
1486808827.613,28.809,55.664,52.734,5.859,11.719,0
1486808827.617,31.250,41.016,55.176,1.953,4.395,0
1486808827.621,36.133,44.434,32.715,18.555,7.812,0
1486808827.625,30.762,62.988,-4.395,19.043,18.066,0
1486808827.629,12.207,35.645,-5.859,0.000,1.953,0
1486808827.633,-0.977,16.113,4.883,-30.273,-23.926,0
1486808827.637,15.137,30.273,-56.152,-17.578,-20.020,0
1486808827.640,17.090,17.090,-93.262,-11.230,-26.855,0
1486808827.644,12.695,20.508,-21.484,-8.301,10.254,0
1486808827.648,50.781,44.922,39.062,27.832,45.898,0
1486808827.652,59.570,54.688,39.062,8.789,4.883,0
1486808827.656,56.152,56.641,50.781,2.930,5.859,0
1486808827.660,49.316,47.852,72.754,22.461,52.246,0
1486808827.664,45.898,49.805,64.941,27.344,38.574,0
1486808827.668,41.992,44.922,20.020,18.066,28.809,0
1486808827.672,35.645,26.367,-10.742,8.301,6.836,0
1486808827.676,43.457,39.551,3.906,20.996,-22.949,0
1486808827.680,53.711,58.594,53.711,45.898,4.883,0
1486808827.683,69.336,72.266,83.984,62.988,9.766,0
1486808827.687,84.961,94.238,76.660,76.660,20.996,0
1486808827.691,63.477,92.285,55.664,40.039,25.391,0
1486808827.695,40.527,45.410,32.227,-0.977,-7.324,0
1486808827.699,29.297,20.020,12.695,2.441,2.930,0
1486808827.703,2.930,23.438,16.602,-9.277,43.945,0
1486808827.707,26.367,30.273,28.809,22.949,46.875,0
1486808827.711,37.598,25.391,-13.184,36.621,21.484,0
1486808827.715,9.277,13.672,-65.430,6.348,8.301,0
1486808827.719,16.602,17.090,-7.324,9.277,10.742,0
1486808827.723,65.430,45.410,44.434,41.504,4.395,0
1486808827.726,81.055,63.965,-26.855,55.664,15.625,0
1486808827.730,25.391,52.246,-37.598,32.227,30.273,0
1486808827.734,-17.090,18.066,-20.508,-5.371,54.199,0
1486808827.738,23.438,8.301,18.066,12.695,57.129,0
1486808827.742,29.297,1.953,61.523,13.672,31.250,0
1486808827.746,6.836,-3.418,5.859,-7.324,28.320,0
1486808827.750,2.441,20.020,-29.297,-16.113,50.293,0
1486808827.754,43.457,39.062,-8.789,24.902,43.457,0
1486808827.758,66.406,41.992,-3.906,71.777,-5.859,0
1486808827.762,28.320,55.176,-19.531,34.180,25.391,0
1486808827.765,37.598,56.641,11.719,24.902,103.516,0
1486808827.769,76.660,62.012,51.758,68.848,107.422,0
1486808827.773,57.617,64.453,50.293,66.406,45.410,0
1486808827.777,23.438,26.367,56.152,17.578,32.227,0
1486808827.781,29.785,20.508,58.105,22.461,73.730,0
1486808827.785,40.039,46.387,21.484,52.246,82.031,0
1486808827.789,29.297,45.898,23.926,19.531,98.145,0
1486808827.793,30.762,23.926,53.223,17.578,92.285,0
1486808827.797,18.555,1.465,38.086,26.855,89.844,0
1486808827.801,16.113,3.906,40.039,29.785,90.820,0
1486808827.805,37.109,45.410,67.871,64.453,77.148,0
1486808827.808,39.062,49.805,45.898,71.777,97.168,0
1486808827.812,40.527,43.457,20.020,59.082,90.332,0
1486808827.816,26.855,46.387,16.602,32.227,46.387,0
1486808827.820,12.695,41.504,37.109,21.484,22.949,0
1486808827.824,67.871,72.754,65.430,75.195,44.922,0
1486808827.828,86.914,72.754,78.125,89.355,62.500,0
1486808827.832,56.152,58.105,66.406,50.781,26.367,0
1486808827.836,43.457,59.082,58.594,49.316,-16.113,0
1486808827.840,42.969,65.918,62.988,46.875,5.859,0
1486808827.844,58.594,62.500,24.902,55.664,31.738,0
1486808827.848,44.922,58.594,-29.297,57.129,7.812,0
1486808827.851,38.574,48.340,-15.137,41.504,-20.020,0
1486808827.855,36.621,19.531,0.000,48.828,-4.395,0
1486808827.859,26.855,26.367,16.113,49.316,17.090,0
1486808827.863,49.805,44.434,60.059,49.805,2.930,0
1486808827.867,52.734,46.387,63.965,56.152,1.953,0
1486808827.871,42.480,46.875,40.527,59.082,5.371,0
1486808827.875,56.152,54.688,41.992,56.641,0.488,0
1486808827.879,37.598,50.293,18.555,47.852,13.672,0
1486808827.883,0.000,28.809,-37.109,41.504,13.672,0
1486808827.887,21.484,29.297,-50.781,56.641,34.180,0
1486808827.890,46.387,30.273,7.324,51.758,10.254,0
1486808827.894,25.391,14.160,13.672,13.672,-39.551,0
1486808827.898,43.457,29.785,-11.719,41.504,-35.645,0
1486808827.902,66.895,51.270,36.133,62.500,-9.277,0
1486808827.906,75.195,54.688,3.906,78.613,-12.695,0
1486808827.910,59.082,55.176,-20.996,80.566,3.906,0
1486808827.914,34.668,58.105,3.418,51.758,4.883,0
1486808827.918,44.922,45.898,-15.137,51.758,-5.859,0
1486808827.922,57.617,29.297,-18.555,59.570,16.113,0
1486808827.926,38.574,38.086,-15.137,51.270,1.953,0
1486808827.930,27.832,30.762,14.160,56.152,-7.812,0
1486808827.933,20.508,35.156,62.500,55.664,25.879,0
1486808827.937,37.109,32.227,46.875,60.059,43.945,0
1486808827.941,50.781,30.762,-21.484,62.500,28.320,0
1486808827.945,31.738,48.340,-25.879,53.223,47.852,0
1486808827.949,30.273,41.016,8.301,39.551,58.105,0
1486808827.953,36.621,20.508,-2.930,35.156,31.738,0
1486808827.957,54.688,22.949,-34.668,55.664,17.090,0
1486808827.961,64.941,43.457,-59.082,72.266,20.996,0
1486808827.965,50.293,52.246,-16.602,62.988,24.414,0
1486808827.969,53.223,45.410,44.434,53.223,27.832,0
1486808827.973,45.410,37.109,28.320,64.453,18.555,0
1486808827.976,-0.488,20.996,-41.016,27.832,26.367,0
1486808827.980,-9.277,12.695,-54.688,-5.859,30.762,0
1486808827.984,16.602,23.438,-17.578,17.578,-4.883,0
1486808827.988,17.090,18.555,36.133,24.414,10.254,0
1486808827.992,8.301,24.902,63.965,27.832,32.715,0
1486808827.996,2.930,33.203,13.184,26.367,20.996,0
1486808828.000,23.926,35.156,1.953,31.250,21.973,0
1486808828.004,61.523,43.457,12.207,62.012,32.227,0
1486808828.008,56.152,58.105,24.414,65.430,27.832,0
1486808828.012,51.270,64.941,55.176,74.219,19.531,0
1486808828.015,30.273,43.945,40.527,55.664,34.180,0
1486808828.019,20.020,34.668,84.473,26.855,54.688,0
1486808828.023,48.340,39.551,144.531,32.227,52.246,0
1486808828.027,63.965,50.781,88.379,50.781,56.641,0
1486808828.031,39.062,42.480,54.199,48.340,71.289,0
1486808828.035,23.438,19.531,59.082,38.086,93.262,0
1486808828.039,71.777,32.227,36.133,85.938,98.633,0
1486808828.043,68.848,34.180,15.625,91.797,52.246,0
1486808828.047,31.738,30.762,35.156,63.477,51.758,0
1486808828.051,33.203,55.664,121.582,71.289,74.707,0
1486808828.055,35.645,51.758,144.043,41.016,67.383,0
1486808828.058,24.902,30.762,41.504,20.508,50.781,0
1486808828.062,-2.930,14.648,11.719,16.602,54.688,0
1486808828.066,-1.465,7.812,46.387,6.836,84.961,0
1486808828.070,24.902,20.996,41.016,31.738,92.285,0
1486808828.074,26.367,18.555,3.418,36.621,76.172,0
1486808828.078,29.785,2.930,-6.348,48.340,96.680,0
1486808828.082,32.227,19.531,95.703,68.848,123.535,0
1486808828.086,61.035,56.641,173.828,89.844,104.004,0
1486808828.090,85.938,78.613,149.414,110.352,92.773,0
1486808828.094,42.480,60.547,95.215,65.918,96.680,0
1486808828.098,23.438,41.016,80.566,27.832,117.188,0
1486808828.101,26.367,41.992,67.871,38.086,100.586,0
1486808828.105,-7.324,11.230,28.809,27.344,80.078,0
1486808828.109,33.691,12.695,-1.465,50.781,104.492,0
1486808828.113,77.637,60.059,33.203,94.238,83.984,0
1486808828.117,72.266,70.801,107.422,83.496,77.637,0
1486808828.121,41.504,50.781,109.375,26.855,91.309,0
1486808828.125,37.598,26.855,82.520,4.395,94.238,0
1486808828.129,45.898,26.855,39.551,28.320,143.555,0
1486808828.133,56.641,29.297,66.406,58.594,145.508,0
1486808828.137,56.152,35.156,102.539,61.523,115.723,0
1486808828.140,6.836,21.484,72.754,26.367,112.305,0
1486808828.144,-19.043,-7.324,74.707,6.348,93.750,0
1486808828.148,2.930,3.906,57.129,26.855,41.016,0
1486808828.152,27.832,-3.906,5.371,44.922,6.836,0
1486808828.156,15.137,0.977,35.156,56.152,23.926,0
1486808828.160,10.742,38.574,69.824,57.129,-0.488,0
1486808828.164,19.531,53.223,59.570,37.109,11.230,0
1486808828.168,28.320,34.668,72.754,45.898,38.574,0
1486808828.172,27.344,27.344,96.680,52.734,4.395,0
1486808828.176,36.621,40.527,88.379,67.383,-35.645,0
1486808828.180,57.129,49.316,53.223,75.684,-56.641,0
1486808828.183,60.059,49.316,1.465,69.336,-38.086,0
1486808828.187,78.125,50.293,36.621,90.820,-30.762,0
1486808828.191,90.332,56.152,88.379,100.098,-55.176,0
1486808828.195,47.363,31.738,51.270,67.871,-54.688,0
1486808828.199,12.695,10.742,-24.414,29.297,-12.695,0
1486808828.203,27.832,8.301,-20.020,42.480,-37.109,0
1486808828.207,32.227,19.531,-35.645,42.480,-64.941,0
1486808828.211,41.992,16.113,-80.078,31.250,-48.340,0
1486808828.215,51.270,-0.488,-36.133,35.645,-51.758,0
1486808828.219,76.172,25.879,19.043,56.641,-66.406,0
1486808828.223,81.543,50.781,30.762,56.152,-95.703,0
1486808828.226,83.984,78.613,24.902,45.898,-73.242,0
1486808828.230,78.125,67.383,0.977,53.711,-26.855,0
1486808828.234,61.035,41.992,-0.488,48.828,-32.715,0
1486808828.238,58.105,44.922,36.133,28.320,-50.293,0
1486808828.242,23.926,29.297,1.465,17.578,-38.086,0
1486808828.246,29.785,25.879,10.254,29.297,-18.555,0
1486808828.250,40.527,46.875,76.660,40.039,-3.906,0
1486808828.254,34.180,41.992,44.434,47.852,18.066,0
1486808828.258,40.039,28.809,-6.836,52.734,42.480,0
1486808828.262,25.879,26.367,19.043,56.641,49.805,0
1486808828.265,20.020,23.438,31.250,52.734,56.641,0
1486808828.269,47.852,22.949,9.766,57.129,46.387,0
1486808828.273,43.945,22.949,-26.855,50.293,51.270,0
1486808828.277,26.367,37.598,6.348,37.109,72.754,0
1486808828.281,15.625,56.152,105.469,45.898,82.031,0
1486808828.285,-5.371,32.227,104.004,40.039,94.238,0
1486808828.289,10.254,3.906,-3.418,37.109,92.285,0
1486808828.293,22.949,0.000,-3.418,19.531,82.031,0
1486808828.297,2.930,3.906,91.309,3.418,106.934,0
1486808828.301,-6.348,17.578,130.859,2.930,110.352,0
1486808828.305,1.953,29.785,93.262,15.137,134.277,0
1486808828.308,24.902,45.898,54.688,46.875,133.789,0
1486808828.312,39.062,49.316,91.797,57.129,104.492,0
1486808828.316,44.922,53.223,119.141,74.219,132.324,0
1486808828.320,44.922,42.480,88.379,73.730,127.930,0
1486808828.324,10.254,20.020,44.922,46.387,104.980,0
1486808828.328,7.324,20.996,20.020,33.691,113.281,0
1486808828.332,24.902,29.785,1.465,14.648,90.332,0
1486808828.336,21.973,26.855,21.484,25.879,108.887,0
1486808828.340,18.555,15.137,59.570,34.180,95.703,0
1486808828.344,5.859,4.883,38.574,29.297,49.805,0
1486808828.348,-9.277,-9.766,15.137,11.719,68.848,0
1486808828.351,-3.418,8.789,22.949,-9.277,100.586,0
1486808828.355,22.461,34.180,24.414,19.043,104.492,0
1486808828.359,20.020,20.508,23.926,32.227,98.633,0
1486808828.363,5.859,6.348,29.785,20.996,140.137,0
1486808828.367,7.812,19.531,51.270,37.598,178.711,0
1486808828.371,-16.602,6.836,62.500,24.902,142.578,0
1486808828.375,11.230,-18.555,54.199,25.879,120.605,0
1486808828.379,23.438,-5.859,61.035,42.969,175.781,0
1486808828.383,2.441,23.926,6.836,32.715,215.332,0
1486808828.387,33.691,54.199,-15.625,34.180,177.246,0
1486808828.390,41.992,36.621,57.617,47.363,164.062,0
1486808828.394,13.672,5.371,75.195,32.715,232.910,0
1486808828.398,30.762,36.133,58.105,44.922,244.629,0
1486808828.402,62.988,83.008,48.340,80.566,196.777,0
1486808828.406,53.223,74.219,63.965,78.613,202.148,0
1486808828.410,18.066,36.621,75.684,40.527,230.957,0
1486808828.414,10.742,6.836,83.496,33.691,229.004,0
1486808828.418,12.207,3.418,53.711,27.832,213.379,0
1486808828.422,21.973,14.648,14.648,23.926,230.469,0
1486808828.426,30.762,16.602,25.879,19.531,238.281,0
1486808828.430,18.066,19.043,-13.672,21.973,232.910,0
1486808828.433,10.254,28.320,-0.488,34.668,207.520,0
1486808828.437,28.320,29.785,102.051,35.645,191.406,0
1486808828.441,44.922,43.945,123.047,44.922,200.195,0
1486808828.445,33.203,55.664,64.941,39.551,224.609,0
1486808828.449,30.273,49.316,11.719,24.902,231.934,0
1486808828.453,32.715,27.344,0.000,32.227,206.543,0
1486808828.457,35.156,19.043,34.668,53.223,208.496,0
1486808828.461,49.316,36.133,0.977,41.992,207.031,0
1486808828.465,63.965,50.781,-43.457,30.273,213.867,0
1486808828.469,54.199,51.758,28.320,34.668,230.469,0
1486808828.473,45.898,35.156,134.277,33.691,221.191,0
1486808828.476,33.691,14.648,123.535,28.809,214.844,0
1486808828.480,16.602,12.695,73.242,17.090,211.426,0
1486808828.484,24.414,21.973,58.594,28.320,204.590,0
1486808828.488,21.973,15.137,-8.301,28.320,192.871,0
1486808828.492,11.230,-7.812,-45.898,4.395,195.312,0
1486808828.496,22.949,0.000,-17.090,17.090,190.430,0
1486808828.500,60.059,43.945,40.039,57.617,184.570,0
1486808828.504,79.590,70.801,83.984,66.406,193.848,0
1486808828.508,56.641,54.688,91.797,49.316,178.711,0
1486808828.512,21.484,32.227,52.246,23.926,187.988,0
1486808828.515,27.832,32.227,6.836,21.484,184.082,0
1486808828.519,65.430,46.875,-4.395,63.965,138.184,0
1486808828.523,57.617,36.133,-42.480,76.660,113.770,0
1486808828.527,20.508,6.348,-10.254,40.527,158.203,0
1486808828.531,29.785,17.578,109.863,16.113,191.406,0
1486808828.535,17.578,1.953,92.773,9.277,151.855,0
1486808828.539,2.930,9.277,19.043,13.672,137.695,0
1486808828.543,14.160,37.598,43.945,20.508,144.531,0
1486808828.547,8.301,-8.789,38.086,-1.465,173.340,0
1486808828.551,15.625,-15.625,-47.363,-1.953,148.438,0
1486808828.555,29.297,11.719,-65.430,9.766,105.469,0
1486808828.558,4.883,10.742,0.977,-3.418,128.418,0
1486808828.562,2.441,0.488,50.781,7.324,135.254,0
1486808828.566,20.020,12.207,88.379,27.832,118.652,0
1486808828.570,16.113,26.855,101.074,5.859,106.934,0
1486808828.574,10.742,25.879,60.547,3.906,66.895,0
1486808828.578,22.949,31.250,52.246,39.062,84.961,0
1486808828.582,39.062,38.574,6.348,38.086,84.961,0
1486808828.586,5.859,20.020,-70.801,7.812,48.828,0
1486808828.590,-14.648,-2.441,-71.777,3.906,71.289,0
1486808828.594,21.973,20.508,-39.062,38.086,58.594,0
1486808828.598,52.246,38.574,12.207,70.801,41.504,0
1486808828.601,45.410,30.762,92.285,67.871,41.992,0
1486808828.605,29.297,14.160,121.582,30.273,42.480,0
1486808828.609,14.648,-5.859,77.148,8.301,40.039,0
1486808828.613,5.371,-1.465,36.621,29.297,41.992,0
1486808828.617,22.949,20.020,15.625,64.941,22.949,0
1486808828.621,14.648,20.996,-8.789,45.898,26.855,0
1486808828.625,9.277,9.277,13.184,36.133,48.828,0
1486808828.629,39.062,5.371,5.371,73.730,24.414,0
1486808828.633,50.293,18.555,-13.672,80.078,15.625,0
1486808828.637,30.273,34.668,53.223,67.871,36.133,0
1486808828.640,40.039,44.922,97.656,60.059,23.438,0
1486808828.644,41.992,40.039,100.098,46.387,15.625,0
1486808828.648,7.324,1.465,56.641,16.602,43.945,0
1486808828.652,-19.043,-23.438,37.598,-18.066,62.012,0
1486808828.656,-12.695,-7.324,36.621,5.859,48.340,0
1486808828.660,11.719,18.066,38.086,51.270,27.832,0
1486808828.664,24.414,32.227,46.387,40.527,20.996,0
1486808828.668,32.227,23.926,24.902,31.738,14.648,0
1486808828.672,58.594,20.996,0.000,69.824,4.395,0
1486808828.676,66.895,38.574,-20.508,85.938,-17.090,0
1486808828.680,27.344,16.113,-11.230,29.297,28.320,0
1486808828.683,-1.465,-6.836,21.973,8.789,64.941,0
1486808828.687,-14.648,-19.531,-10.742,12.207,29.297,0
1486808828.691,-7.812,-5.371,-42.480,3.906,5.371,0
1486808828.695,9.766,10.254,-15.625,14.160,16.602,0
1486808828.699,42.969,21.973,22.461,33.691,18.066,0
1486808828.703,59.570,33.691,68.359,34.668,38.574,0
1486808828.707,35.645,24.414,51.758,15.137,40.039,0
1486808828.711,39.551,15.137,-6.836,4.395,47.363,0
1486808828.715,37.598,34.668,-23.438,29.297,65.918,0
1486808828.719,28.320,39.551,16.113,46.875,34.668,0
1486808828.723,31.738,22.949,61.523,28.320,26.367,0
1486808828.726,42.969,39.062,81.055,30.273,63.477,0
1486808828.730,65.918,65.430,84.961,39.551,64.941,0
1486808828.734,39.551,50.781,58.105,24.902,37.598,0
1486808828.738,42.480,51.270,23.438,55.176,32.715,0
1486808828.742,80.566,78.125,33.203,84.473,44.434,0
1486808828.746,79.102,58.594,14.160,42.480,24.902,0
1486808828.750,57.617,30.273,-17.578,14.648,17.090,0
1486808828.754,37.598,17.578,26.855,5.371,21.973,0
1486808828.758,34.180,34.668,48.828,5.859,0.000,0
1486808828.762,43.945,65.918,46.387,18.555,6.836,0
1486808828.765,58.594,58.105,12.695,27.344,17.090,0
1486808828.769,38.086,24.414,-48.828,20.508,45.898,0
1486808828.773,20.996,29.785,-22.461,19.043,42.969,0
1486808828.777,24.414,30.273,18.066,13.184,-14.160,0
1486808828.781,15.137,11.230,38.086,-3.906,-24.902,0
1486808828.785,7.812,-3.418,-22.949,-16.113,8.789,0
1486808828.789,9.766,12.207,-97.656,8.789,38.574,0
1486808828.793,34.180,37.598,-40.527,34.180,25.879,0
1486808828.797,39.551,33.203,37.598,39.062,-3.418,0
1486808828.801,39.551,21.484,43.945,45.410,3.906,0
1486808828.805,40.039,16.113,0.977,23.438,-3.418,1
1486808828.808,28.320,14.160,-14.648,15.137,3.906,0
1486808828.812,20.508,7.324,-1.465,16.113,25.879,0
1486808828.816,36.133,28.320,-4.883,33.691,20.020,0
1486808828.820,42.480,43.945,6.348,59.570,6.836,0
1486808828.824,10.254,18.066,6.348,50.781,6.348,0
1486808828.828,8.301,-2.441,-10.254,49.316,38.574,0
1486808828.832,43.457,19.043,18.555,68.848,40.039,0
1486808828.836,68.848,36.621,42.969,77.148,20.020,0
1486808828.840,65.430,40.039,52.246,62.500,39.062,0
1486808828.844,69.336,43.945,83.496,57.129,44.922,0
1486808828.848,40.039,35.156,83.984,34.180,50.293,0
1486808828.851,30.273,38.086,57.129,33.203,45.410,0
1486808828.855,51.758,41.504,46.387,62.500,33.691,0
1486808828.859,20.996,28.320,57.617,33.203,54.688,0
1486808828.863,17.578,29.785,98.633,30.762,44.434,0
1486808828.867,57.129,45.410,116.699,70.312,32.227,0
1486808828.871,61.523,36.621,7.812,71.777,40.039,0
1486808828.875,58.594,19.043,-81.543,59.570,67.383,0
1486808828.879,57.617,37.109,3.906,63.965,94.238,0
1486808828.883,34.668,33.203,64.453,46.875,64.453,0
1486808828.887,17.090,33.691,64.453,35.645,41.504,0
1486808828.890,36.133,46.875,74.707,47.852,42.969,0
1486808828.894,47.363,53.711,53.711,50.293,41.016,0
1486808828.898,25.391,41.504,56.641,35.645,11.719,0
1486808828.902,15.137,0.000,67.871,24.902,22.461,0
1486808828.906,17.578,11.230,66.406,19.043,83.984,0
1486808828.910,27.832,32.715,3.418,14.160,79.102,0
1486808828.914,33.691,31.738,-43.457,13.184,46.387,0
1486808828.918,37.109,29.297,21.973,6.836,45.410,0
1486808828.922,37.598,13.672,56.152,22.949,59.082,0
1486808828.926,22.461,29.785,19.531,30.273,79.590,0
1486808828.930,60.059,43.457,19.531,32.227,73.730,0
1486808828.933,74.219,55.664,88.867,44.922,46.387,0
1486808828.937,72.754,55.664,122.559,53.711,57.617,0
1486808828.941,70.801,40.527,77.148,55.176,40.527,0
1486808828.945,26.855,31.738,46.387,33.203,44.434,0
1486808828.949,38.086,30.273,10.742,16.113,89.844,0
1486808828.953,43.457,30.762,-58.594,19.531,82.520,0
1486808828.957,20.508,18.066,-65.918,20.020,42.969,0
1486808828.961,28.809,7.812,-47.852,9.277,55.664,0
1486808828.965,24.414,12.207,-86.914,20.996,79.590,0
1486808828.969,55.664,61.035,-42.969,48.828,54.688,0
1486808828.973,95.215,93.750,109.863,57.129,58.594,0
1486808828.976,38.086,54.199,120.117,25.879,65.918,0
1486808828.980,16.602,11.230,50.293,6.836,51.270,0
1486808828.984,31.738,7.324,54.199,4.883,55.176,0
1486808828.988,14.160,32.715,31.250,-4.883,40.039,0
1486808828.992,20.996,29.785,-50.781,7.812,40.527,0
1486808828.996,33.203,14.160,-29.785,23.926,66.406,0
1486808829.000,37.598,23.438,41.992,38.086,34.668,0
1486808829.004,30.762,44.434,32.715,32.715,-23.926,0
1486808829.008,21.484,41.504,41.504,28.320,6.348,0
1486808829.012,35.645,55.176,102.051,37.598,44.434,0
1486808829.015,54.688,57.129,91.309,52.734,43.457,0
1486808829.019,29.297,24.414,71.289,29.785,42.969,0
1486808829.023,20.996,25.391,65.430,34.668,29.297,0
1486808829.027,60.547,36.621,20.996,58.594,26.855,0
1486808829.031,56.641,13.672,-16.602,28.320,53.711,0
1486808829.035,70.312,12.207,-4.395,33.691,48.340,0
1486808829.039,69.824,41.992,-41.504,30.762,27.344,0
1486808829.043,39.062,39.551,-86.426,-13.672,30.762,0
1486808829.047,36.621,13.672,-25.391,-14.160,22.949,0
1486808829.051,9.766,-15.625,46.875,0.000,12.695,0
1486808829.055,-13.184,-11.230,68.359,11.230,34.668,0
1486808829.058,11.230,13.184,58.594,28.320,34.668,0
1486808829.062,40.527,35.156,11.230,49.316,21.484,0
1486808829.066,38.574,31.250,38.574,34.180,45.898,0
1486808829.070,11.230,13.672,68.848,17.578,62.988,0
1486808829.074,14.160,10.254,-7.324,34.180,45.410,0
1486808829.078,19.531,25.879,-26.367,30.273,16.113,0
1486808829.082,25.879,44.922,-6.348,59.570,20.508,0
1486808829.086,25.391,16.602,-23.438,55.664,47.852,0
1486808829.090,2.441,-8.301,-28.809,15.625,40.527,0
1486808829.094,-2.930,4.395,33.691,24.414,23.926,0
1486808829.098,14.648,24.414,44.922,50.781,54.199,0
1486808829.101,-0.488,31.738,36.621,32.227,44.434,0
1486808829.105,-19.043,-0.977,70.801,-4.883,27.344,0
1486808829.109,-29.785,-6.348,18.555,-5.859,20.996,0
1486808829.113,-31.250,13.184,1.953,12.695,33.203,0
1486808829.117,15.625,29.297,54.688,42.480,45.898,0
1486808829.121,19.531,28.809,26.855,32.715,27.832,0
1486808829.125,4.395,20.020,-32.715,-2.930,28.809,0
1486808829.129,8.301,17.090,28.809,-0.488,45.410,0
1486808829.133,6.348,13.184,113.281,20.996,49.805,0
1486808829.137,20.020,26.855,106.445,36.133,6.836,0
1486808829.140,9.766,15.137,36.621,24.414,-19.043,0
1486808829.144,5.859,-5.859,1.953,30.273,37.598,0
1486808829.148,43.457,18.066,74.219,50.781,56.152,0
1486808829.152,56.641,37.109,39.551,54.199,32.715,0
1486808829.156,24.902,28.809,-16.113,49.805,27.344,0
1486808829.160,17.578,20.508,60.547,36.133,24.902,0
1486808829.164,46.387,36.133,99.609,47.363,66.406,0
1486808829.168,24.902,28.809,29.785,43.945,67.383,0
1486808829.172,10.254,3.418,-21.973,42.969,45.898,0
1486808829.176,2.930,4.395,-4.395,32.227,39.062,0
1486808829.180,-0.488,8.301,-1.465,17.578,30.762,0
1486808829.183,38.574,18.066,28.320,48.340,22.949,0
1486808829.187,36.133,20.020,54.199,60.059,27.344,0
1486808829.191,14.160,15.625,11.719,37.109,41.992,0
1486808829.195,8.789,20.996,30.762,30.273,42.969,0
1486808829.199,16.602,13.184,67.871,39.062,22.949,0
1486808829.203,42.480,10.742,55.176,54.688,42.480,0
1486808829.207,40.039,16.113,46.387,48.340,66.406,0
1486808829.211,18.066,4.883,23.438,37.598,24.414,0
1486808829.215,24.902,3.906,35.645,47.852,51.758,0
1486808829.219,18.066,21.973,51.758,34.668,62.988,0
1486808829.223,27.344,44.434,26.855,51.270,32.715,0
1486808829.226,70.312,69.824,13.184,86.914,21.973,0
1486808829.230,69.336,63.965,-14.648,69.336,-19.531,0
1486808829.234,26.367,28.320,0.000,32.715,12.695,0
1486808829.238,43.457,35.156,77.148,51.270,46.387,0
1486808829.242,36.621,15.625,90.332,56.152,7.324,0
1486808829.246,24.902,-2.930,66.406,47.363,2.930,0
1486808829.250,33.691,40.039,85.449,54.688,48.828,0
1486808829.254,12.695,39.062,67.383,41.992,30.273,0
1486808829.258,40.527,16.113,33.203,39.062,20.020,0
1486808829.262,21.973,32.227,1.953,35.156,43.945,0
1486808829.265,14.160,30.762,-32.227,43.945,43.945,0
1486808829.269,72.266,22.949,22.949,64.453,28.809,0
1486808829.273,62.012,18.555,62.988,60.059,12.695,0
1486808829.277,31.250,27.344,22.949,55.664,22.461,0
1486808829.281,42.480,45.410,26.855,57.617,52.246,0
1486808829.285,74.707,44.922,90.332,81.055,52.734,0
1486808829.289,77.637,29.785,76.660,76.660,43.945,0
1486808829.293,39.062,8.301,49.805,33.691,37.109,0
1486808829.297,18.555,14.160,45.898,26.367,32.227,0
1486808829.301,60.059,56.641,30.273,73.730,29.785,0
1486808829.305,79.102,59.570,41.504,93.262,7.812,0
1486808829.308,43.945,29.297,29.297,60.547,8.789,0
1486808829.312,45.898,34.668,41.504,55.664,33.203,0
1486808829.316,77.637,69.824,103.516,77.148,4.883,0
1486808829.320,57.129,72.266,64.941,80.566,0.488,0
1486808829.324,20.508,27.832,-24.902,50.781,11.230,0
1486808829.328,9.766,4.883,-41.992,23.926,10.254,0
1486808829.332,41.016,20.996,8.301,26.367,28.320,0
1486808829.336,54.199,32.715,31.738,40.039,22.949,0
1486808829.340,18.066,20.996,45.898,37.598,14.648,0
1486808829.344,26.367,19.043,12.695,36.133,4.883,0
1486808829.348,34.668,28.809,-5.859,49.805,-0.977,0
1486808829.351,27.344,29.785,24.902,66.895,8.301,0
1486808829.355,51.270,39.062,33.203,70.312,12.207,0
1486808829.359,56.152,38.574,55.664,57.617,-0.977,0
1486808829.363,37.598,21.973,57.617,41.016,-4.395,0
1486808829.367,40.527,29.297,42.969,44.922,-18.066,0
1486808829.371,53.711,36.133,42.969,58.594,-12.207,0
1486808829.375,61.523,55.176,90.332,68.848,-21.484,0
1486808829.379,45.410,57.129,80.566,62.012,-35.645,0
1486808829.383,11.230,22.949,-61.523,33.203,8.301,0
1486808829.387,3.418,9.766,-61.523,37.598,29.297,0
1486808829.390,9.277,-1.953,77.637,22.949,8.789,0
1486808829.394,27.832,19.043,103.027,20.020,20.996,0
1486808829.398,57.617,45.898,76.172,48.340,37.598,0
1486808829.402,57.617,41.016,78.125,53.711,23.438,0
1486808829.406,46.875,21.484,56.152,45.410,-6.836,0
1486808829.410,29.785,15.625,41.992,35.156,-25.391,0
1486808829.414,55.176,32.227,20.996,65.430,17.090,0
1486808829.418,83.496,44.922,-0.977,69.824,43.457,0
1486808829.422,111.816,92.285,71.289,104.980,7.812,0
1486808829.426,104.492,85.449,105.469,106.934,-1.465,0
1486808829.430,43.945,39.551,51.270,64.941,44.434,0
1486808829.433,17.090,26.367,37.598,55.664,40.039,0
1486808829.437,31.738,-6.836,20.020,34.180,15.625,0
1486808829.441,36.133,-8.301,-11.230,34.668,4.883,0
1486808829.445,20.020,1.953,13.184,26.367,3.906,0
1486808829.449,15.625,3.906,-7.324,26.367,18.555,0
1486808829.453,14.160,17.090,-11.719,39.551,20.508,0
1486808829.457,25.391,24.414,36.133,45.410,1.465,0
1486808829.461,23.926,19.531,42.480,30.273,-3.906,0
1486808829.465,35.156,28.809,20.996,39.062,2.930,0
1486808829.469,72.754,46.387,20.508,79.102,-29.297,0
1486808829.473,55.664,17.578,37.109,49.805,-52.734,0
1486808829.476,22.949,0.977,47.363,24.902,-24.902,0
1486808829.480,22.949,13.672,60.059,36.621,-21.973,0
1486808829.484,24.902,-9.766,12.695,23.438,-47.363,0
1486808829.488,16.602,-35.156,-30.762,22.461,-66.406,0
1486808829.492,12.695,-15.625,-7.812,30.762,-30.273,0
1486808829.496,28.320,5.859,-10.254,16.113,-9.766,0
1486808829.500,55.176,16.113,-29.297,44.434,1.465,0
1486808829.504,59.570,39.551,33.691,73.730,-8.789,0
1486808829.508,25.391,46.875,82.520,42.480,-9.277,0
1486808829.512,60.059,45.898,83.496,70.312,-30.762,0
1486808829.515,89.355,53.223,125.000,87.402,-20.020,0
1486808829.519,48.340,32.715,113.281,34.180,18.555,0
1486808829.523,48.340,13.184,18.555,12.695,-33.691,0
1486808829.527,36.621,0.000,-44.434,13.672,-57.617,0
1486808829.531,30.762,-4.395,-53.223,20.020,-40.527,0
1486808829.535,41.016,-11.230,-24.414,20.996,5.371,0
1486808829.539,58.594,14.160,31.250,40.039,-9.766,0
1486808829.543,45.898,19.043,41.016,35.156,-42.480,0
1486808829.547,25.879,8.789,5.859,6.348,-26.367,0
1486808829.551,50.781,29.785,-2.441,7.324,-32.227,0
1486808829.555,56.152,26.855,-13.672,30.273,-25.879,0
1486808829.558,41.504,17.090,-32.715,47.852,-62.500,0
1486808829.562,40.527,7.812,-15.137,40.527,-65.918,0
1486808829.566,43.457,14.160,17.578,36.621,-10.254,0
1486808829.570,35.156,8.789,55.664,16.602,-13.672,0
1486808829.574,16.602,-8.789,42.969,-6.836,-31.738,0
1486808829.578,35.156,16.113,-12.695,21.484,-39.551,0
1486808829.582,73.242,47.363,23.438,72.266,-30.273,0
1486808829.586,78.613,54.199,56.641,79.102,-55.176,0
1486808829.590,75.684,36.621,19.531,48.828,-73.242,0
1486808829.594,47.852,18.066,-33.691,22.461,-39.062,0
1486808829.598,29.785,17.578,1.465,29.785,-60.059,0
1486808829.601,34.180,33.203,95.215,41.016,-63.965,0
1486808829.605,37.109,17.578,92.773,23.926,-58.594,0
1486808829.609,25.391,-8.301,12.695,1.953,-46.875,0
1486808829.613,31.250,0.000,-1.953,15.625,-14.648,0
1486808829.617,64.453,23.438,17.090,50.293,-24.902,0
1486808829.621,53.223,25.391,37.598,40.039,-33.203,0
1486808829.625,33.203,5.859,73.730,15.625,-17.578,0
1486808829.629,39.551,33.691,24.414,53.223,-45.898,0
1486808829.633,7.324,29.297,-54.688,34.668,-50.781,0
1486808829.637,-16.113,-11.230,-50.293,-22.949,-21.973,0
1486808829.640,14.160,15.625,-13.184,2.441,-47.363,0
1486808829.644,63.965,44.922,67.871,49.805,-43.457,0
1486808829.648,48.340,22.949,101.074,27.344,-46.387,0
1486808829.652,-15.137,-9.766,86.426,-26.367,-58.105,0
1486808829.656,-9.277,-6.836,42.969,-37.598,-17.578,0
1486808829.660,45.410,29.785,10.254,21.973,-26.367,0
1486808829.664,51.758,34.668,-24.414,54.199,-34.668,0
1486808829.668,55.664,20.020,-72.266,41.016,9.277,0
1486808829.672,75.684,44.922,8.789,53.711,13.672,0
1486808829.676,74.219,48.340,69.824,65.430,-14.648,0
1486808829.680,53.711,22.461,93.262,35.156,0.488,0
1486808829.683,26.855,5.371,47.363,-5.371,4.395,0
1486808829.687,22.461,-7.812,-4.883,4.883,-16.602,0
1486808829.691,26.367,22.949,84.473,14.160,-55.664,0
1486808829.695,29.785,35.645,71.289,-10.742,-34.668,0
1486808829.699,42.969,20.020,-30.762,7.812,-5.859,0
1486808829.703,49.316,6.348,-36.133,29.785,-41.504,0
1486808829.707,61.035,38.086,53.223,28.809,-57.129,0
1486808829.711,75.684,62.988,89.844,48.340,-53.223,0
1486808829.715,47.852,19.531,13.672,40.527,-17.578,0
1486808829.719,43.457,0.977,-8.789,24.902,9.766,0
1486808829.723,68.359,9.277,56.152,35.156,-14.160,0
1486808829.726,65.430,15.625,69.336,55.176,-27.344,0
1486808829.730,58.594,22.949,44.434,48.828,20.508,0
1486808829.734,42.969,26.367,53.711,16.602,33.203,0
1486808829.738,44.922,33.203,39.551,23.926,-20.996,0
1486808829.742,50.781,34.180,-7.812,21.973,-44.434,0
1486808829.746,62.012,40.039,-41.016,19.043,6.836,0
1486808829.750,79.102,52.734,15.625,20.996,-10.742,0
1486808829.754,57.617,39.062,59.570,8.789,-35.645,0
1486808829.758,42.969,23.438,35.645,3.906,-18.066,0
1486808829.762,72.266,19.043,64.941,45.410,-1.953,0
1486808829.765,115.234,35.156,122.070,90.332,10.254,0
1486808829.769,123.535,62.988,53.223,65.918,-4.883,0
1486808829.773,116.211,60.059,-29.785,51.758,-5.371,0
1486808829.777,84.473,37.109,-18.066,33.691,8.789,0
1486808829.781,69.824,30.762,28.809,35.156,9.766,0
1486808829.785,83.984,52.246,103.027,56.152,-10.742,0
1486808829.789,70.312,52.734,84.961,52.734,4.883,0
1486808829.793,60.547,34.668,30.762,56.641,30.762,0
1486808829.797,55.176,23.926,4.883,59.082,-8.301,0
1486808829.801,61.523,21.973,-22.949,64.453,-10.742,0
1486808829.805,64.453,16.602,-18.066,66.895,33.203,0
1486808829.808,75.195,37.109,60.547,80.566,10.254,0
1486808829.812,77.148,37.598,110.840,73.242,14.648,0
1486808829.816,83.008,40.527,71.777,78.613,-2.930,0
1486808829.820,71.289,50.293,18.066,69.824,-5.371,0
1486808829.824,74.219,48.340,-10.254,73.242,-1.465,0
1486808829.828,81.055,66.406,-18.555,90.820,-19.043,0
1486808829.832,83.008,82.520,42.480,87.402,5.859,0
1486808829.836,74.707,63.965,109.863,60.059,18.555,0
1486808829.840,36.133,8.301,81.055,11.719,2.930,0
1486808829.844,37.598,10.742,51.270,35.156,-7.812,0
1486808829.848,57.129,31.738,23.926,55.664,-0.488,0
1486808829.851,55.176,36.621,37.109,46.387,4.395,0
1486808829.855,83.984,57.129,34.668,54.199,-21.484,0
1486808829.859,74.707,45.410,26.367,61.523,-26.855,0
1486808829.863,37.109,23.926,36.133,55.176,20.020,0
1486808829.867,60.547,32.227,16.113,51.270,28.809,0
1486808829.871,68.359,32.715,30.273,64.941,-5.859,0
1486808829.875,24.414,23.438,58.105,52.246,-12.695,0
1486808829.879,11.230,14.160,49.805,31.738,13.184,0
1486808829.883,20.996,8.301,51.270,22.461,13.672,0
1486808829.887,31.250,15.137,52.734,6.836,-29.785,0
1486808829.890,31.250,21.484,32.227,1.953,-57.129,0
1486808829.894,20.020,14.648,-1.953,12.207,-39.062,0
1486808829.898,46.875,31.738,2.930,33.691,11.719,0
1486808829.902,61.035,40.527,43.945,35.156,-0.977,0
1486808829.906,37.109,27.832,-13.672,35.645,-27.832,0
1486808829.910,28.320,20.508,-35.645,19.043,7.324,0
1486808829.914,67.383,32.715,44.434,31.738,22.461,0
1486808829.918,94.727,68.848,83.008,57.129,38.086,0
1486808829.922,69.824,56.641,74.707,28.320,20.020,0
1486808829.926,36.621,19.531,43.457,-5.859,-4.395,0
1486808829.930,45.410,24.414,78.613,19.043,16.113,0
1486808829.933,55.664,57.129,94.238,31.738,-3.906,0
1486808829.937,35.645,35.156,3.418,8.301,-0.977,0
1486808829.941,35.156,25.879,-76.660,27.832,22.949,0
1486808829.945,52.734,51.270,-56.641,46.875,11.719,0
1486808829.949,42.969,26.855,43.945,33.203,17.578,0
1486808829.953,29.785,10.742,85.449,15.137,12.207,0
1486808829.957,36.133,21.484,65.430,9.277,13.672,0
1486808829.961,24.414,15.625,8.301,3.418,33.691,0
1486808829.965,13.184,6.836,-36.621,-9.766,35.156,0
1486808829.969,22.461,11.719,-17.090,9.766,32.715,0
1486808829.973,79.102,42.969,-5.859,84.473,22.949,0
1486808829.976,85.449,37.598,-10.742,85.938,-14.160,0
1486808829.980,49.805,13.184,31.250,37.598,-25.391,0
1486808829.984,42.480,0.000,77.637,11.719,6.836,0
1486808829.988,40.039,17.578,82.031,14.648,16.113,0
1486808829.992,50.781,47.852,52.734,30.762,-4.395,0
1486808829.996,63.965,40.527,19.043,47.363,10.742,0
1486808830.000,65.430,42.969,-1.953,71.777,34.668,0
1486808830.004,64.941,55.176,10.254,81.543,21.973,0
1486808830.008,57.617,27.344,3.906,49.316,0.488,0
1486808830.012,57.129,18.066,0.488,37.109,6.348,0
1486808830.015,48.340,6.836,26.855,22.461,20.508,0
1486808830.019,31.738,7.324,-10.742,24.414,14.648,0
1486808830.023,42.480,23.926,-78.125,46.387,12.695,0
1486808830.027,46.387,20.020,-41.504,27.832,36.133,0
1486808830.031,31.738,1.465,61.523,10.742,62.988,0
1486808830.035,23.438,-9.766,67.871,10.254,62.500,0
1486808830.039,36.133,-4.883,45.898,9.766,11.230,0
1486808830.043,21.973,2.930,58.105,-4.395,16.602,0
1486808830.047,37.109,29.297,21.973,30.273,48.828,0
1486808830.051,73.242,30.762,-20.508,68.848,32.227,0
1486808830.055,67.383,18.555,2.930,43.457,58.105,0
1486808830.058,58.105,5.859,25.879,27.344,77.637,0
1486808830.062,48.340,11.719,0.977,39.062,86.914,0
1486808830.066,83.008,53.711,46.875,69.824,74.707,0
1486808830.070,83.008,62.500,85.449,62.988,35.645,0
1486808830.074,34.668,11.230,31.250,27.832,56.641,0
1486808830.078,20.508,-6.836,32.227,1.953,86.914,2
1486808830.082,18.066,3.418,56.641,-18.555,104.004,0
1486808830.086,11.230,2.441,16.602,1.953,94.727,0
1486808830.090,-1.953,-11.719,-30.273,-3.418,104.004,0
1486808830.094,18.066,-9.766,-58.105,-11.719,136.230,0
1486808830.098,68.359,33.691,-20.020,48.828,141.113,0
1486808830.101,93.750,58.594,46.875,88.379,125.000,0
1486808830.105,68.359,39.551,92.285,57.617,131.348,0
1486808830.109,40.527,21.973,75.195,24.414,126.465,0
1486808830.113,43.945,23.438,17.090,13.672,111.328,0
1486808830.117,42.969,26.367,-13.184,31.738,99.121,0
1486808830.121,22.949,14.648,-18.555,42.969,112.305,0
1486808830.125,31.738,20.996,24.902,16.602,114.258,0
1486808830.129,66.895,25.879,35.156,19.531,70.312,0
1486808830.133,49.316,12.207,-4.883,23.926,81.543,0
1486808830.137,37.598,5.859,25.391,15.625,111.816,0
1486808830.140,76.660,36.133,67.383,37.598,94.238,0
1486808830.144,88.379,57.617,45.898,55.176,70.312,0
1486808830.148,34.668,37.109,-15.137,32.715,94.727,0
1486808830.152,13.184,10.254,-21.484,20.996,126.465,0
1486808830.156,39.551,10.254,60.059,21.973,78.125,0
1486808830.160,20.996,12.695,58.594,-10.254,55.664,0
1486808830.164,27.344,-6.836,-14.160,-12.207,84.961,0
1486808830.168,24.902,3.418,23.926,-19.531,111.816,0
1486808830.172,31.738,11.230,45.410,-13.672,72.266,0
1486808830.176,31.250,-9.277,-23.438,-3.906,20.508,0
1486808830.180,15.625,-8.301,-41.504,-11.230,69.824,0
1486808830.183,24.414,30.273,-4.395,10.254,98.145,0
1486808830.187,20.996,20.020,15.137,1.953,78.125,0
1486808830.191,37.109,-0.977,51.758,13.184,77.637,0
1486808830.195,90.332,35.156,114.746,68.848,83.496,0
1486808830.199,100.586,47.363,97.656,70.312,76.660,0
1486808830.203,73.242,16.602,49.316,52.246,67.871,0
1486808830.207,65.918,15.625,31.738,61.035,65.430,0
1486808830.211,29.785,1.953,3.906,29.785,64.453,0
1486808830.215,38.574,6.348,-29.785,20.508,86.914,0
1486808830.219,66.895,53.711,-25.879,39.062,74.707,0
1486808830.223,51.758,48.340,-19.531,42.480,83.496,0
1486808830.226,55.176,-0.977,4.395,33.203,108.887,0
1486808830.230,45.898,0.977,51.758,30.762,79.102,0
1486808830.234,26.367,22.461,72.754,39.062,74.707,0
1486808830.238,27.832,22.461,59.570,22.949,92.285,0
1486808830.242,35.645,7.812,0.000,22.949,92.285,0
1486808830.246,12.207,-3.418,-31.250,34.180,48.828,0
1486808830.250,23.438,-6.348,-53.711,13.672,30.762,0
1486808830.254,56.641,10.254,-16.113,19.043,19.531,0
1486808830.258,40.039,40.527,71.777,39.551,17.090,0
1486808830.262,54.688,45.898,106.445,57.617,16.113,0
1486808830.265,39.062,21.484,62.500,48.340,27.344,0
1486808830.269,10.742,-11.719,-26.367,29.785,75.195,0
1486808830.273,54.199,13.672,-21.484,49.805,53.711,0
1486808830.277,54.199,26.367,32.715,51.270,19.043,0
1486808830.281,34.180,20.508,33.691,57.129,22.949,0
1486808830.285,65.918,33.203,6.348,52.246,44.922,0
1486808830.289,69.824,41.016,26.855,33.203,50.781,0
1486808830.293,56.152,27.832,18.066,27.832,19.531,0
1486808830.297,56.152,8.301,-0.488,30.762,1.953,0
1486808830.301,53.711,37.109,39.062,50.781,19.531,0
1486808830.305,40.527,43.945,41.992,56.641,23.438,0
1486808830.308,19.043,15.625,-16.113,20.020,-9.766,0
1486808830.312,17.578,4.395,-87.891,-4.395,9.766,0
1486808830.316,27.344,25.879,-50.781,20.020,40.527,0
1486808830.320,37.598,30.762,37.109,24.902,8.301,0
1486808830.324,50.293,19.043,5.859,13.184,-1.953,0
1486808830.328,8.301,-1.465,-40.527,-10.742,-3.418,0
1486808830.332,-24.414,-11.719,31.250,-32.227,13.672,0
1486808830.336,8.789,4.395,70.312,-21.973,27.344,0
1486808830.340,27.344,16.602,-17.090,-4.395,4.395,0
1486808830.344,15.625,15.625,-41.016,6.348,-4.883,0
1486808830.348,47.363,12.695,52.246,41.504,0.977,0
1486808830.351,54.688,19.043,92.773,37.598,-32.715,0
1486808830.355,23.438,16.113,32.715,-15.137,-29.785,0
1486808830.359,36.621,8.301,-11.230,5.371,0.488,0
1486808830.363,44.922,31.250,17.090,39.551,-15.137,0
1486808830.367,29.785,26.855,20.996,17.090,-35.156,0
1486808830.371,17.578,13.184,-20.508,3.906,-43.945,0
1486808830.375,50.781,28.809,-49.805,20.508,-9.277,0
1486808830.379,75.684,28.320,6.348,64.453,0.977,0
1486808830.383,63.965,32.227,59.082,83.496,-21.484,0
1486808830.387,44.434,47.363,83.984,53.223,-30.762,0
1486808830.390,34.668,45.410,96.680,28.320,-45.898,0
1486808830.394,42.480,52.246,64.941,42.969,-57.129,0
1486808830.398,65.430,58.105,57.617,64.941,-66.406,0
1486808830.402,44.434,35.645,52.246,52.246,-82.031,0
1486808830.406,27.832,38.086,31.738,36.621,-57.129,0
1486808830.410,66.895,49.316,9.277,41.504,-41.992,0
1486808830.414,104.980,65.918,40.527,85.938,-51.758,0
1486808830.418,108.398,90.332,61.523,110.840,-38.574,0
1486808830.422,77.637,84.473,49.316,99.609,-36.621,0
1486808830.426,65.918,63.965,47.363,104.004,-57.129,0
1486808830.430,76.660,38.574,2.441,89.355,-56.641,0
1486808830.433,51.758,34.668,-22.461,55.176,-23.926,0
1486808830.437,33.203,35.156,-17.090,62.500,-9.277,0
1486808830.441,47.363,29.785,-39.551,73.242,-35.645,0
1486808830.445,33.203,25.391,-60.547,29.785,-70.801,0
1486808830.449,47.363,37.109,-56.641,50.781,-53.711,0
1486808830.453,48.340,40.527,-33.203,70.312,-7.324,0
1486808830.457,50.781,28.809,20.508,60.059,-25.879,0
1486808830.461,54.688,19.043,-3.418,59.570,-31.738,0
1486808830.465,30.762,10.742,-48.828,37.598,16.113,0
1486808830.469,36.621,13.184,-13.184,44.922,0.488,0
1486808830.473,35.156,22.949,1.953,44.922,-7.324,0
1486808830.476,29.785,23.926,-19.043,23.438,9.766,0
1486808830.480,26.367,13.672,-23.438,14.648,21.484,0
1486808830.484,32.715,22.949,-46.875,34.180,33.203,0
1486808830.488,60.059,52.734,5.371,74.219,11.230,0
1486808830.492,57.617,42.969,121.094,77.148,-16.113,0
1486808830.496,26.367,-9.766,127.441,41.016,23.438,0
1486808830.500,38.574,19.043,62.012,47.852,44.434,0
1486808830.504,67.871,58.594,46.387,73.242,13.184,0
1486808830.508,63.477,40.527,55.176,64.453,8.301,0
1486808830.512,57.129,50.781,27.344,64.941,25.879,0
1486808830.515,49.805,40.039,-1.953,53.711,46.387,0
1486808830.519,35.645,10.742,11.230,32.715,37.109,0
1486808830.523,18.066,-0.977,29.297,13.672,37.109,0
1486808830.527,-9.766,-2.930,-7.324,-13.184,24.902,0
1486808830.531,21.484,5.859,-54.199,18.555,-0.488,0
1486808830.535,29.297,16.113,-48.340,29.785,0.977,0
1486808830.539,-9.766,16.113,-7.812,-0.488,-9.766,0
1486808830.543,-6.348,2.930,35.645,-15.137,-20.508,0
1486808830.547,31.738,-2.930,22.461,15.625,-30.273,0
1486808830.551,35.645,-5.859,-64.941,4.883,-49.316,0
1486808830.555,10.742,-20.020,-93.262,-19.531,-42.480,0
1486808830.558,17.090,-7.324,-117.676,7.324,-47.363,0
1486808830.562,31.250,24.414,-109.375,42.480,-27.832,0
1486808830.566,44.434,55.176,-44.434,64.941,-27.832,0
1486808830.570,28.320,35.645,-31.738,26.367,-19.531,0
1486808830.574,8.301,-3.906,0.977,6.348,-29.785,0
1486808830.578,28.809,-4.883,6.348,25.879,-39.551,0
1486808830.582,59.570,30.273,-17.578,38.086,-29.297,3
1486808830.586,36.621,31.250,-1.953,26.367,-39.062,0
1486808830.590,4.883,-1.465,22.949,4.395,-43.457,0
1486808830.594,4.883,7.324,28.809,11.719,-79.102,0
1486808830.598,30.273,14.160,21.973,19.531,-69.336,0
1486808830.601,27.344,11.230,41.992,21.973,-35.645,0
1486808830.605,55.664,29.297,87.891,70.312,-60.059,0
1486808830.609,64.453,57.617,83.008,59.082,-56.641,0
1486808830.613,9.766,38.574,73.242,18.066,-24.414,0
1486808830.617,43.945,18.066,81.543,40.527,-3.418,0
1486808830.621,53.223,11.230,67.871,40.527,-34.180,0
1486808830.625,14.648,-10.742,49.316,-1.953,-52.734,0
1486808830.629,11.230,-1.953,15.625,-6.348,-43.945,0
1486808830.633,35.156,28.320,46.387,41.016,-46.875,0
1486808830.637,69.336,44.922,82.031,73.730,-59.570,0
1486808830.640,31.250,40.527,24.902,20.996,-55.176,0
1486808830.644,16.113,27.832,22.461,13.672,-29.785,0
1486808830.648,56.641,8.301,97.656,55.176,-5.859,0
1486808830.652,25.879,-6.348,117.188,27.344,-14.160,0
1486808830.656,1.953,3.418,13.184,9.277,-28.809,0
1486808830.660,38.574,14.160,-50.293,25.879,-8.301,0
1486808830.664,42.969,12.695,-15.137,32.715,-26.855,0
1486808830.668,23.438,29.785,21.484,35.156,-41.016,0
1486808830.672,12.695,17.090,-11.719,18.555,-42.480,0
1486808830.676,13.184,6.836,-99.609,9.277,-40.527,0
1486808830.680,36.133,18.066,-45.410,40.039,-42.480,0
1486808830.683,20.020,8.789,24.902,25.879,-59.082,0
1486808830.687,1.465,15.137,11.719,-2.441,-33.203,0
1486808830.691,15.625,10.742,-0.488,11.719,-4.395,0
1486808830.695,47.363,11.230,-40.039,44.434,-49.316,0
1486808830.699,58.105,13.184,-40.039,69.336,-50.293,0
1486808830.703,62.012,21.973,-25.879,84.961,-37.598,0
1486808830.707,56.152,42.969,-15.625,76.172,-37.109,0
1486808830.711,34.180,42.480,41.016,44.922,-25.391,0
1486808830.715,12.695,1.465,16.113,7.812,-30.273,0
1486808830.719,5.371,-10.742,-61.523,1.465,-13.184,0
1486808830.723,24.414,2.441,-71.289,27.832,-48.340,0
1486808830.726,33.691,7.812,-54.688,47.852,-99.609,0
1486808830.730,13.672,-8.789,-48.340,34.668,-65.918,0
1486808830.734,-22.949,-38.086,-57.129,9.277,-8.301,0
1486808830.738,-10.742,-11.719,-19.043,-4.395,-0.977,0
1486808830.742,-0.488,10.254,17.578,-7.324,-10.742,0
1486808830.746,7.812,12.207,39.551,-3.906,-0.977,0
1486808830.750,0.000,6.836,49.805,-10.742,26.367,0
1486808830.754,14.160,-7.812,56.641,-6.348,19.531,0
1486808830.758,44.922,8.301,33.691,11.719,0.000,0
1486808830.762,47.852,18.066,-27.832,22.461,-25.879,0
1486808830.765,57.129,8.301,-71.289,40.527,-11.719,0
1486808830.769,60.059,6.836,-44.434,69.824,10.254,0
1486808830.773,56.152,23.438,-15.137,77.148,-52.734,0
1486808830.777,36.133,4.395,0.000,62.500,-51.758,0
1486808830.781,32.715,-6.348,76.660,65.918,15.137,0
1486808830.785,47.852,10.742,100.586,65.430,-20.508,0
1486808830.789,40.039,-1.465,123.535,49.316,-58.594,0
1486808830.793,24.414,0.488,190.918,38.086,-41.504,0
1486808830.797,40.039,9.277,219.238,49.316,-39.062,0
1486808830.801,32.715,3.418,201.172,49.805,-10.742,0
1486808830.805,39.062,35.645,167.480,52.734,0.488,0
1486808830.808,39.062,52.246,97.656,58.105,-38.086,0
1486808830.812,10.254,24.902,56.152,37.109,-23.926,0
1486808830.816,9.277,11.230,65.918,22.949,11.719,0
1486808830.820,9.766,2.441,70.312,22.461,14.648,0
1486808830.824,25.391,-1.953,64.941,41.504,5.371,0
1486808830.828,28.320,20.996,38.086,48.828,3.418,0
1486808830.832,42.480,45.898,21.973,48.340,-16.113,0
1486808830.836,50.293,34.668,38.574,59.570,-3.906,0
1486808830.840,39.062,18.555,102.539,49.805,22.949,0
1486808830.844,45.410,13.184,130.859,50.781,9.277,0
1486808830.848,62.012,17.578,90.332,80.078,15.137,0
1486808830.851,49.805,9.766,6.836,53.223,20.996,0
1486808830.855,62.500,28.809,-12.695,52.734,27.344,0
1486808830.859,47.363,23.926,-8.789,47.363,36.621,0
1486808830.863,10.254,12.207,-48.828,8.789,25.879,0
1486808830.867,17.090,31.250,-38.574,14.648,20.996,0
1486808830.871,24.902,30.273,17.578,20.996,41.016,0
1486808830.875,34.180,25.391,53.711,20.508,56.641,0
1486808830.879,17.578,38.086,62.012,13.672,48.340,0
1486808830.883,7.324,28.320,17.578,-1.953,68.359,0
1486808830.887,43.945,16.113,-22.461,42.969,87.891,0
1486808830.890,62.012,44.922,-23.926,83.984,62.500,0
1486808830.894,35.156,53.711,-42.969,69.824,31.250,0
1486808830.898,49.805,48.340,-60.059,74.219,54.199,0
1486808830.902,71.289,49.316,-41.504,81.543,82.031,0
1486808830.906,33.203,41.504,6.836,51.758,71.777,0
1486808830.910,14.648,2.441,37.109,11.230,74.707,0
1486808830.914,25.391,-12.207,15.137,-9.766,77.148,0
1486808830.918,22.461,-14.160,-8.301,-15.137,113.770,0
1486808830.922,44.434,-19.531,-2.930,12.207,106.445,0
1486808830.926,65.430,3.418,32.715,47.363,78.613,0
1486808830.930,46.387,7.812,39.062,28.809,110.840,0
1486808830.933,49.316,15.625,24.414,24.902,122.070,0
1486808830.937,38.574,14.648,17.578,20.020,115.723,0
1486808830.941,28.320,21.973,-53.711,19.043,95.703,0
1486808830.945,38.086,21.484,-99.121,32.227,115.723,0
1486808830.949,70.801,19.531,-46.387,44.922,128.418,0
1486808830.953,58.105,30.273,24.902,32.227,95.215,0
1486808830.957,36.621,22.949,21.973,20.020,111.816,0
1486808830.961,21.973,7.324,-16.602,9.766,136.230,0
1486808830.965,-12.695,9.277,-44.922,-19.531,107.422,0
1486808830.969,-5.859,17.090,-14.648,5.371,85.449,0
1486808830.973,-3.906,-5.859,11.719,21.973,82.520,0
1486808830.976,-10.254,-8.301,-39.062,-3.418,113.281,0
1486808830.980,20.020,13.672,-40.039,28.320,107.910,0
1486808830.984,38.086,15.137,-5.371,43.945,86.426,0
1486808830.988,58.105,41.992,-2.441,69.336,98.633,0
1486808830.992,74.707,58.105,3.418,81.055,111.816,0
1486808830.996,67.871,37.598,-30.762,63.965,105.957,0
1486808831.000,47.363,18.555,-66.895,59.570,72.266,0
1486808831.004,12.695,1.465,-71.289,36.133,76.172,0
1486808831.008,-1.465,0.000,-62.500,21.973,69.336,0
1486808831.012,7.812,7.324,35.645,24.902,76.172,0
1486808831.015,-5.859,2.441,116.699,1.953,81.055,0
1486808831.019,-1.465,-1.465,106.934,17.578,96.680,0
1486808831.023,14.160,19.531,69.824,49.805,99.609,0
1486808831.027,15.625,24.902,2.441,40.039,95.703,0
1486808831.031,10.254,1.953,20.020,29.785,117.676,0
1486808831.035,11.230,2.930,6.348,43.945,130.371,0
1486808831.039,41.016,24.902,-1.465,55.176,122.070,0
1486808831.043,49.316,17.090,56.152,54.688,106.445,0
1486808831.047,39.551,6.348,28.320,54.688,95.703,0
1486808831.051,44.434,8.301,15.625,52.246,134.277,0
1486808831.055,61.035,20.996,40.039,70.312,141.602,0
1486808831.058,56.152,45.410,26.367,82.031,87.402,0
1486808831.062,21.973,14.160,-28.320,51.758,107.422,0
1486808831.066,-1.953,-19.531,-78.125,10.254,156.738,0
1486808831.070,43.945,0.488,-57.617,52.246,152.832,0
1486808831.074,84.961,31.738,-45.898,83.008,128.906,0
1486808831.078,73.242,44.434,-32.715,80.566,157.715,0
1486808831.082,62.012,30.762,-2.441,67.383,181.152,4
1486808831.086,52.246,20.020,42.480,58.594,177.246,0
1486808831.090,54.199,45.410,97.656,74.219,180.176,0
1486808831.094,76.172,63.477,75.195,81.055,174.805,0
1486808831.098,66.895,42.969,78.125,56.641,169.922,0
1486808831.101,33.203,23.438,135.742,17.090,169.434,0
1486808831.105,71.289,31.738,88.867,43.945,158.203,0
1486808831.109,105.957,28.320,13.184,66.406,166.016,0
1486808831.113,89.355,8.789,64.453,61.035,204.102,0
1486808831.117,41.016,2.441,92.773,43.457,190.430,0
1486808831.121,24.414,17.578,53.223,29.297,179.688,0
1486808831.125,64.453,39.551,57.129,42.969,173.828,0
1486808831.129,76.660,52.734,113.281,59.570,183.105,0
1486808831.133,88.379,64.941,156.250,86.914,149.414,0
1486808831.137,72.754,63.965,143.066,65.918,147.949,0
1486808831.140,62.500,48.828,90.820,46.387,190.918,0
1486808831.144,62.988,46.875,27.344,76.660,190.430,0
1486808831.148,45.410,42.480,6.836,54.199,145.996,0
1486808831.152,56.641,31.250,-18.066,24.414,163.086,0
1486808831.156,37.598,3.906,-0.977,18.066,170.410,0
1486808831.160,41.992,-9.277,23.926,13.672,104.004,0
1486808831.164,34.668,4.883,6.836,17.090,112.305,0
1486808831.168,16.602,15.137,-13.672,-1.465,165.527,0
1486808831.172,39.062,23.926,6.348,1.953,158.691,0
1486808831.176,51.758,26.367,33.203,33.203,144.043,0
1486808831.180,55.664,41.992,20.508,45.410,136.719,0
1486808831.183,34.180,25.879,-12.207,37.109,131.348,0
1486808831.187,13.672,-17.578,-43.945,7.812,142.090,0
1486808831.191,47.852,-9.277,-59.082,18.555,127.930,0
1486808831.195,65.430,29.785,20.020,47.363,87.402,0
1486808831.199,35.156,36.133,87.402,29.785,104.004,0
1486808831.203,46.387,32.227,87.402,37.109,138.672,0
1486808831.207,57.129,30.762,79.102,41.016,104.004,0
1486808831.211,33.691,1.953,53.223,26.855,102.539,0
1486808831.215,41.992,6.836,62.500,23.438,140.137,0
1486808831.219,55.664,19.531,41.504,51.270,106.934,0
1486808831.223,38.574,10.254,-38.086,45.898,91.309,0
1486808831.226,32.715,8.789,-20.020,35.645,93.750,0
1486808831.230,44.922,14.160,66.406,73.242,84.961,0
1486808831.234,85.938,41.016,24.902,89.844,117.676,0
1486808831.238,88.379,39.551,-43.945,62.500,110.352,0
1486808831.242,55.664,22.949,-37.598,35.156,84.473,0
1486808831.246,52.246,8.789,-1.465,37.598,90.332,0
1486808831.250,37.109,1.953,39.062,33.691,83.008,0
1486808831.254,33.691,2.441,65.430,41.504,42.480,0
1486808831.258,45.410,-8.301,-14.160,47.852,41.504,0
1486808831.262,32.715,1.953,-86.426,33.691,71.289,0
1486808831.265,22.461,9.766,-23.438,27.344,59.570,0
1486808831.269,32.715,21.484,58.594,33.203,61.523,0
1486808831.273,33.203,31.250,51.270,35.156,68.848,0
1486808831.277,26.855,34.180,40.039,16.113,64.453,0
1486808831.281,42.969,28.809,49.805,24.414,45.898,0
1486808831.285,28.809,3.906,28.320,21.973,56.152,0
1486808831.289,16.602,-12.695,-4.883,4.883,81.055,0
1486808831.293,49.805,-1.953,-54.199,33.203,76.172,0
1486808831.297,51.758,12.695,-33.691,46.387,62.988,0
1486808831.301,61.035,16.602,26.367,66.406,62.988,0
1486808831.305,65.918,12.207,58.105,55.176,81.055,0
1486808831.308,30.762,14.160,63.477,18.066,90.820,0
1486808831.312,26.367,13.184,125.488,25.391,72.754,0
1486808831.316,39.062,6.836,161.133,26.855,71.289,0
1486808831.320,37.109,17.090,103.027,9.277,89.844,0
1486808831.324,37.598,33.691,78.613,21.973,104.004,0
1486808831.328,38.574,18.555,48.340,28.809,83.496,0
1486808831.332,38.574,9.766,26.367,28.320,68.848,0
1486808831.336,33.691,12.695,58.594,24.902,74.707,0
1486808831.340,70.801,29.297,89.844,50.781,72.266,0
1486808831.344,102.539,63.477,67.871,83.984,46.875,0
1486808831.348,74.707,54.199,13.184,63.965,49.316,0
1486808831.351,64.941,59.570,16.113,65.430,95.215,0
1486808831.355,68.359,66.895,40.527,68.848,55.176,0
1486808831.359,42.480,20.508,27.344,33.691,24.414,0
1486808831.363,27.344,19.043,21.973,13.184,53.223,0
1486808831.367,49.805,10.742,46.875,24.902,50.293,0
1486808831.371,51.758,10.742,62.012,46.875,25.879,0
1486808831.375,50.781,46.387,84.961,54.199,17.578,0
1486808831.379,70.801,53.711,86.914,56.152,15.137,0
1486808831.383,70.801,51.270,62.500,51.758,6.348,0
1486808831.387,49.316,31.250,71.289,22.949,10.742,0
1486808831.390,38.574,15.625,51.758,23.438,-2.441,0
1486808831.394,53.711,35.645,-24.902,67.871,25.391,0
1486808831.398,75.195,45.410,-13.672,84.961,35.156,0
1486808831.402,65.918,32.227,41.504,53.223,6.836,0
1486808831.406,58.594,33.691,19.043,50.293,33.203,0
1486808831.410,55.176,23.438,16.113,35.645,42.969,0
1486808831.414,63.477,27.344,84.473,35.645,7.324,0
1486808831.418,74.219,34.668,105.469,53.223,0.000,0
1486808831.422,62.012,44.922,52.734,52.246,1.953,0
1486808831.426,56.641,38.574,10.742,45.898,-28.809,0
1486808831.430,60.547,14.648,17.090,60.059,-21.484,0
1486808831.433,55.664,24.902,-17.090,67.383,-6.836,0
1486808831.437,72.266,38.086,-105.469,65.430,-9.766,0
1486808831.441,113.281,53.711,-18.555,93.750,10.254,0
1486808831.445,112.305,57.129,155.762,113.281,28.809,0
1486808831.449,60.059,41.504,167.969,78.125,31.250,0
1486808831.453,38.086,20.996,125.977,32.715,32.715,0
1486808831.457,23.926,6.348,102.539,26.367,32.715,0
1486808831.461,34.180,13.184,116.211,42.969,40.527,0
1486808831.465,43.457,8.789,108.398,33.691,35.156,0
1486808831.469,20.508,-16.602,75.195,13.184,43.945,0
1486808831.473,26.367,-10.742,50.781,28.320,39.062,0
1486808831.476,46.875,8.301,3.906,45.410,29.297,0
1486808831.480,24.902,-9.277,-43.457,40.039,9.277,0
1486808831.484,0.488,-22.949,-69.336,6.348,28.320,0
1486808831.488,30.762,5.371,-18.555,11.230,32.227,0
1486808831.492,31.250,10.254,24.902,14.160,-0.977,0
1486808831.496,29.785,22.461,13.672,21.973,3.906,0
1486808831.500,39.551,21.973,-1.953,46.387,0.977,0
1486808831.504,17.578,-10.742,-20.996,20.996,-5.859,0
1486808831.508,34.668,3.418,-15.137,22.949,-16.113,0
1486808831.512,81.543,39.551,39.551,68.848,-20.996,0
1486808831.515,69.336,35.156,53.223,77.148,-5.859,0
1486808831.519,62.012,3.418,-21.484,69.824,-14.648,0
1486808831.523,46.387,-12.695,-50.781,54.688,-36.621,0
1486808831.527,33.691,8.789,3.906,45.898,-23.438,0
1486808831.531,42.969,20.996,7.324,48.340,4.395,0
1486808831.535,55.664,5.859,-8.789,51.270,-8.789,0
1486808831.539,37.598,1.465,39.551,46.387,-28.320,0
1486808831.543,8.301,10.254,70.801,20.508,-22.461,0
1486808831.547,18.555,15.137,74.707,15.625,-13.184,0
1486808831.551,52.734,28.809,83.496,37.109,-8.789,0
1486808831.555,65.918,32.715,76.660,44.434,-13.672,0
1486808831.558,49.316,24.414,34.668,38.574,7.812,0
1486808831.562,38.086,11.719,-10.742,48.828,1.953,0
1486808831.566,52.734,17.090,17.090,60.059,-39.062,0
1486808831.570,82.520,32.227,55.176,73.242,-52.246,0
1486808831.574,47.852,13.184,24.414,43.457,-34.180,0
1486808831.578,16.602,-3.906,19.043,20.508,-20.508,0
1486808831.582,43.457,12.695,37.598,48.340,-36.133,5
1486808831.586,49.805,27.832,41.992,52.734,-29.785,0
1486808831.590,58.105,45.898,52.246,51.758,-49.805,0
1486808831.594,78.125,45.898,46.387,56.152,-70.801,0
1486808831.598,79.102,31.738,17.090,37.109,-61.035,0
1486808831.601,58.105,16.602,33.203,7.812,-42.480,0
1486808831.605,43.945,16.602,22.949,0.977,-34.180,0
1486808831.609,49.316,39.062,-10.254,18.555,-65.430,0
1486808831.613,35.645,45.410,44.922,39.062,-81.543,0
1486808831.617,30.762,39.551,69.336,47.852,-65.918,0
1486808831.621,37.109,27.832,56.152,37.109,-36.621,0
1486808831.625,30.273,25.391,60.547,32.715,-58.105,0
1486808831.629,8.789,2.441,46.875,3.906,-82.031,0
1486808831.633,2.930,3.418,-43.457,-23.926,-86.426,0
1486808831.637,24.414,15.625,-99.609,0.000,-56.641,0
1486808831.640,16.113,11.719,-36.133,-10.742,-77.148,0
1486808831.644,11.230,-2.930,74.707,-18.066,-91.309,0
1486808831.648,48.340,-3.418,149.414,29.785,-53.711,0
1486808831.652,45.898,8.789,145.996,38.574,-61.035,0
1486808831.656,33.691,33.691,96.680,30.762,-69.824,0
1486808831.660,24.902,51.758,40.039,20.996,-68.359,0
1486808831.664,27.832,20.020,35.156,15.625,-31.738,0
1486808831.668,52.734,0.977,51.758,31.250,-21.973,0
1486808831.672,53.223,0.488,-11.230,55.176,-72.266,0
1486808831.676,50.781,5.371,-41.992,62.988,-77.148,0
1486808831.680,47.363,1.465,28.320,25.391,-13.672,0
1486808831.683,42.480,-17.090,110.352,18.066,-28.809,0
1486808831.687,40.039,-21.973,116.699,21.484,-59.082,0
1486808831.691,30.273,-14.648,59.082,26.367,-61.035,0
1486808831.695,34.180,2.930,54.199,41.016,-23.438,0
1486808831.699,62.500,9.766,87.402,30.273,13.184,0
1486808831.703,46.875,-1.953,67.383,11.719,-16.602,0
1486808831.707,31.738,-14.160,7.324,6.836,-45.410,0
1486808831.711,80.078,-0.977,0.488,38.086,-52.734,0
1486808831.715,83.984,8.789,27.832,62.500,-33.203,0
1486808831.719,78.613,5.859,57.617,68.359,-70.801,0
1486808831.723,60.547,-28.809,25.391,49.316,-56.641,0
1486808831.726,51.758,-20.996,-7.324,43.945,-23.926,0
1486808831.730,58.594,20.020,29.785,61.035,-54.199,0
1486808831.734,19.043,-12.695,5.371,20.996,-45.898,0
1486808831.738,0.488,-35.645,-16.113,-20.996,-40.527,0
1486808831.742,7.324,-15.625,2.930,-4.395,-37.598,0
1486808831.746,19.043,-11.719,-21.973,3.418,-24.414,0
1486808831.750,26.367,-28.809,-50.293,-2.441,-15.625,0
1486808831.754,41.016,-15.625,-47.852,34.180,-27.344,0
1486808831.758,48.828,-6.836,-83.496,54.199,-53.711,0
1486808831.762,55.664,-9.277,-93.750,50.781,-57.617,0
1486808831.765,55.664,-1.953,-45.410,51.758,-63.965,0
1486808831.769,43.457,-18.066,-50.781,17.578,-14.160,0
1486808831.773,68.848,-35.156,-29.297,30.273,12.207,0
1486808831.777,80.078,-29.297,23.926,67.383,-22.461,0
1486808831.781,45.898,-25.391,-8.789,38.086,-19.043,0
1486808831.785,32.227,-39.551,-26.367,17.578,10.254,0
1486808831.789,50.781,-22.461,37.109,34.180,6.836,0
1486808831.793,56.152,2.930,53.223,41.016,-7.812,0
1486808831.797,51.270,0.488,-15.137,58.594,-27.832,0
1486808831.801,72.266,-7.812,-51.758,66.895,-22.949,0
1486808831.805,60.547,-8.301,31.250,55.664,-14.648,0
1486808831.808,48.828,1.465,99.121,50.293,-65.430,0
1486808831.812,38.086,-8.789,95.703,15.137,-62.988,0
1486808831.816,21.484,-22.949,20.996,-3.906,-0.488,0
1486808831.820,21.973,-18.555,-29.785,29.785,-2.441,0
1486808831.824,51.270,11.719,55.176,55.176,-4.395,0
1486808831.828,71.289,35.645,86.426,43.945,-16.602,0
1486808831.832,56.152,37.109,14.160,48.340,-16.113,0
1486808831.836,80.566,48.340,30.273,75.195,-25.879,0
1486808831.840,107.910,60.059,96.191,79.590,-33.203,0
1486808831.844,79.590,41.992,105.957,60.547,-8.789,0
1486808831.848,26.855,11.230,68.848,12.207,-15.625,0
1486808831.851,15.625,6.836,-16.113,-18.066,-45.410,0
1486808831.855,21.484,-6.836,-17.578,-20.020,-58.105,0
1486808831.859,42.969,14.160,11.230,9.766,-38.574,0
1486808831.863,64.453,45.898,16.602,38.574,-20.508,0
1486808831.867,58.105,38.086,41.016,39.062,-31.738,0
1486808831.871,43.457,22.949,-45.410,42.969,-55.664,0
1486808831.875,45.410,10.254,-111.328,31.738,-62.012,0
1486808831.879,69.824,21.973,-27.344,35.645,-64.453,0
1486808831.883,46.387,1.465,75.684,9.766,-49.316,0
1486808831.887,24.414,-3.906,137.695,-16.602,-43.457,0
1486808831.890,39.551,25.879,125.977,19.531,-28.809,0
1486808831.894,54.688,29.297,77.637,25.391,-51.270,0
1486808831.898,68.359,39.551,58.105,42.969,-60.547,0
1486808831.902,47.363,41.016,41.992,41.504,-25.879,0
1486808831.906,21.484,27.344,18.555,16.602,-4.395,0
1486808831.910,70.801,26.855,-20.508,57.129,-48.340,0
1486808831.914,87.402,33.203,1.953,78.613,-52.246,0
1486808831.918,81.543,34.668,67.383,81.055,-10.742,0
1486808831.922,74.707,24.414,63.477,61.035,14.160,0
1486808831.926,52.246,17.578,-0.977,43.945,9.766,0
1486808831.930,40.039,-4.883,-14.160,40.039,5.859,0
1486808831.933,36.133,-17.090,58.105,9.766,13.672,0
1486808831.937,47.363,1.465,55.664,23.438,-4.395,0
1486808831.941,67.383,26.855,31.250,79.590,-16.602,0
1486808831.945,76.172,36.133,68.848,81.543,-32.715,0
1486808831.949,47.852,6.836,18.066,34.180,-41.504,0
1486808831.953,10.254,-18.066,-34.180,1.465,-2.441,0
1486808831.957,27.344,6.348,57.617,14.160,-19.043,0
1486808831.961,70.801,24.414,125.977,57.617,-58.594,0
1486808831.965,64.941,13.672,70.312,62.500,-2.930,0
1486808831.969,46.387,6.348,51.758,40.039,20.020,0
1486808831.973,48.828,10.742,85.449,40.527,-24.414,0
1486808831.976,33.203,-10.254,59.570,20.996,-38.086,0
1486808831.980,20.508,-3.906,13.672,18.555,-5.371,0
1486808831.984,49.805,39.551,46.875,57.129,21.484,0
1486808831.988,40.039,31.738,76.660,46.387,-2.441,0
1486808831.992,33.691,18.066,54.688,41.016,-62.500,0
1486808831.996,39.551,13.184,18.066,40.039,-72.754,0
1486808832.000,31.250,5.371,-7.812,29.297,-27.832,0
1486808832.004,43.945,10.742,1.465,57.617,-32.227,0
1486808832.008,52.734,27.832,8.301,65.430,-55.664,0
1486808832.012,52.246,48.340,52.734,42.480,-37.598,0
1486808832.015,60.059,59.082,93.262,54.199,-20.508,0
1486808832.019,42.480,37.109,68.848,59.082,-20.508,0
1486808832.023,17.090,1.953,44.922,31.250,-3.906,0
1486808832.027,24.414,-13.184,44.922,24.414,-13.184,0
1486808832.031,43.457,-1.465,76.660,26.367,-64.941,0
1486808832.035,46.387,12.207,30.273,26.855,-41.504,0
1486808832.039,45.410,23.926,-86.914,38.574,-12.207,0
1486808832.043,76.660,27.832,-61.523,82.031,-23.438,0
1486808832.047,80.078,55.664,16.602,94.727,-26.367,0
1486808832.051,40.527,45.410,41.504,51.758,-35.156,0
1486808832.055,23.438,5.859,72.266,39.551,-2.930,0
1486808832.058,73.242,53.711,88.379,74.707,-20.996,0
1486808832.062,106.934,79.102,110.840,103.027,-26.367,0
1486808832.066,90.332,78.125,114.258,106.934,-1.465,0
1486808832.070,61.523,70.801,127.441,63.965,-33.203,0
1486808832.074,40.527,37.598,101.074,31.250,-40.527,0
1486808832.078,46.875,31.250,73.242,38.574,-65.918,0
1486808832.082,71.289,53.711,75.684,66.406,-51.270,0
1486808832.086,72.754,42.480,59.570,68.848,-19.043,0
1486808832.090,35.156,22.949,14.160,35.645,-28.809,0
1486808832.094,34.668,28.809,-14.648,44.922,-72.754,0
1486808832.098,44.434,30.762,-20.996,55.176,-83.496,0
1486808832.101,30.762,27.832,-24.414,59.570,-45.410,0
1486808832.105,64.453,50.293,29.785,92.285,-43.457,0
1486808832.109,92.285,60.059,114.258,94.727,-57.617,0
1486808832.113,74.219,54.199,118.164,60.059,-44.922,0
1486808832.117,52.734,46.875,65.918,57.617,-8.789,0
1486808832.121,17.578,29.297,22.461,44.434,-20.996,0
1486808832.125,17.578,24.414,-38.574,44.922,-62.012,0
1486808832.129,39.062,11.230,-76.172,53.223,-60.547,0
1486808832.133,16.113,12.207,-24.414,14.160,-40.527,0
1486808832.137,15.625,37.109,56.641,52.734,-61.035,0
1486808832.140,44.434,44.434,106.934,84.961,-78.613,0
1486808832.144,26.855,8.789,105.957,38.086,-48.828,0
1486808832.148,-0.488,-20.020,84.961,19.531,-21.973,0
1486808832.152,-16.602,-13.672,74.219,16.602,-33.203,0
1486808832.156,-32.227,5.371,60.547,1.953,-26.855,0
1486808832.160,0.977,1.465,50.293,-8.789,-22.949,0
1486808832.164,33.691,-16.113,-20.508,16.113,-28.320,0
1486808832.168,26.855,8.301,-51.270,26.367,-10.742,0
1486808832.172,43.945,48.828,22.949,35.156,10.254,0
1486808832.176,59.570,44.434,67.383,63.477,-12.695,0
1486808832.180,47.852,35.645,33.691,65.430,-23.438,0
1486808832.183,33.203,28.809,7.812,41.016,-47.852,0
1486808832.187,11.230,-2.441,64.941,13.184,-49.805,0
1486808832.191,32.227,14.160,121.582,30.762,-27.832,0
1486808832.195,39.551,32.715,115.234,38.086,-44.434,0
1486808832.199,27.832,28.809,62.988,24.902,-36.133,0
1486808832.203,54.688,38.086,29.785,41.992,-23.438,0
1486808832.207,68.359,60.059,19.043,64.453,-5.859,0
1486808832.211,41.992,58.105,32.227,54.199,-15.625,0
1486808832.215,30.762,40.527,71.289,41.016,-25.391,0
1486808832.219,47.363,41.016,83.984,34.668,0.977,0
1486808832.223,50.781,36.133,84.961,33.203,-12.695,0
1486808832.226,18.066,22.461,103.027,32.227,-57.129,0
1486808832.230,22.461,29.785,117.188,37.598,-92.773,0
1486808832.234,38.574,41.016,67.383,46.875,-43.457,0
1486808832.238,49.316,40.527,9.766,42.969,-13.672,0
1486808832.242,50.781,58.594,26.855,51.270,-37.598,0
1486808832.246,38.574,80.078,36.621,53.223,-36.133,0
1486808832.250,30.273,45.898,30.762,25.391,-13.184,0
1486808832.254,12.695,6.348,18.555,22.949,-1.953,0
1486808832.258,19.043,24.414,9.277,32.227,-42.480,0
1486808832.262,47.852,20.020,22.461,45.898,-26.367,0
1486808832.265,72.754,13.672,13.672,78.125,6.348,0
1486808832.269,81.543,51.270,42.480,100.098,-18.555,0
1486808832.273,101.074,87.402,57.129,113.770,-45.410,0
1486808832.277,74.707,86.914,12.207,87.891,-39.551,0
1486808832.281,40.039,55.176,6.836,49.805,-19.043,0
1486808832.285,26.855,25.391,47.363,46.387,-25.391,0
1486808832.289,29.297,15.625,68.848,52.246,-50.781,0
1486808832.293,55.664,27.344,55.176,55.664,-25.391,0
1486808832.297,64.941,39.551,30.762,58.594,8.301,0
1486808832.301,53.711,45.898,16.602,74.219,0.488,0
1486808832.305,41.992,49.805,49.316,76.172,-47.363,0
1486808832.308,33.203,16.113,43.945,24.414,-58.105,0
1486808832.312,19.043,14.160,22.461,23.926,-20.996,0
1486808832.316,36.133,56.152,28.809,69.824,-19.531,0
1486808832.320,61.523,54.688,-7.324,75.684,-33.691,0
1486808832.324,28.320,22.949,-19.531,32.227,-29.297,0
1486808832.328,14.648,12.207,29.785,19.043,0.488,0
1486808832.332,26.367,27.344,47.363,32.227,7.812,0
1486808832.336,44.922,41.992,67.871,40.039,-30.762,0
1486808832.340,66.406,55.664,99.121,73.242,-59.082,0
1486808832.344,65.430,44.434,73.242,95.703,-6.348,0
1486808832.348,30.273,28.320,24.414,48.340,3.418,0
1486808832.351,38.086,48.828,4.395,35.156,-37.109,0
1486808832.355,49.805,48.828,15.625,61.523,-37.598,0
1486808832.359,4.395,5.371,26.855,23.926,-34.180,0
1486808832.363,1.953,-6.348,34.668,18.555,-76.660,0
1486808832.367,22.949,6.348,22.949,39.551,-50.293,0
1486808832.371,2.930,-3.418,-22.461,4.395,0.488,0
1486808832.375,21.484,-1.465,-20.996,9.277,-17.578,0
1486808832.379,37.109,9.277,20.996,40.039,-28.320,0
1486808832.383,15.137,17.090,12.695,44.922,-1.953,0
1486808832.387,40.039,21.973,58.105,48.828,11.719,0
1486808832.390,65.430,26.367,103.027,57.617,-11.230,0
1486808832.394,40.039,50.781,84.961,52.734,3.418,0
1486808832.398,37.598,44.922,48.828,62.988,28.320,0
1486808832.402,64.453,43.457,9.766,87.402,-1.465,0
1486808832.406,63.965,53.223,0.977,81.543,-21.484,0
1486808832.410,41.016,20.996,25.879,57.617,7.324,0
1486808832.414,61.523,12.695,24.414,39.551,-0.977,0
1486808832.418,72.266,40.039,63.965,46.387,10.254,0
1486808832.422,55.664,72.754,125.488,65.430,30.762,0
1486808832.426,66.895,58.105,103.027,72.754,20.020,0
1486808832.430,54.199,6.836,64.453,59.082,8.789,0
1486808832.433,49.805,11.230,70.312,60.059,8.789,0
1486808832.437,53.223,35.645,48.340,54.688,34.668,0
1486808832.441,31.250,27.344,18.066,31.738,28.809,0
1486808832.445,14.648,17.090,87.891,18.555,-10.254,0
1486808832.449,16.602,18.555,166.504,27.344,7.324,0
1486808832.453,28.809,18.066,141.113,48.340,13.184,0
1486808832.457,50.293,42.969,105.957,51.270,-2.930,0
1486808832.461,47.363,51.758,91.309,36.621,0.000,0
1486808832.465,64.941,41.992,1.465,37.109,-2.441,0
1486808832.469,62.500,37.109,-71.777,26.367,44.922,0
1486808832.473,64.453,23.926,-18.066,30.762,53.223,0
1486808832.476,82.031,26.855,100.098,54.199,67.871,0
1486808832.480,50.293,18.555,126.953,43.457,29.785,0
1486808832.484,29.785,25.391,110.840,27.832,-27.344,0
1486808832.488,28.809,44.434,113.770,32.227,-2.930,0
1486808832.492,35.645,58.594,120.117,49.316,15.137,0
1486808832.496,10.254,44.922,44.922,41.992,49.316,0
1486808832.500,35.645,38.086,-53.223,47.363,46.387,0
1486808832.504,65.430,54.688,0.977,48.828,39.551,0
1486808832.508,30.762,29.297,57.617,22.949,55.176,0
1486808832.512,41.504,22.949,49.316,35.645,33.691,0
1486808832.515,52.734,30.273,95.215,41.016,4.883,0
1486808832.519,33.203,28.809,114.258,36.133,22.461,0
1486808832.523,35.156,37.598,104.004,54.688,44.922,0
1486808832.527,45.410,40.527,66.406,58.594,44.922,0
1486808832.531,56.641,42.969,25.879,56.641,72.266,0
1486808832.535,50.293,39.062,45.410,49.316,88.379,0
1486808832.539,67.871,41.016,60.059,62.012,62.988,0
1486808832.543,71.289,45.898,48.340,88.379,42.480,0
1486808832.547,55.176,39.551,51.758,79.102,54.688,0
1486808832.551,41.016,22.949,84.961,37.598,81.543,0
1486808832.555,38.086,26.855,45.410,27.832,72.754,0
1486808832.558,34.668,33.203,-6.348,23.438,68.359,0
1486808832.562,5.859,12.695,9.277,6.836,85.938,0
1486808832.566,14.160,0.488,20.508,16.113,102.539,0
1486808832.570,40.039,27.344,65.918,43.457,87.891,0
1486808832.574,50.293,51.270,86.426,76.172,35.156,0
1486808832.578,23.926,34.668,46.387,64.941,17.578,0
1486808832.582,16.602,31.250,19.531,54.688,37.598,0
1486808832.586,25.391,28.809,18.555,49.805,60.059,0
1486808832.590,27.832,21.484,-18.555,57.617,74.219,0
1486808832.594,50.781,14.648,-28.320,71.289,48.340,0
1486808832.598,66.406,9.277,18.066,72.266,56.641,0
1486808832.601,36.133,28.809,31.250,43.457,48.340,0
1486808832.605,16.602,26.367,40.039,9.277,35.645,0
1486808832.609,41.992,19.531,25.391,30.273,51.270,0
1486808832.613,43.945,34.180,8.789,59.082,55.176,0
1486808832.617,59.570,28.809,58.594,67.383,44.922,0
1486808832.621,74.219,31.738,70.801,66.895,69.824,0
1486808832.625,68.359,45.898,13.672,70.312,78.125,0
1486808832.629,41.504,25.391,-6.348,48.828,67.383,0
1486808832.633,41.016,18.555,16.602,33.203,84.473,0
1486808832.637,47.852,24.902,7.812,38.574,62.012,0
1486808832.640,19.043,12.207,29.785,36.133,80.566,0
1486808832.644,58.594,33.691,59.082,71.777,86.426,0
1486808832.648,80.566,50.293,26.855,71.289,53.223,0
1486808832.652,55.176,16.113,-14.160,39.062,71.777,0
1486808832.656,37.109,-1.465,-84.961,33.691,98.633,0
1486808832.660,45.410,24.902,-85.449,37.109,69.336,0
1486808832.664,41.504,33.691,-13.672,29.785,56.152,0
1486808832.668,36.621,27.832,-15.137,31.738,98.633,0
1486808832.672,51.758,19.531,21.973,38.574,131.836,0
1486808832.676,40.527,32.715,77.637,36.133,93.262,0
1486808832.680,35.645,46.387,60.059,44.434,77.637,0
1486808832.683,20.996,19.043,38.086,37.598,69.336,0
1486808832.687,26.855,15.625,29.297,20.996,89.844,0
1486808832.691,33.691,22.949,21.973,24.902,98.145,0
1486808832.695,28.809,23.438,-49.316,24.902,82.520,0
1486808832.699,63.965,42.969,-81.543,30.762,110.352,0
1486808832.703,92.773,58.105,-9.766,51.270,120.117,0
1486808832.707,85.938,42.969,40.039,53.223,82.031,0
1486808832.711,73.242,45.410,59.082,48.828,76.660,0
1486808832.715,59.570,48.828,47.852,33.203,95.215,0
1486808832.719,41.992,33.691,27.832,22.461,92.285,0
1486808832.723,34.180,40.039,2.930,18.555,63.965,0
1486808832.726,29.785,35.645,-3.418,17.578,11.230,0
1486808832.730,43.945,20.508,-45.410,20.508,42.969,0
1486808832.734,55.664,35.156,-45.898,36.133,87.891,0
1486808832.738,74.707,45.898,50.293,66.406,64.453,0
1486808832.742,59.570,34.668,13.184,46.875,46.387,0
1486808832.746,37.109,17.090,-48.340,26.367,55.664,0
1486808832.750,34.180,10.742,20.996,13.672,65.918,0
1486808832.754,48.828,26.367,75.684,35.645,49.316,0
1486808832.758,40.527,26.367,41.504,31.738,54.688,0
1486808832.762,20.996,24.902,44.434,15.625,90.820,0
1486808832.765,44.922,49.805,76.660,46.387,70.801,0
1486808832.769,31.738,45.898,66.406,24.414,60.059,0
1486808832.773,-3.906,19.043,50.293,7.324,70.312,0
1486808832.777,15.625,0.488,-22.461,44.922,56.641,0
1486808832.781,39.551,10.254,-39.062,46.875,42.480,0
1486808832.785,25.879,2.930,-33.691,52.734,48.828,0
1486808832.789,13.184,-7.812,-43.457,35.156,72.754,0
1486808832.793,20.020,12.207,43.945,7.812,79.102,0
1486808832.797,39.062,49.316,103.027,45.410,25.879,0
1486808832.801,51.758,63.477,47.363,69.824,16.113,0
1486808832.805,41.016,35.156,19.531,43.457,82.031,0
1486808832.808,39.062,18.555,39.062,43.457,73.730,0
1486808832.812,38.574,35.645,11.719,69.336,55.176,0
1486808832.816,28.320,36.621,-28.320,59.570,80.078,0
1486808832.820,36.621,12.207,-0.488,40.039,80.078,0
1486808832.824,28.809,16.113,13.184,36.621,50.781,0
1486808832.828,63.965,41.504,9.766,62.500,41.992,0
1486808832.832,84.473,55.176,71.777,74.707,63.477,0
1486808832.836,39.551,47.363,90.820,45.898,39.062,0
1486808832.840,20.508,37.109,51.758,38.086,16.113,0
1486808832.844,38.086,21.973,51.270,59.082,-1.465,0
1486808832.848,38.086,12.695,50.293,62.500,0.488,0
1486808832.851,39.551,29.297,20.020,61.523,66.895,0
1486808832.855,66.895,42.480,-11.719,84.473,67.871,0
1486808832.859,67.871,31.250,-24.414,66.895,13.672,0
1486808832.863,50.781,51.270,50.293,45.410,30.762,0
1486808832.867,52.246,57.129,104.004,62.500,44.434,0
1486808832.871,49.316,56.641,82.031,60.059,55.664,0
1486808832.875,63.477,53.223,83.984,83.496,31.738,0
1486808832.879,55.664,22.949,103.027,64.453,-4.883,0
1486808832.883,5.859,4.883,45.898,20.996,1.465,0
1486808832.887,2.930,19.531,0.488,35.645,6.348,0
1486808832.890,37.109,36.133,31.738,63.965,-22.461,0
1486808832.894,53.223,21.973,17.090,82.031,-34.180,0
1486808832.898,76.660,47.852,69.336,92.285,11.230,0
1486808832.902,66.895,63.477,110.840,93.750,5.371,0
1486808832.906,36.621,34.668,71.777,45.410,-6.836,0
1486808832.910,25.391,24.414,42.480,17.090,18.066,0
1486808832.914,26.855,42.480,26.855,23.438,19.043,0
1486808832.918,40.527,50.293,11.719,32.227,4.395,0
1486808832.922,52.734,27.344,-6.836,49.805,4.883,0
1486808832.926,61.035,25.391,30.273,55.176,29.785,0
1486808832.930,55.664,31.250,11.719,63.477,37.598,0
1486808832.933,34.668,39.062,16.602,55.176,-37.109,0
1486808832.937,17.090,32.715,76.172,36.621,-30.273,0
1486808832.941,23.438,16.113,56.641,47.852,24.902,0
1486808832.945,38.086,19.531,1.953,50.293,21.484,0
1486808832.949,48.828,40.527,49.805,41.016,14.648,0
1486808832.953,33.691,30.762,80.566,41.504,13.184,0
1486808832.957,41.016,4.395,57.129,35.156,34.668,0
1486808832.961,51.270,15.625,41.992,36.133,21.484,0
1486808832.965,64.941,52.246,5.859,78.613,19.043,0
1486808832.969,78.613,71.289,18.555,98.145,48.828,0
1486808832.973,44.434,57.617,23.438,56.152,33.203,0
1486808832.976,39.062,21.973,32.227,43.945,20.508,0
1486808832.980,47.852,19.043,82.520,33.203,45.410,0
1486808832.984,51.270,23.926,94.238,41.504,74.707,0
1486808832.988,44.434,23.438,86.914,50.293,71.289,0
1486808832.992,12.207,14.160,48.340,25.879,61.523,0
1486808832.996,9.766,0.488,-71.777,32.227,44.922,0
1486808833.000,41.504,20.508,-74.219,51.270,37.109,0
1486808833.004,55.176,42.480,0.977,48.340,43.457,0
1486808833.008,22.949,25.391,25.391,41.992,22.461,0
1486808833.012,9.766,4.883,-12.695,39.551,7.812,0
1486808833.015,40.527,12.695,-20.020,29.297,38.086,0
1486808833.019,41.992,43.457,34.668,40.527,53.711,0
1486808833.023,52.734,61.035,41.992,69.824,24.902,0
1486808833.027,78.125,59.082,52.734,79.590,12.695,0
1486808833.031,70.801,53.711,85.449,78.125,32.715,0
1486808833.035,80.566,59.082,111.816,94.238,66.895,0
1486808833.039,85.449,64.941,123.047,93.750,49.316,0
1486808833.043,50.781,50.293,5.371,64.941,29.297,0
1486808833.047,40.527,40.039,-112.793,71.289,33.203,0
1486808833.051,54.199,44.922,-41.016,73.730,42.480,0
1486808833.055,62.500,70.801,52.734,76.660,48.828,0
1486808833.058,76.660,72.754,125.000,106.934,48.828,0
1486808833.062,64.453,50.293,112.305,84.961,46.875,0
1486808833.066,66.895,52.246,68.359,67.871,36.621,0
1486808833.070,65.430,50.781,24.902,66.406,32.715,0
1486808833.074,8.789,2.441,-69.336,33.691,23.438,0
1486808833.078,18.555,-11.719,-61.523,32.227,35.156,0
1486808833.082,62.988,25.879,62.988,62.988,26.367,0
1486808833.086,55.176,61.035,118.652,63.965,31.738,0
1486808833.090,39.062,46.387,95.703,49.805,74.219,0
1486808833.094,7.324,7.324,28.320,30.762,96.680,0
1486808833.098,8.789,-15.625,-18.066,28.320,80.566,0
1486808833.101,44.434,2.930,7.812,48.828,60.547,0
1486808833.105,49.316,38.574,14.648,48.340,77.148,0
1486808833.109,52.246,38.086,29.785,52.246,57.617,0
1486808833.113,75.195,36.133,53.223,66.406,50.293,0
1486808833.117,52.246,30.762,68.359,51.270,40.527,0
1486808833.121,26.855,29.297,89.355,42.480,11.719,0
1486808833.125,56.641,56.152,90.820,62.988,30.762,0
1486808833.129,40.039,58.105,29.785,48.828,24.902,0
1486808833.133,11.230,24.414,-21.973,18.555,38.574,0
1486808833.137,22.949,8.789,-4.883,22.949,62.012,0
1486808833.140,15.625,17.090,34.668,33.203,1.465,0
1486808833.144,23.438,34.668,89.844,42.480,-3.906,0
1486808833.148,37.109,33.691,90.332,45.898,40.527,0
1486808833.152,18.555,4.883,45.410,30.762,32.227,0
1486808833.156,37.598,-0.488,34.668,20.508,30.762,0
1486808833.160,45.410,23.926,70.312,35.645,47.852,0
1486808833.164,26.855,20.020,80.078,31.250,43.945,0
1486808833.168,39.062,13.672,14.160,20.508,47.363,0
1486808833.172,40.039,15.137,0.977,16.113,18.555,0
1486808833.176,29.297,8.789,24.414,18.555,-6.836,0
1486808833.180,36.621,18.555,28.809,56.641,34.180,0
1486808833.183,63.965,37.598,68.359,88.867,49.316,0
1486808833.187,48.828,36.621,53.223,50.293,63.477,0
1486808833.191,10.254,25.391,-30.762,21.484,66.406,0
1486808833.195,8.301,17.578,-41.016,23.438,66.895,0
1486808833.199,54.199,41.016,27.344,36.133,69.824,0
1486808833.203,62.500,41.016,71.289,42.969,36.621,0
1486808833.207,13.184,5.371,58.105,21.484,31.738,0
1486808833.211,41.992,25.879,82.520,42.969,41.016,0
1486808833.215,77.148,69.336,109.375,73.242,57.617,0
1486808833.219,74.707,62.988,34.668,65.918,26.855,0
1486808833.223,58.105,38.086,-29.297,64.941,20.020,0
1486808833.226,41.016,25.391,0.000,76.172,55.176,0
1486808833.230,33.203,33.203,28.809,56.641,27.344,0
1486808833.234,43.457,63.477,74.707,67.871,26.367,0
1486808833.238,39.062,54.688,100.586,62.012,47.363,0
1486808833.242,28.809,17.090,38.086,35.645,61.523,0
1486808833.246,10.742,11.719,58.594,21.973,38.086,0
1486808833.250,20.996,35.645,80.566,22.949,31.738,0
1486808833.254,54.688,59.570,18.555,53.711,63.477,0
1486808833.258,41.016,52.246,47.363,43.457,42.480,0
1486808833.262,44.922,28.809,89.355,60.059,26.367,0
1486808833.265,31.250,13.672,30.273,60.547,25.879,0
1486808833.269,19.531,33.691,-26.855,35.645,53.223,0
1486808833.273,69.824,66.895,21.973,70.312,59.082,0
1486808833.277,58.105,43.457,63.477,54.688,10.254,0
1486808833.281,51.270,28.320,43.945,61.035,17.578,0
1486808833.285,80.566,45.410,62.500,99.121,78.125,0
1486808833.289,67.383,50.293,109.375,71.777,73.242,0
1486808833.293,51.270,37.598,88.867,40.527,36.133,0
1486808833.297,38.086,38.574,55.664,42.480,29.785,0
1486808833.301,15.625,26.367,31.738,31.250,57.129,0
1486808833.305,28.809,17.090,3.418,22.949,62.012,0
1486808833.308,67.871,58.594,-1.465,56.641,11.230,0
1486808833.312,64.453,50.781,-12.695,48.828,15.137,0
1486808833.316,53.711,26.367,7.324,41.504,65.430,0
1486808833.320,55.176,52.246,36.621,48.340,78.125,0
1486808833.324,30.273,44.434,44.922,20.996,50.781,0
1486808833.328,25.879,18.555,33.691,-0.977,49.805,0
1486808833.332,44.434,19.531,41.992,11.230,61.035,0
1486808833.336,19.531,20.996,55.664,10.254,48.340,0
1486808833.340,20.508,28.809,53.711,11.230,33.203,0
1486808833.344,19.043,8.301,69.336,29.785,22.949,0
1486808833.348,11.230,-1.953,67.871,32.715,25.879,0
1486808833.351,29.785,23.438,60.059,37.598,25.879,0
1486808833.355,42.480,25.391,-12.207,47.363,30.273,0
1486808833.359,46.387,33.203,-33.203,53.711,51.758,0
1486808833.363,48.828,32.227,47.852,72.266,35.156,0
1486808833.367,25.391,14.160,35.156,64.453,36.621,0
1486808833.371,21.973,31.250,53.223,42.969,67.383,0
1486808833.375,45.898,32.227,69.824,36.133,60.059,0
1486808833.379,27.832,8.789,19.531,21.484,57.129,0
1486808833.383,23.926,16.113,26.367,18.066,51.270,0
1486808833.387,53.223,42.480,52.246,43.457,30.273,0
1486808833.390,79.102,55.176,63.477,63.965,57.129,0
1486808833.394,46.875,32.715,52.246,49.805,59.082,0
1486808833.398,6.348,15.625,-12.207,2.441,26.367,0
1486808833.402,7.324,1.953,-71.289,5.371,41.504,0
1486808833.406,12.695,9.277,-25.391,25.879,78.613,0
1486808833.410,17.090,11.230,58.594,10.742,41.016,0
1486808833.414,4.395,-17.578,36.133,1.465,6.836,0
1486808833.418,41.016,-4.395,-3.418,25.879,40.039,0
1486808833.422,75.195,42.480,57.129,49.316,47.852,0
1486808833.426,41.992,50.293,80.078,26.855,6.836,0
1486808833.430,27.344,24.902,-25.879,27.832,8.301,0
1486808833.433,36.133,15.137,-71.777,47.852,42.969,0
1486808833.437,59.082,34.668,-35.156,51.758,27.832,0
1486808833.441,77.148,57.129,6.348,67.383,-17.090,0
1486808833.445,49.805,36.621,55.664,52.734,-25.879,0
1486808833.449,6.348,10.254,62.500,16.113,-2.441,0
1486808833.453,16.602,8.301,60.547,21.484,-13.672,0
1486808833.457,49.805,20.996,48.340,39.551,-60.059,0
1486808833.461,35.645,24.414,5.859,35.156,-70.312,0
1486808833.465,9.766,8.301,6.348,-1.953,-54.688,0
1486808833.469,15.625,1.465,16.113,-3.418,-31.738,0
1486808833.473,32.715,21.973,-2.441,27.832,-24.902,0
1486808833.476,27.344,17.090,5.859,36.621,-57.129,0
1486808833.480,41.504,17.090,42.480,45.410,-44.922,0
1486808833.484,58.105,37.598,48.340,59.082,-35.156,0
1486808833.488,60.547,41.992,40.039,57.617,-57.617,0
1486808833.492,49.316,32.715,26.855,47.363,-63.965,0
1486808833.496,57.617,33.691,-7.324,73.730,-39.062,0
1486808833.500,87.891,35.156,-16.113,98.633,-33.203,0
1486808833.504,76.660,21.973,14.648,82.031,-37.109,0
1486808833.508,50.293,30.273,44.922,81.055,-38.086,0
1486808833.512,57.129,35.645,76.660,89.844,-33.203,0
1486808833.515,58.105,28.320,82.031,68.359,-43.457,0
1486808833.519,45.898,37.109,52.734,56.152,-28.320,0
1486808833.523,41.504,30.273,15.137,33.203,-32.715,0
1486808833.527,41.016,32.227,-41.992,31.738,-86.914,0
