timestamps,TP9,AF7,AF8,TP10,Right AUX,Marker0
1486823380.146,34.180,51.758,16.602,41.992,34.668,0
1486823380.150,30.762,41.016,31.250,35.645,44.434,0
1486823380.154,20.020,28.320,22.949,25.391,8.301,0
1486823380.158,17.578,22.461,10.254,27.344,-53.711,0
1486823380.161,27.344,22.949,18.066,24.414,-4.883,0
1486823380.165,37.109,24.414,48.828,37.109,54.688,0
1486823380.169,33.691,25.879,61.035,40.039,36.621,0
1486823380.173,25.391,20.508,27.832,22.949,1.465,0
1486823380.177,34.180,33.203,10.254,27.832,27.832,0
1486823380.181,40.527,48.828,31.738,40.527,46.875,0
1486823380.185,32.715,35.645,45.898,34.668,11.719,0
1486823380.189,30.273,36.133,41.016,41.504,-8.301,0
1486823380.193,25.391,44.922,33.203,42.480,18.555,0
1486823380.197,14.160,38.574,28.809,27.344,46.387,0
1486823380.200,25.391,45.898,29.785,39.062,36.133,0
1486823380.204,43.457,60.547,38.574,59.570,33.691,0
1486823380.208,37.598,51.270,25.391,56.152,28.320,0
1486823380.212,30.762,51.270,16.602,43.457,28.809,0
1486823380.216,19.531,52.246,34.180,30.762,13.184,0
1486823380.220,15.625,54.688,59.082,35.156,-17.578,0
1486823380.224,20.020,50.293,54.199,42.480,5.371,0
1486823380.228,30.273,41.992,44.922,51.758,-6.836,0
1486823380.232,30.762,47.852,41.504,55.664,-34.668,0
1486823380.236,29.297,39.062,34.180,45.410,-5.371,0
1486823380.240,43.945,32.715,31.250,43.457,23.438,0
1486823380.243,53.223,48.340,21.484,51.270,25.879,0
1486823380.247,48.828,62.012,23.926,47.852,44.434,0
1486823380.251,66.895,83.496,33.203,55.176,33.691,0
1486823380.255,80.078,90.820,42.480,59.082,-4.883,0
1486823380.259,54.199,61.523,50.781,30.762,-3.418,0
1486823380.263,23.438,50.293,44.434,-2.930,37.598,0
1486823380.267,16.602,63.965,45.898,8.789,39.551,0
1486823380.271,22.461,69.824,37.109,42.969,2.930,0
1486823380.275,13.672,57.129,24.414,46.387,9.766,0
1486823380.279,11.719,43.945,36.621,51.270,13.672,0
1486823380.283,11.230,51.758,26.367,51.270,17.578,0
1486823380.286,8.301,58.594,30.762,54.199,33.203,0
1486823380.290,12.695,48.828,48.828,64.941,44.434,0
1486823380.294,19.531,43.945,30.762,59.570,12.207,0
1486823380.298,25.391,61.035,49.805,61.035,16.113,0
1486823380.302,30.273,77.148,77.148,68.359,64.453,0
1486823380.306,18.555,78.613,62.500,60.547,18.066,0
1486823380.310,21.973,91.309,50.781,64.941,-18.066,0
1486823380.314,37.598,96.191,41.016,68.359,18.555,0
1486823380.318,25.879,85.938,40.039,60.547,26.855,0
1486823380.322,24.902,86.914,46.875,66.895,-1.465,0
1486823380.325,36.133,90.332,37.598,74.219,-3.906,0
1486823380.329,25.879,79.102,31.250,62.012,34.180,0
1486823380.333,8.301,69.336,37.598,49.316,17.090,0
1486823380.337,10.254,68.848,58.105,52.734,0.000,0
1486823380.341,14.648,65.430,62.988,51.270,19.531,0
1486823380.345,25.879,76.172,61.035,58.594,34.668,0
1486823380.349,36.621,85.449,62.500,67.871,47.852,0
1486823380.353,24.414,82.520,31.738,52.734,6.836,0
1486823380.357,5.371,71.289,-1.953,32.227,-20.996,0
1486823380.361,17.578,74.707,32.227,48.340,7.324,0
1486823380.365,43.457,95.703,83.008,71.777,15.137,0
1486823380.368,35.156,91.309,54.199,57.129,-16.602,0
1486823380.372,18.555,68.848,40.039,34.668,-14.648,0
1486823380.376,18.555,58.105,66.406,39.551,20.508,0
1486823380.380,17.578,36.133,59.082,43.457,26.855,0
1486823380.384,11.719,23.926,58.105,40.039,13.184,0
1486823380.388,29.785,35.645,62.012,60.547,20.020,0
1486823380.392,41.016,43.945,48.340,71.289,41.016,0
1486823380.396,34.180,44.922,31.250,64.941,30.273,0
1486823380.400,42.480,46.387,51.270,65.918,18.066,0
1486823380.404,56.152,53.223,60.547,71.777,-12.207,0
1486823380.408,49.316,58.594,69.336,70.312,-3.418,0
1486823380.411,25.879,49.316,77.637,45.898,-7.812,0
1486823380.415,9.766,37.598,56.641,28.320,-11.230,0
1486823380.419,2.441,19.043,30.762,27.832,31.738,0
1486823380.423,10.742,26.855,18.555,37.109,19.043,0
1486823380.427,22.461,28.320,33.691,38.086,-9.277,0
1486823380.431,22.461,31.250,46.387,35.156,30.762,0
1486823380.435,19.531,47.852,48.828,34.668,59.570,0
1486823380.439,23.926,53.223,49.805,41.504,1.953,0
1486823380.443,26.367,59.082,44.434,43.457,5.371,0
1486823380.447,48.340,91.309,52.734,64.453,33.203,0
1486823380.450,72.266,115.723,90.332,92.773,12.207,0
1486823380.454,46.875,84.473,62.500,79.590,-23.926,0
1486823380.458,12.695,59.082,25.391,49.805,-54.199,0
1486823380.462,-0.488,52.734,51.270,32.715,-12.207,0
1486823380.466,-3.906,55.664,51.758,22.949,55.176,0
1486823380.470,13.672,82.520,21.484,31.250,28.320,0
1486823380.474,24.414,92.285,27.832,42.969,-16.113,0
1486823380.478,21.484,76.660,67.383,48.828,23.438,0
1486823380.482,32.227,69.336,83.984,64.453,41.016,0
1486823380.486,21.973,49.805,58.105,52.246,-1.465,0
1486823380.490,-3.418,28.809,28.320,22.949,-1.465,0
1486823380.493,-4.395,30.273,29.297,25.879,32.227,0
1486823380.497,1.953,45.898,46.387,24.414,44.922,0
1486823380.501,12.207,51.270,42.480,23.438,24.414,1
1486823380.505,24.902,66.895,36.133,42.480,10.254,0
1486823380.509,19.531,64.941,11.719,36.133,20.508,0
1486823380.513,11.230,43.457,14.160,26.367,23.438,0
1486823380.517,23.438,41.016,56.641,43.457,33.691,0
1486823380.521,25.391,41.992,57.617,48.828,18.066,0
1486823380.525,12.207,30.273,43.457,20.996,12.207,0
1486823380.529,14.648,33.691,38.574,24.902,30.762,0
1486823380.533,39.551,56.152,47.363,51.758,1.465,0
1486823380.536,52.734,61.035,59.082,57.617,-11.230,0
1486823380.540,54.199,71.289,61.523,62.988,20.020,0
1486823380.544,66.406,80.566,42.480,82.031,7.812,0
1486823380.548,81.055,94.238,49.805,100.098,-25.391,0
1486823380.552,72.266,83.496,74.707,88.379,-23.438,0
1486823380.556,35.156,47.363,48.340,46.875,4.883,0
1486823380.560,5.859,35.156,25.391,25.391,-0.488,0
1486823380.564,8.789,51.270,32.227,32.715,1.465,0
1486823380.568,18.555,74.707,40.527,39.062,27.832,0
1486823380.572,20.996,78.613,29.785,50.781,20.996,0
1486823380.575,15.625,64.941,12.695,45.898,29.785,0
1486823380.579,15.137,51.270,14.160,33.203,45.898,0
1486823380.583,12.207,46.387,17.090,36.133,22.949,0
1486823380.587,20.508,61.035,54.199,61.523,0.488,0
1486823380.591,39.062,78.613,93.750,74.219,-4.883,0
1486823380.595,22.949,62.988,78.613,46.875,5.859,0
1486823380.599,1.465,35.645,41.016,33.691,30.762,0
1486823380.603,-6.836,3.906,28.809,28.320,0.488,0
1486823380.607,-17.090,-5.371,41.016,20.508,9.277,0
1486823380.611,-17.090,5.859,33.203,18.555,24.414,0
1486823380.615,-9.766,12.207,32.715,16.602,21.973,0
1486823380.618,6.836,27.832,40.039,40.039,4.883,0
1486823380.622,16.602,50.781,36.133,47.363,-28.320,0
1486823380.626,13.672,53.223,41.992,38.086,21.973,0
1486823380.630,13.184,36.621,53.711,37.598,49.805,0
1486823380.634,9.766,46.875,46.875,44.434,38.086,0
1486823380.638,16.602,75.195,54.688,51.758,-12.207,0
1486823380.642,13.184,59.570,64.941,45.898,-0.977,0
1486823380.646,14.160,40.039,53.711,48.340,48.828,0
1486823380.650,25.879,42.969,37.109,61.035,27.344,0
1486823380.654,17.090,30.273,27.344,51.758,6.836,0
1486823380.658,14.648,29.297,33.203,41.992,-4.883,0
1486823380.661,36.133,55.664,56.152,64.941,24.902,0
1486823380.665,41.504,53.711,62.012,75.195,30.762,0
1486823380.669,42.480,43.945,27.344,72.266,3.906,0
1486823380.673,46.387,43.945,39.551,81.543,19.043,0
1486823380.677,40.039,35.645,70.801,77.148,42.480,0
1486823380.681,29.785,33.691,59.082,57.617,21.973,0
1486823380.685,30.762,38.086,56.641,59.570,-18.066,0
1486823380.689,25.879,28.320,49.316,51.758,-18.555,0
1486823380.693,8.301,14.648,25.879,36.621,21.973,0
1486823380.697,20.508,28.320,36.621,49.805,28.320,0
1486823380.700,24.902,33.691,53.223,47.363,34.668,0
1486823380.704,6.836,24.414,42.969,25.391,27.344,0
1486823380.708,14.160,26.367,35.156,35.645,27.832,0
1486823380.712,23.926,31.250,38.574,40.527,53.711,0
1486823380.716,18.555,41.016,41.504,23.926,43.945,0
1486823380.720,19.043,48.828,44.922,24.902,14.160,0
1486823380.724,20.508,54.199,40.527,42.480,16.602,0
1486823380.728,22.461,50.293,41.504,45.410,50.781,0
1486823380.732,37.109,50.293,56.641,49.805,53.711,0
1486823380.736,25.879,50.293,52.734,49.316,16.113,0
1486823380.740,11.719,43.945,29.785,35.645,-0.488,0
1486823380.743,41.504,66.895,36.133,57.617,-2.441,0
1486823380.747,52.246,79.590,67.871,72.266,11.230,0
1486823380.751,20.996,52.734,55.664,41.992,29.785,0
1486823380.755,1.465,40.527,35.156,21.484,32.227,0
1486823380.759,10.254,55.176,38.574,36.621,42.480,0
1486823380.763,20.996,61.523,45.898,51.270,62.500,0
1486823380.767,24.414,61.035,45.898,49.316,50.293,0
1486823380.771,19.043,55.176,31.738,43.945,-16.113,0
1486823380.775,21.484,56.152,20.996,42.480,-16.602,0
1486823380.779,26.855,60.547,45.410,45.898,44.434,0
1486823380.783,34.180,59.570,59.570,52.734,58.105,0
1486823380.786,36.133,52.246,35.156,52.734,8.789,0
1486823380.790,22.949,33.691,34.668,43.945,10.742,0
1486823380.794,18.066,36.133,53.223,41.016,40.527,0
1486823380.798,26.855,49.316,55.664,44.434,36.621,0
1486823380.802,29.297,48.340,47.363,49.805,19.531,0
1486823380.806,32.715,40.527,15.137,53.223,19.531,0
1486823380.810,59.082,61.523,21.484,73.242,56.641,0
1486823380.814,69.824,77.148,65.430,84.473,60.547,0
1486823380.818,62.500,74.707,52.246,86.914,35.156,0
1486823380.822,59.570,74.707,42.969,82.031,45.898,0
1486823380.825,22.949,36.621,33.691,37.598,38.086,0
1486823380.829,1.465,18.066,20.020,28.320,5.371,0
1486823380.833,4.395,26.367,27.344,43.945,-10.254,0
1486823380.837,11.230,40.527,26.367,42.969,-11.719,0
1486823380.841,20.020,45.898,20.996,36.133,21.973,0
1486823380.845,26.855,48.340,36.133,45.410,25.879,0
1486823380.849,21.973,39.062,25.879,46.387,40.039,0
1486823380.853,38.086,43.457,15.137,69.336,43.945,0
1486823380.857,48.828,59.082,51.758,87.891,46.387,0
1486823380.861,35.156,59.570,77.637,62.988,67.383,0
1486823380.865,25.879,54.199,59.082,53.223,20.996,0
1486823380.868,18.555,31.250,27.832,41.992,27.344,0
1486823380.872,35.645,31.738,37.109,57.129,32.715,0
1486823380.876,52.734,61.523,26.855,77.637,-28.809,0
1486823380.880,40.527,63.965,19.043,68.359,9.277,0
1486823380.884,34.180,49.805,51.758,64.941,53.711,0
1486823380.888,21.484,39.062,39.062,46.387,11.230,0
1486823380.892,12.695,47.852,20.508,32.227,-3.906,0
1486823380.896,28.809,73.730,44.434,41.016,55.176,0
1486823380.900,44.434,84.961,69.336,53.223,89.844,0
1486823380.904,48.828,73.242,39.551,64.453,42.480,0
1486823380.908,43.945,62.012,27.344,59.570,30.762,0
1486823380.911,38.086,56.152,41.016,41.992,38.086,0
1486823380.915,30.762,50.293,37.109,38.086,37.598,0
1486823380.919,48.340,73.730,70.801,64.941,3.418,0
1486823380.923,53.711,86.914,83.984,77.148,-35.645,0
1486823380.927,25.391,67.383,35.645,49.316,8.301,0
1486823380.931,17.090,55.176,0.000,29.785,36.621,0
1486823380.935,32.715,74.219,6.348,39.062,30.762,0
1486823380.939,55.664,102.051,42.480,66.895,31.250,0
1486823380.943,58.594,107.422,78.125,84.473,40.039,0
1486823380.947,46.387,96.191,84.473,68.359,65.918,0
1486823380.950,26.855,79.102,66.895,39.551,77.148,0
1486823380.954,15.137,77.148,45.410,33.203,35.645,0
1486823380.958,19.043,89.355,46.875,44.922,-2.930,0
1486823380.962,22.461,81.055,51.758,46.875,21.484,0
1486823380.966,32.715,66.406,18.555,43.457,27.344,0
1486823380.970,28.809,68.848,10.254,43.457,10.742,0
1486823380.974,24.414,61.523,54.199,50.293,17.578,0
1486823380.978,30.273,54.688,81.543,51.270,34.180,0
1486823380.982,32.715,48.828,77.148,44.434,41.016,0
1486823380.986,33.691,30.762,58.105,46.875,30.273,0
1486823380.990,27.344,25.391,41.016,35.645,45.898,0
1486823380.993,37.598,39.551,36.621,27.832,40.527,0
1486823380.997,60.059,62.012,49.316,46.875,9.766,0
1486823381.001,63.965,58.594,55.176,48.828,15.625,0
1486823381.005,43.457,31.250,34.180,30.273,29.297,0
1486823381.009,32.227,29.785,51.758,25.391,67.871,0
1486823381.013,30.273,37.109,68.359,32.715,75.195,0
1486823381.017,33.691,48.828,63.965,59.082,38.086,0
1486823381.021,26.855,47.363,68.359,68.848,49.316,0
1486823381.025,9.277,29.297,50.781,51.758,32.227,0
1486823381.029,18.555,37.109,28.320,63.965,23.926,0
1486823381.033,30.273,54.688,40.527,75.195,40.039,0
1486823381.036,24.414,45.898,54.688,66.406,18.555,0
1486823381.040,5.859,39.551,55.664,45.898,1.465,0
1486823381.044,1.465,35.645,42.969,21.484,48.828,0
1486823381.048,31.738,42.480,53.711,47.363,31.250,0
1486823381.052,46.875,59.082,77.148,77.148,15.625,0
1486823381.056,25.879,50.781,54.199,65.918,17.090,0
1486823381.060,15.625,53.223,37.598,58.105,30.273,0
1486823381.064,21.484,58.105,38.574,76.660,59.082,0
1486823381.068,11.230,46.387,30.762,63.477,27.344,0
1486823381.072,4.883,51.758,53.711,40.039,-20.508,0
1486823381.075,23.926,56.152,76.172,56.641,-2.441,0
1486823381.079,44.434,57.129,77.637,78.613,42.480,0
1486823381.083,34.668,68.848,52.734,76.660,30.273,0
1486823381.087,13.672,51.758,9.277,54.199,3.906,0
1486823381.091,9.277,35.156,17.578,52.246,6.836,0
1486823381.095,11.230,48.340,39.551,51.758,35.156,0
1486823381.099,21.484,54.199,23.926,57.129,37.598,0
1486823381.103,31.250,69.824,28.320,67.383,7.812,0
1486823381.107,30.762,86.914,75.195,63.965,1.465,0
1486823381.111,33.691,86.914,87.891,66.406,25.879,0
1486823381.115,41.992,76.660,45.898,64.941,50.293,0
1486823381.118,51.758,84.473,49.805,66.406,20.020,0
1486823381.122,51.270,95.215,72.754,65.918,22.949,0
1486823381.126,29.785,82.031,59.082,49.805,43.457,0
1486823381.130,16.113,68.848,29.785,43.945,23.438,0
1486823381.134,24.902,61.035,28.809,51.758,6.348,0
1486823381.138,33.203,60.059,65.918,47.363,15.137,0
1486823381.142,28.320,49.805,59.082,46.387,21.973,0
1486823381.146,28.809,49.316,34.668,52.246,33.691,0
1486823381.150,29.785,61.523,48.828,44.434,43.945,0
1486823381.154,25.879,70.312,63.477,35.645,-2.441,0
1486823381.158,22.461,63.477,56.152,28.809,-21.484,0
1486823381.161,12.207,46.875,32.715,24.902,-3.906,0
1486823381.165,28.809,64.453,34.668,34.668,12.207,0
1486823381.169,66.406,107.422,73.242,63.477,17.578,0
1486823381.173,54.199,99.609,49.805,59.082,11.719,0
1486823381.177,25.391,65.918,14.648,23.926,17.090,0
1486823381.181,18.555,50.781,48.340,10.742,23.926,0
1486823381.185,10.742,37.109,60.547,22.461,22.949,0
1486823381.189,11.719,40.039,47.363,32.227,-8.301,0
1486823381.193,27.832,55.664,45.410,36.621,-8.301,0
1486823381.197,37.109,63.477,49.316,44.922,29.785,0
1486823381.200,39.062,62.500,19.531,42.969,35.645,0
1486823381.204,39.551,62.500,-6.348,46.387,-3.906,0
1486823381.208,30.273,39.551,31.250,37.598,-15.137,0
1486823381.212,27.832,31.250,49.805,29.297,50.781,0
1486823381.216,41.504,55.664,50.781,57.617,47.363,0
1486823381.220,48.340,64.941,63.965,68.359,8.789,0
1486823381.224,37.109,48.340,79.102,56.641,42.969,0
1486823381.228,30.762,39.062,53.223,46.875,54.688,0
1486823381.232,35.156,35.645,-8.789,42.480,41.992,0
1486823381.236,48.340,47.363,17.090,58.594,20.508,0
1486823381.240,41.016,30.273,63.477,49.316,-6.836,0
1486823381.243,19.043,2.441,38.574,26.855,20.996,0
1486823381.247,26.855,18.555,31.250,29.297,25.391,0
1486823381.251,44.922,33.203,58.105,38.086,-7.324,0
1486823381.255,44.922,33.203,53.223,47.363,-11.719,0
1486823381.259,41.504,43.945,36.621,48.340,26.367,0
1486823381.263,45.410,53.711,30.762,54.688,58.105,0
1486823381.267,59.082,58.105,24.414,58.105,41.992,0
1486823381.271,65.430,62.012,13.184,54.688,16.113,0
1486823381.275,67.383,78.125,38.086,66.895,26.367,0
1486823381.279,83.984,90.332,83.984,91.797,31.250,0
1486823381.283,72.754,65.430,73.242,72.754,37.109,0
1486823381.286,29.297,27.344,50.781,26.367,37.598,0
1486823381.290,30.762,24.414,35.645,26.367,-9.277,0
1486823381.294,33.691,32.715,-0.977,38.574,21.973,0
1486823381.298,24.902,28.809,19.531,40.039,28.320,0
1486823381.302,40.527,42.969,78.125,56.152,14.648,0
1486823381.306,33.203,44.922,73.242,47.852,35.156,0
1486823381.310,15.625,20.020,36.133,28.809,19.531,0
1486823381.314,13.672,7.324,39.551,23.438,18.555,0
1486823381.318,12.207,7.324,57.129,14.648,33.203,0
1486823381.322,18.555,12.207,59.570,18.066,18.555,0
1486823381.325,20.996,23.438,38.086,25.879,13.184,0
1486823381.329,19.043,32.227,17.578,23.438,35.156,0
1486823381.333,26.367,33.691,32.715,27.832,45.410,0
1486823381.337,32.715,37.109,46.387,32.715,14.648,0
1486823381.341,36.621,45.410,38.574,34.668,5.859,0
1486823381.345,57.129,68.359,43.945,56.152,0.488,0
1486823381.349,68.359,73.242,58.105,72.266,5.371,0
1486823381.353,49.805,54.688,58.594,57.129,19.531,0
1486823381.357,27.832,37.109,45.898,37.598,14.648,0
1486823381.361,18.066,39.551,29.297,28.320,35.156,0
1486823381.365,22.461,48.828,43.457,30.273,41.992,0
1486823381.368,60.059,72.754,53.223,61.523,39.551,0
1486823381.372,84.473,107.422,33.203,80.078,29.297,0
1486823381.376,54.199,77.637,48.828,54.688,8.301,0
1486823381.380,22.949,44.922,37.109,30.273,32.227,0
1486823381.384,18.066,51.270,15.625,26.367,45.410,0
1486823381.388,26.855,55.664,40.527,38.086,-12.207,0
1486823381.392,40.527,58.594,62.012,50.293,0.977,0
1486823381.396,41.016,72.266,58.105,49.805,64.453,0
1486823381.400,31.738,73.730,38.574,46.387,39.062,0
1486823381.404,37.598,80.566,54.199,58.594,38.574,0
1486823381.408,38.574,85.938,67.383,62.988,35.645,0
1486823381.411,32.715,68.848,58.594,51.758,27.832,0
1486823381.415,26.367,48.340,44.922,43.945,38.574,0
1486823381.419,16.113,52.246,33.203,36.621,19.531,0
1486823381.423,23.926,67.871,49.805,35.645,5.371,0
1486823381.427,29.297,74.707,65.430,42.969,5.859,0
1486823381.431,28.809,89.355,47.852,53.711,43.457,0
1486823381.435,42.969,101.074,37.109,61.523,47.852,0
1486823381.439,33.691,101.562,40.527,54.199,7.812,0
1486823381.443,14.648,74.219,29.785,37.109,24.902,0
1486823381.447,13.672,45.898,52.734,38.086,40.527,0
1486823381.450,3.418,42.969,57.129,34.668,16.113,0
1486823381.454,9.277,39.551,49.316,32.715,-2.930,0
1486823381.458,43.457,60.059,42.969,62.988,6.836,0
1486823381.462,60.059,76.172,5.859,83.984,27.832,0
1486823381.466,45.410,47.363,-0.488,71.777,19.531,0
1486823381.470,25.391,38.086,21.973,51.270,28.809,0
1486823381.474,15.625,38.086,10.254,36.133,11.230,0
1486823381.478,24.414,42.480,18.066,49.316,-7.324,0
1486823381.482,22.461,49.316,42.969,57.617,27.832,0
1486823381.486,15.625,32.227,45.410,58.594,6.348,0
1486823381.490,14.160,20.020,21.973,46.875,-28.809,0
1486823381.493,19.531,43.945,19.043,46.875,-21.484,0
1486823381.497,31.250,62.500,40.527,59.570,5.859,0
1486823381.501,35.156,56.152,21.484,59.570,20.996,0
1486823381.505,20.020,35.645,-1.465,46.875,-20.996,0
1486823381.509,4.883,11.230,-8.301,24.902,-20.996,0
1486823381.513,9.277,17.090,15.137,20.508,21.973,0
1486823381.517,9.766,46.875,43.945,32.715,33.691,0
1486823381.521,19.043,74.219,75.684,66.406,-19.531,0
1486823381.525,35.645,84.961,90.820,73.730,-17.090,0
1486823381.529,27.832,74.707,49.805,43.945,34.668,0
1486823381.533,14.648,55.664,44.922,45.410,54.688,0
1486823381.536,17.090,49.805,58.594,53.223,-25.879,0
1486823381.540,26.367,60.547,36.133,58.105,-28.809,0
1486823381.544,29.297,72.266,16.113,47.852,48.340,0
1486823381.548,11.719,57.129,21.973,28.320,17.090,0
1486823381.552,-4.395,50.293,22.461,31.738,-5.859,0
1486823381.556,7.324,70.801,36.133,43.457,4.395,0
1486823381.560,28.809,77.637,53.711,57.129,64.941,0
1486823381.564,23.926,63.965,43.457,53.223,69.824,0
1486823381.568,19.043,45.410,45.410,46.387,-1.465,0
1486823381.572,33.691,59.570,56.641,63.965,-28.809,0
1486823381.575,51.270,85.938,75.195,78.613,-3.906,0
1486823381.579,33.691,76.172,72.266,57.617,31.738,0
1486823381.583,20.508,62.012,44.922,36.621,3.418,0
1486823381.587,34.668,61.035,29.297,35.645,-26.367,0
1486823381.591,37.109,57.617,15.625,40.039,23.438,0
1486823381.595,28.320,53.223,8.301,47.852,50.293,0
1486823381.599,35.156,56.641,29.785,48.828,38.086,0
1486823381.603,52.734,67.383,49.805,60.059,3.418,0
1486823381.607,50.293,54.199,49.316,58.594,-25.391,0
1486823381.611,53.711,54.199,67.383,69.336,7.812,0
1486823381.615,37.598,54.688,58.594,63.965,20.508,0
1486823381.618,32.715,50.293,51.758,50.781,33.691,0
1486823381.622,45.410,64.453,58.105,55.176,46.875,0
1486823381.626,29.785,57.129,22.949,44.434,13.672,0
1486823381.630,30.762,53.711,3.418,47.363,-4.395,0
1486823381.634,49.805,78.613,27.344,64.453,0.977,0
1486823381.638,41.992,86.914,47.852,67.383,-0.977,0
1486823381.642,28.320,77.637,61.523,59.570,-2.930,0
1486823381.646,18.066,64.941,56.641,59.082,-6.836,0
1486823381.650,8.301,50.293,51.270,55.176,-5.371,0
1486823381.654,12.207,52.246,54.199,40.039,-16.113,0
1486823381.658,23.438,70.801,49.316,52.246,-21.484,0
1486823381.661,26.855,79.590,47.852,68.359,18.066,0
1486823381.665,30.762,94.238,45.898,66.406,31.250,0
1486823381.669,33.203,94.238,21.484,61.035,-26.367,0
1486823381.673,20.508,82.031,9.277,51.758,-57.129,0
1486823381.677,13.184,71.777,26.367,52.734,-7.324,0
1486823381.681,1.953,53.711,25.879,31.250,1.465,0
1486823381.685,12.207,66.895,48.828,40.527,-20.996,0
1486823381.689,34.180,83.984,73.242,63.965,-19.043,0
1486823381.693,31.738,81.055,57.617,61.035,12.695,0
1486823381.697,34.180,85.449,46.387,58.594,25.391,0
1486823381.700,36.133,96.191,56.641,53.711,14.160,0
1486823381.704,35.156,100.586,56.641,62.988,19.043,0
1486823381.708,24.414,86.426,20.996,53.223,25.879,0
1486823381.712,13.184,70.801,25.391,29.785,10.254,0
1486823381.716,12.207,75.684,39.062,26.855,-24.902,0
1486823381.720,17.090,74.707,37.598,28.809,-0.488,0
1486823381.724,23.926,70.312,41.504,41.016,29.785,0
1486823381.728,36.133,85.449,52.734,48.828,38.574,0
1486823381.732,41.504,94.727,62.988,41.992,32.227,0
1486823381.736,41.504,93.262,74.707,51.270,10.742,0
1486823381.740,36.621,82.031,70.312,50.293,-2.930,0
1486823381.743,37.598,79.102,61.523,51.270,2.930,0
1486823381.747,42.969,84.473,35.156,58.105,15.625,0
1486823381.751,39.062,92.773,-11.719,58.594,-8.789,0
1486823381.755,39.551,111.328,29.297,63.477,-15.625,0
1486823381.759,27.832,99.121,61.035,51.758,-19.043,0
1486823381.763,21.973,83.008,47.363,50.781,-11.230,2
1486823381.767,7.324,53.711,56.641,42.480,4.395,0
1486823381.771,-5.859,25.879,56.152,23.926,7.812,0
1486823381.775,3.906,46.387,66.895,28.809,3.418,0
1486823381.779,26.855,64.453,56.152,62.500,41.992,0
1486823381.783,41.504,55.176,3.418,72.266,67.871,0
1486823381.786,20.996,52.246,20.020,58.105,48.828,0
1486823381.790,17.090,65.918,89.844,67.383,13.184,0
1486823381.794,26.855,72.266,105.957,71.777,13.184,0
1486823381.798,14.648,61.523,85.449,60.059,11.719,0
1486823381.802,9.766,59.570,63.477,56.641,-20.508,0
1486823381.806,12.207,70.312,44.922,64.453,-47.363,0
1486823381.810,21.484,72.754,56.152,66.895,-43.457,0
1486823381.814,28.809,78.613,68.848,69.336,-12.695,0
1486823381.818,24.414,79.590,50.293,64.453,9.766,0
1486823381.822,17.090,62.988,22.461,54.199,5.859,0
1486823381.825,26.367,59.570,11.719,46.875,22.949,0
1486823381.829,40.527,64.453,36.133,56.152,16.602,0
1486823381.833,30.762,55.664,62.012,56.152,-10.742,0
1486823381.837,22.461,52.734,57.129,45.898,45.410,0
1486823381.841,21.484,62.012,54.199,55.176,48.828,0
1486823381.845,12.695,56.641,58.105,44.922,20.508,0
1486823381.849,17.090,66.895,67.383,48.340,13.672,0
1486823381.853,29.297,83.984,65.430,56.641,0.488,0
1486823381.857,41.504,99.609,55.664,58.594,14.160,0
1486823381.861,35.645,98.145,43.945,58.105,7.812,0
1486823381.865,28.320,69.336,45.410,56.152,7.324,0
1486823381.868,36.133,68.848,38.086,51.270,18.066,0
1486823381.872,43.457,87.402,31.250,62.500,12.207,0
1486823381.876,35.645,87.402,55.664,62.012,29.297,0
1486823381.880,20.508,79.102,62.012,28.809,34.668,0
1486823381.884,25.879,95.703,52.246,37.109,-7.324,0
1486823381.888,54.688,132.812,57.617,67.871,-47.363,0
1486823381.892,51.758,118.164,62.988,58.594,-8.301,0
1486823381.896,34.668,90.820,50.781,36.621,48.828,0
1486823381.900,36.621,94.238,41.504,21.484,26.855,0
1486823381.904,39.062,84.473,54.199,11.230,2.441,0
1486823381.908,45.410,69.824,53.223,8.789,48.828,0
1486823381.911,62.012,79.102,50.781,20.508,66.406,0
1486823381.915,39.551,76.660,61.523,20.020,54.199,0
1486823381.919,19.043,64.941,62.988,26.367,38.086,0
1486823381.923,17.090,61.035,45.410,33.691,-28.809,0
1486823381.927,5.859,63.477,41.992,29.297,-1.953,0
1486823381.931,25.391,79.102,62.988,49.805,68.848,0
1486823381.935,31.250,68.359,49.805,68.359,30.273,0
1486823381.939,12.207,52.246,39.551,60.547,1.953,0
1486823381.943,31.738,76.172,64.941,55.664,8.789,0
1486823381.947,39.062,76.660,74.707,61.523,18.066,0
1486823381.950,22.949,56.641,65.918,42.480,14.160,0
1486823381.954,10.742,54.688,64.453,17.090,62.012,0
1486823381.958,0.488,42.969,67.383,29.297,79.102,0
1486823381.962,2.930,36.133,71.777,34.180,40.039,0
1486823381.966,-2.441,39.062,52.734,17.090,24.414,0
1486823381.970,-1.953,41.016,41.992,24.414,-5.371,0
1486823381.974,13.672,56.152,62.012,33.203,41.504,0
1486823381.978,25.391,67.383,83.008,42.480,60.547,0
1486823381.982,19.043,62.500,66.895,45.410,35.645,0
1486823381.986,20.508,62.012,44.922,39.062,26.855,0
1486823381.990,27.344,62.012,57.617,50.293,45.410,0
1486823381.993,33.691,73.730,53.711,51.270,44.434,0
1486823381.997,35.645,86.914,31.738,50.781,33.203,0
1486823382.001,23.926,70.801,44.922,47.363,-5.859,0
1486823382.005,20.020,56.641,73.730,44.434,0.488,0
1486823382.009,10.742,54.688,77.148,40.039,59.570,0
1486823382.013,24.902,66.406,83.984,54.199,50.781,0
1486823382.017,28.809,64.453,79.590,64.453,11.230,0
1486823382.021,14.160,56.152,69.824,53.711,15.137,0
1486823382.025,9.766,53.711,59.082,41.016,37.598,0
1486823382.029,13.672,45.898,28.320,39.062,49.316,0
1486823382.033,27.344,45.410,14.648,44.922,33.203,0
1486823382.036,29.785,51.758,39.062,37.598,25.879,0
1486823382.040,23.438,56.641,79.590,47.852,12.207,0
1486823382.044,15.137,59.082,85.449,43.457,15.625,0
1486823382.048,6.836,57.129,70.312,32.715,-8.789,0
1486823382.052,18.555,60.547,69.824,45.898,-2.441,0
1486823382.056,32.227,77.148,85.449,62.988,63.965,0
1486823382.060,25.391,76.172,80.566,59.570,48.340,0
1486823382.064,36.621,85.938,53.711,64.453,36.621,0
1486823382.068,44.434,90.332,47.363,76.172,22.949,0
1486823382.072,15.137,39.062,40.527,30.273,-19.043,0
1486823382.075,9.766,11.719,41.992,17.090,5.371,0
1486823382.079,21.484,28.809,58.105,44.922,29.297,0
1486823382.083,25.879,60.059,69.336,53.223,33.203,0
1486823382.087,29.297,83.008,80.078,53.223,3.418,0
1486823382.091,32.715,82.520,82.031,54.199,9.766,0
1486823382.095,49.316,88.867,84.473,79.102,78.125,0
1486823382.099,56.152,101.562,52.734,67.871,28.320,0
1486823382.103,42.480,90.820,12.207,48.340,4.395,0
1486823382.107,21.484,63.477,0.000,36.133,18.066,0
1486823382.111,10.742,57.129,25.879,21.973,24.902,0
1486823382.115,18.555,67.383,67.383,33.691,37.109,0
1486823382.118,34.668,74.707,81.543,52.734,11.230,0
1486823382.122,39.551,63.965,74.219,61.035,-1.465,0
1486823382.126,44.922,48.828,68.848,64.453,-6.348,0
1486823382.130,59.082,69.336,78.125,71.289,36.621,0
1486823382.134,55.176,91.309,64.453,62.500,19.531,0
1486823382.138,35.156,74.707,45.410,49.805,-20.996,0
1486823382.142,31.250,52.734,45.410,41.016,-0.488,0
1486823382.146,37.598,48.340,19.043,36.621,56.152,0
1486823382.150,23.438,29.297,9.277,26.855,48.828,0
1486823382.154,21.973,18.555,51.758,34.668,29.785,0
1486823382.158,28.809,28.320,71.289,46.875,50.293,0
1486823382.161,30.762,34.668,75.684,42.969,38.574,0
1486823382.165,42.480,34.180,74.219,54.688,36.133,0
1486823382.169,57.617,43.457,67.383,68.359,-7.812,0
1486823382.173,56.152,57.129,55.664,66.895,-16.113,0
1486823382.177,46.875,58.594,35.156,52.734,24.902,0
1486823382.181,41.992,61.523,45.898,48.828,17.090,0
1486823382.185,28.809,40.039,54.688,39.551,28.320,0
1486823382.189,29.785,35.156,34.668,19.043,43.457,0
1486823382.193,29.297,35.645,22.461,21.973,27.344,0
1486823382.197,28.809,27.344,46.387,37.109,15.137,0
1486823382.200,47.852,47.852,64.453,54.688,17.578,0
1486823382.204,49.316,62.500,55.664,47.363,55.664,0
1486823382.208,40.527,56.152,48.340,47.852,42.969,0
1486823382.212,41.504,62.012,44.922,49.805,-27.832,0
1486823382.216,45.898,76.660,44.922,36.621,1.953,0
1486823382.220,55.664,80.078,54.688,55.176,31.250,0
1486823382.224,55.176,83.984,50.293,66.406,21.484,0
1486823382.228,41.016,90.820,46.875,55.664,31.738,0
1486823382.232,38.574,83.984,44.922,43.945,-29.785,0
1486823382.236,41.992,80.078,48.828,40.527,6.836,0
1486823382.240,41.992,77.148,62.988,51.270,39.551,0
1486823382.243,45.898,67.383,73.730,55.664,13.672,0
1486823382.247,33.203,49.316,59.570,41.016,18.555,0
1486823382.251,20.508,44.922,34.180,35.156,28.809,0
1486823382.255,27.832,58.105,61.523,44.922,20.996,0
1486823382.259,20.508,67.383,68.848,45.898,0.977,0
1486823382.263,11.230,75.684,50.293,46.387,-23.926,3
1486823382.267,15.137,73.730,50.293,44.922,5.371,0
1486823382.271,10.742,56.641,46.875,39.551,49.805,0
1486823382.275,7.812,50.293,41.992,41.504,34.668,0
1486823382.279,14.648,55.664,42.969,42.480,0.488,0
1486823382.283,8.789,49.805,45.898,34.180,9.277,0
1486823382.286,10.742,59.082,54.199,37.598,23.926,0
1486823382.290,31.250,64.941,47.363,49.316,32.227,0
1486823382.294,32.715,52.246,26.855,46.387,20.996,0
1486823382.298,19.531,42.969,28.320,36.133,31.738,0
1486823382.302,39.551,50.781,48.340,57.129,49.316,0
1486823382.306,49.316,62.500,78.125,77.637,36.133,0
1486823382.310,33.203,57.617,85.449,63.477,22.461,0
1486823382.314,36.621,49.805,68.359,62.500,18.555,0
1486823382.318,30.762,42.480,51.270,52.246,4.395,0
1486823382.322,20.020,35.645,37.109,34.668,-9.277,0
1486823382.325,26.367,48.340,28.809,49.805,52.734,0
1486823382.329,33.203,57.617,27.832,48.340,60.547,0
1486823382.333,36.133,61.035,49.805,35.645,19.531,0
1486823382.337,45.410,69.336,63.965,67.383,-51.758,0
1486823382.341,50.293,65.918,70.801,83.008,-24.902,0
1486823382.345,39.062,55.176,51.758,70.312,27.832,0
1486823382.349,32.227,53.711,30.273,61.035,37.598,0
1486823382.353,28.809,61.523,55.176,49.316,68.359,0
1486823382.357,31.250,71.777,77.148,54.688,37.598,0
1486823382.361,28.320,62.988,70.312,53.711,10.742,0
1486823382.365,29.785,55.664,62.012,52.734,33.691,0
1486823382.368,15.137,40.039,27.344,37.109,31.738,0
1486823382.372,11.719,34.668,-5.371,31.738,23.438,0
1486823382.376,34.668,44.434,33.203,62.988,-13.672,0
1486823382.380,40.039,48.340,65.430,68.359,13.184,0
1486823382.384,25.391,46.387,55.664,50.781,41.992,0
1486823382.388,32.715,49.805,59.082,53.223,51.270,0
1486823382.392,43.945,84.473,57.617,57.129,26.855,0
1486823382.396,20.508,94.238,12.695,35.645,13.184,0
1486823382.400,7.812,83.008,12.207,23.926,49.805,0
1486823382.404,15.625,86.426,60.059,28.809,-5.371,0
1486823382.408,19.043,82.031,55.176,33.203,19.043,0
1486823382.411,25.879,78.125,29.297,49.316,74.219,0
1486823382.415,46.875,78.613,40.039,68.359,26.855,0
1486823382.419,50.781,81.055,65.430,68.359,-11.719,0
1486823382.423,34.180,75.684,59.570,54.199,-15.625,0
1486823382.427,25.391,68.848,57.617,36.133,7.324,0
1486823382.431,40.039,87.891,82.520,56.152,18.066,0
1486823382.435,46.875,92.285,72.754,76.172,28.320,0
1486823382.439,33.203,62.500,34.180,61.035,13.672,0
1486823382.443,17.578,37.598,29.785,30.273,16.113,0
1486823382.447,19.531,23.438,9.766,29.297,49.805,0
1486823382.450,23.926,22.949,14.160,41.504,15.137,0
1486823382.454,23.926,28.809,47.852,30.762,-26.855,0
1486823382.458,35.156,33.203,55.176,36.621,-2.441,0
1486823382.462,44.434,62.012,57.617,49.316,44.434,0
1486823382.466,34.180,68.359,45.898,32.715,20.996,0
1486823382.470,18.066,50.781,36.133,16.602,3.418,0
1486823382.474,23.438,63.477,40.039,35.645,14.160,0
1486823382.478,43.457,83.496,51.758,62.012,20.996,0
1486823382.482,49.805,79.590,50.781,62.012,22.461,0
1486823382.486,41.016,72.754,45.410,46.387,30.762,0
1486823382.490,35.156,68.848,40.039,36.621,19.043,0
1486823382.493,39.062,69.336,3.906,44.922,15.625,0
1486823382.497,48.828,75.195,26.855,63.965,21.484,0
1486823382.501,49.316,73.242,75.195,65.918,21.973,0
1486823382.505,35.156,73.730,61.523,47.852,28.809,0
1486823382.509,10.254,67.383,51.270,29.297,23.438,0
1486823382.513,-1.953,55.176,42.480,20.020,39.551,0
1486823382.517,12.207,56.152,35.645,17.090,28.809,0
1486823382.521,9.766,49.805,40.039,20.020,12.695,0
1486823382.525,12.695,63.477,41.992,40.039,46.387,0
1486823382.529,26.367,71.289,30.762,60.059,83.008,0
1486823382.533,29.297,61.523,19.043,47.363,55.176,0
1486823382.536,34.668,72.266,30.273,40.039,25.391,0
1486823382.540,26.855,69.336,41.992,36.133,-1.953,0
1486823382.544,27.832,75.195,53.223,50.781,3.906,0
1486823382.548,41.016,68.359,75.195,80.078,49.805,0
1486823382.552,36.621,43.945,68.359,70.801,44.922,0
1486823382.556,23.926,42.969,59.082,43.457,12.695,0
1486823382.560,24.414,41.016,47.852,43.457,-2.930,0
1486823382.564,38.574,52.246,45.410,62.012,6.836,0
1486823382.568,41.016,56.641,50.293,62.500,32.715,0
1486823382.572,22.461,49.316,51.270,41.992,23.926,0
1486823382.575,19.531,57.617,59.570,43.457,8.301,0
1486823382.579,25.391,53.711,52.734,56.152,36.133,0
1486823382.583,27.344,47.363,54.688,50.293,70.801,0
1486823382.587,25.879,43.457,56.641,48.828,50.293,0
1486823382.591,34.180,51.758,55.664,49.805,25.879,0
1486823382.595,51.270,70.312,55.176,48.340,71.289,0
1486823382.599,62.012,70.801,56.152,60.547,81.055,0
1486823382.603,77.148,78.613,62.012,80.566,36.133,0
1486823382.607,79.590,88.379,34.180,80.566,31.738,0
1486823382.611,57.617,88.867,2.441,56.152,46.875,0
1486823382.615,31.738,83.984,22.949,49.316,53.711,0
1486823382.618,20.020,80.078,38.086,57.617,19.043,0
1486823382.622,16.113,78.613,48.340,52.246,28.809,0
1486823382.626,19.043,66.895,50.781,60.547,72.754,0
1486823382.630,29.297,69.336,54.199,75.684,79.102,0
1486823382.634,42.969,87.891,77.148,79.102,58.594,0
1486823382.638,38.086,64.941,61.035,78.613,65.430,0
1486823382.642,26.855,47.363,37.109,73.242,49.805,0
1486823382.646,23.438,72.266,35.645,61.035,19.531,0
1486823382.650,9.766,75.195,36.133,45.898,24.902,0
1486823382.654,13.184,62.988,53.711,39.062,20.996,0
1486823382.658,18.066,60.547,69.336,45.898,14.160,0
1486823382.661,6.348,48.828,61.035,41.992,43.945,0
1486823382.665,5.859,45.410,59.082,30.762,26.855,0
1486823382.669,9.277,72.266,55.176,33.691,19.043,0
1486823382.673,26.367,88.379,24.902,54.199,45.410,0
1486823382.677,40.039,80.078,28.320,76.660,6.836,0
1486823382.681,35.156,54.688,55.664,60.547,11.230,0
1486823382.685,27.344,63.477,45.898,41.504,50.781,0
1486823382.689,21.973,82.520,29.297,41.992,-10.742,0
1486823382.693,31.738,72.266,34.180,50.293,-59.570,0
1486823382.697,38.574,73.242,62.012,61.035,10.254,0
1486823382.700,32.227,66.406,67.383,54.688,62.500,0
1486823382.704,23.926,48.340,50.293,41.504,46.387,0
1486823382.708,1.953,22.949,37.109,23.926,39.062,0
1486823382.712,1.465,32.715,47.363,29.785,29.297,0
1486823382.716,19.531,54.688,59.570,40.039,20.508,0
1486823382.720,13.672,41.504,33.203,34.180,-8.301,0
1486823382.724,8.301,44.922,33.691,30.762,-13.184,0
1486823382.728,19.043,58.594,41.504,47.363,42.480,0
1486823382.732,21.484,65.918,25.879,43.457,62.988,0
1486823382.736,24.414,61.523,36.621,37.109,82.031,0
1486823382.740,23.926,35.156,29.785,35.156,70.312,0
1486823382.743,10.254,7.812,24.414,28.320,40.527,0
1486823382.747,12.207,14.160,45.410,34.668,24.902,0
1486823382.751,18.555,29.785,61.035,34.180,18.555,0
1486823382.755,18.555,4.883,56.152,32.227,35.645,0
1486823382.759,27.832,11.719,37.598,38.574,41.504,0
1486823382.763,34.668,38.086,36.621,52.734,33.203,4
1486823382.767,47.363,40.527,65.430,62.012,28.809,0
1486823382.771,39.062,29.785,53.711,61.035,10.254,0
1486823382.775,15.137,13.672,26.367,50.293,4.883,0
1486823382.779,23.926,24.414,38.086,44.922,7.812,0
1486823382.783,32.715,49.316,32.227,64.453,-6.348,0
1486823382.786,25.879,53.223,25.879,66.406,-3.906,0
1486823382.790,31.738,57.129,63.965,62.012,35.156,0
1486823382.794,35.156,62.012,76.172,65.430,62.012,0
1486823382.798,36.133,62.500,30.762,50.781,68.848,0
1486823382.802,37.598,62.012,30.762,47.852,75.195,0
1486823382.806,35.645,65.430,63.477,50.293,88.379,0
1486823382.810,30.273,64.941,60.547,47.852,41.992,0
1486823382.814,35.156,58.105,56.641,47.363,28.809,0
1486823382.818,38.086,55.176,49.805,43.945,49.316,0
1486823382.822,28.809,56.152,44.434,57.617,34.668,0
1486823382.825,30.762,48.828,61.035,71.289,60.059,0
1486823382.829,35.156,38.086,49.805,52.246,58.594,0
1486823382.833,38.574,36.133,35.156,49.805,68.359,0
1486823382.837,44.434,35.156,45.898,59.570,30.273,0
1486823382.841,52.246,51.270,30.273,64.941,-38.086,0
1486823382.845,55.176,69.336,32.715,64.453,-20.020,0
1486823382.849,51.758,60.059,64.453,57.617,27.344,0
1486823382.853,52.246,44.922,66.895,51.270,63.965,0
1486823382.857,51.270,49.805,53.711,40.039,29.297,0
1486823382.861,42.480,44.434,39.551,27.344,32.715,0
1486823382.865,39.062,42.480,37.109,23.438,60.547,0
1486823382.868,45.898,44.922,49.805,26.855,34.668,0
1486823382.872,42.969,39.062,46.875,31.250,13.184,0
1486823382.876,45.898,58.594,28.809,40.527,32.227,0
1486823382.880,66.895,75.684,30.762,57.617,75.684,0
1486823382.884,54.199,62.988,33.691,50.293,52.734,0
1486823382.888,27.344,54.688,42.480,20.020,-5.371,0
1486823382.892,26.367,67.383,64.453,8.789,1.465,0
1486823382.896,28.809,63.477,52.734,21.973,42.969,0
1486823382.900,31.738,49.805,43.457,34.180,47.852,0
1486823382.904,52.246,58.594,56.152,53.223,36.621,0
1486823382.908,56.641,49.316,37.109,65.918,26.367,0
1486823382.911,44.922,30.273,34.668,50.781,35.645,0
1486823382.915,53.711,39.551,49.316,48.340,62.012,0
1486823382.919,70.312,51.270,41.016,58.594,49.805,0
1486823382.923,50.781,44.922,39.062,46.875,29.297,0
1486823382.927,24.414,40.039,52.246,27.832,22.949,0
1486823382.931,32.227,33.203,70.312,27.832,4.883,0
1486823382.935,31.250,24.902,65.918,25.879,9.277,0
1486823382.939,11.719,24.414,54.199,22.461,18.066,0
1486823382.943,7.812,25.391,38.574,26.855,44.922,0
1486823382.947,17.578,40.039,21.973,31.250,25.391,0
1486823382.950,28.809,59.082,37.598,46.387,12.207,0
1486823382.954,42.969,64.941,56.152,69.336,7.324,0
1486823382.958,46.875,48.340,51.758,76.660,13.672,0
1486823382.962,28.320,25.391,49.805,59.570,45.410,0
1486823382.966,20.020,19.531,62.012,41.504,64.453,0
1486823382.970,24.414,25.879,53.711,46.875,80.078,0
1486823382.974,17.578,27.832,56.152,36.621,63.477,0
1486823382.978,17.578,28.320,69.336,38.574,41.992,0
1486823382.982,21.484,32.715,59.570,45.410,62.500,0
1486823382.986,18.066,30.273,40.527,37.598,90.332,0
1486823382.990,18.066,35.156,37.598,45.410,44.922,0
1486823382.993,26.855,36.621,42.480,50.781,11.230,0
1486823382.997,41.992,44.922,45.410,55.664,75.195,0
1486823383.001,31.738,43.945,32.227,49.316,104.980,0
1486823383.005,16.113,26.855,24.414,33.691,31.250,0
1486823383.009,17.090,29.785,42.969,29.297,20.020,0
1486823383.013,9.277,34.180,62.988,25.391,64.453,0
1486823383.017,13.672,18.555,69.824,30.762,63.477,0
1486823383.021,35.156,19.043,82.031,50.293,61.035,0
1486823383.025,42.480,32.715,84.473,68.848,31.250,0
1486823383.029,38.086,33.691,60.059,58.594,30.762,0
1486823383.033,38.086,35.645,47.363,44.922,55.664,0
1486823383.036,28.320,27.832,32.227,34.668,41.992,0
1486823383.040,24.414,22.949,30.273,31.250,21.484,0
1486823383.044,23.438,26.367,42.969,34.668,32.227,0
1486823383.048,21.973,37.109,36.621,30.273,38.086,0
1486823383.052,24.902,38.574,37.598,36.133,47.363,0
1486823383.056,28.809,39.551,67.383,52.246,64.453,0
1486823383.060,31.250,53.223,79.102,51.270,56.152,0
1486823383.064,24.414,45.410,58.594,34.668,44.922,0
1486823383.068,25.879,42.480,54.199,34.180,41.992,0
1486823383.072,37.109,64.453,62.988,49.316,36.621,0
1486823383.075,39.551,71.289,69.824,60.059,41.504,0
1486823383.079,31.738,68.848,55.664,52.246,77.148,0
1486823383.083,29.297,72.266,27.832,48.828,62.500,0
1486823383.087,48.340,98.633,43.945,65.430,48.340,0
1486823383.091,54.688,119.141,53.223,63.965,60.547,0
1486823383.095,34.668,94.238,37.598,56.152,78.613,0
1486823383.099,33.691,84.473,54.688,43.457,75.684,0
1486823383.103,43.945,104.492,77.148,52.246,54.688,0
1486823383.107,43.945,95.703,69.824,65.918,35.156,0
1486823383.111,29.297,60.059,38.574,43.945,14.160,0
1486823383.115,20.996,39.062,36.621,25.391,24.902,0
1486823383.118,33.691,47.852,39.062,46.875,32.715,0
1486823383.122,36.133,69.824,-4.395,56.152,35.645,0
1486823383.126,48.828,90.332,10.254,50.293,22.461,0
1486823383.130,49.805,96.191,58.594,54.199,21.973,0
1486823383.134,25.391,80.078,59.082,47.363,77.148,0
1486823383.138,19.531,72.754,51.270,37.598,62.500,0
1486823383.142,28.320,83.496,54.688,24.414,47.363,0
1486823383.146,24.414,67.383,58.105,11.230,55.664,0
1486823383.150,26.855,47.363,41.504,13.184,68.359,0
1486823383.154,44.434,69.824,36.133,35.645,60.547,0
1486823383.158,55.176,87.891,36.133,49.805,46.875,0
1486823383.161,46.387,70.801,16.113,40.527,59.570,0
1486823383.165,28.320,49.316,17.090,23.438,64.453,0
1486823383.169,20.508,39.062,26.855,15.137,10.742,0
1486823383.173,22.949,37.598,40.527,26.367,-38.086,0
1486823383.177,28.320,43.945,62.500,37.109,33.203,0
1486823383.181,38.086,53.711,62.012,39.062,95.215,0
1486823383.185,32.227,49.805,35.645,19.531,67.383,0
1486823383.189,21.973,40.039,26.855,0.977,20.508,0
1486823383.193,12.207,32.715,37.598,0.977,52.246,0
1486823383.197,20.020,51.758,42.480,13.672,106.445,0
1486823383.200,40.039,72.266,49.316,23.926,64.453,0
1486823383.204,29.785,62.012,46.875,26.367,24.414,0
1486823383.208,19.531,45.898,31.250,38.086,38.086,0
1486823383.212,8.789,36.133,23.926,30.273,58.105,0
1486823383.216,13.672,40.039,48.828,33.691,35.156,0
1486823383.220,21.484,36.621,65.430,33.691,-5.859,0
1486823383.224,17.578,21.973,58.105,24.902,3.906,0
1486823383.228,19.531,16.113,47.363,26.367,37.109,0
1486823383.232,11.230,12.695,15.137,25.391,23.438,0
1486823383.236,11.230,21.484,20.508,29.297,16.602,0
1486823383.240,11.719,46.387,59.570,27.344,39.551,0
1486823383.243,5.859,57.617,48.828,16.602,24.902,0
1486823383.247,-4.883,35.156,29.785,12.207,8.789,0
1486823383.251,-0.488,16.113,28.809,12.207,39.062,0
1486823383.255,23.438,30.273,50.293,29.297,45.898,0
1486823383.259,29.297,42.480,61.523,48.340,6.836,0
1486823383.263,14.160,31.250,44.922,35.645,9.277,0
1486823383.267,6.348,29.785,58.105,37.109,52.734,5
1486823383.271,14.160,27.344,56.152,38.086,47.363,0
1486823383.275,11.230,15.625,32.227,23.926,28.809,0
1486823383.279,9.277,22.461,32.227,27.344,55.176,0
1486823383.283,15.625,35.645,29.785,36.621,58.105,0
1486823383.286,24.902,37.109,32.227,38.574,53.223,0
1486823383.290,26.855,21.973,51.758,50.293,38.086,0
1486823383.294,18.555,2.441,42.480,53.223,27.832,0
1486823383.298,26.367,15.137,50.293,49.316,54.199,0
1486823383.302,30.762,19.043,71.289,55.176,27.832,0
1486823383.306,23.926,1.465,56.641,50.781,20.020,0
1486823383.310,18.066,-5.371,38.574,51.270,53.711,0
1486823383.314,13.672,-4.883,38.574,58.594,69.336,0
1486823383.318,4.395,11.230,40.527,34.180,43.457,0
1486823383.322,6.348,26.367,59.082,30.273,14.160,0
1486823383.325,4.883,28.809,59.082,38.086,7.812,0
1486823383.329,-1.953,31.738,48.828,34.668,30.762,0
1486823383.333,5.859,41.992,40.527,39.062,38.086,0
1486823383.337,9.766,55.176,37.598,36.621,-2.930,0
1486823383.341,28.320,77.637,45.898,48.828,-12.695,0
1486823383.345,37.598,86.914,39.551,49.316,35.645,0
1486823383.349,40.039,85.938,64.453,45.898,24.902,0
1486823383.353,45.410,78.613,69.824,39.551,-5.371,0
1486823383.357,43.457,80.566,45.898,24.414,5.371,0
1486823383.361,54.688,95.215,59.570,31.738,14.648,0
1486823383.365,47.852,84.961,53.711,26.855,30.273,0
1486823383.368,26.367,68.848,43.457,17.090,-7.812,0
1486823383.372,11.719,56.152,49.316,31.250,-23.926,0
1486823383.376,4.395,54.199,44.922,29.785,4.395,0
1486823383.380,16.113,62.988,36.133,43.457,33.691,0
1486823383.384,28.809,59.082,36.621,60.547,36.133,0
1486823383.388,23.926,49.805,43.457,42.480,10.742,0
1486823383.392,13.672,43.945,46.875,32.227,23.438,0
1486823383.396,23.438,57.129,49.805,41.992,40.039,0
1486823383.400,38.086,71.777,51.270,54.688,40.527,0
1486823383.404,43.945,72.754,36.621,58.105,18.555,0
1486823383.408,27.832,57.129,29.297,40.527,-7.324,0
1486823383.411,21.484,49.805,23.438,28.320,-14.648,0
1486823383.415,35.645,63.477,18.555,38.574,-23.438,0
1486823383.419,36.133,68.848,32.227,40.039,-34.180,0
1486823383.423,21.484,63.477,47.852,32.227,-41.504,0
1486823383.427,12.695,45.410,47.363,30.273,-32.715,0
1486823383.431,15.137,50.293,24.414,33.203,0.000,0
1486823383.435,5.859,54.688,15.625,15.625,-6.836,0
1486823383.439,5.859,52.734,10.742,7.324,-38.086,0
1486823383.443,19.531,56.641,6.836,20.996,-7.812,0
1486823383.447,25.391,51.270,23.438,28.320,0.488,0
1486823383.450,26.855,59.570,50.781,31.738,-8.789,0
1486823383.454,26.367,67.383,51.758,38.086,-28.809,0
1486823383.458,25.391,66.895,51.270,36.621,-83.008,0
1486823383.462,21.484,60.547,46.387,26.855,-19.531,0
1486823383.466,16.602,42.969,33.691,13.184,61.035,0
1486823383.470,22.461,36.621,46.875,30.273,20.996,0
1486823383.474,37.109,51.758,65.430,60.547,-38.086,0
1486823383.478,26.367,39.062,49.805,47.363,-4.883,0
1486823383.482,19.043,38.574,27.344,30.273,32.715,0
1486823383.486,19.531,53.223,17.578,24.902,14.160,0
1486823383.490,14.648,33.691,8.789,22.461,-27.344,0
1486823383.493,1.953,17.578,17.578,9.766,-35.156,0
1486823383.497,-2.930,20.020,35.156,8.301,-11.230,0
1486823383.501,8.301,24.414,34.180,22.461,-26.855,0
1486823383.505,0.000,11.230,36.133,6.836,-42.969,0
1486823383.509,-9.277,-5.371,60.059,3.418,-26.855,0
1486823383.513,-7.812,-0.488,59.570,10.742,-5.859,0
1486823383.517,0.977,8.789,48.340,23.926,-20.508,0
1486823383.521,4.395,4.883,25.879,33.691,-52.246,0
1486823383.525,-2.930,8.301,1.953,11.230,-35.156,0
1486823383.529,7.812,22.949,15.625,5.859,3.906,0
1486823383.533,16.602,28.809,38.574,17.090,-6.836,0
1486823383.536,14.648,45.410,48.828,22.949,-30.762,0
1486823383.540,12.695,56.152,32.227,29.785,-45.898,0
1486823383.544,12.695,54.688,34.180,31.250,-59.082,0
1486823383.548,21.973,52.734,54.199,46.875,-37.598,0
1486823383.552,15.137,53.223,53.711,49.805,-12.207,0
1486823383.556,6.836,41.992,41.992,33.203,-31.250,0
1486823383.560,11.719,35.156,35.156,37.109,-49.805,0
1486823383.564,13.184,36.133,31.250,41.504,-18.066,0
1486823383.568,17.578,25.391,46.875,34.668,-0.977,0
1486823383.572,34.668,34.668,68.848,43.457,-2.930,0
1486823383.575,35.156,40.527,55.176,51.758,-21.973,0
1486823383.579,29.297,31.738,38.574,51.270,-20.996,0
1486823383.583,40.039,40.527,42.480,56.641,-4.395,0
1486823383.587,34.668,37.109,34.180,55.664,-23.926,0
1486823383.591,18.555,16.113,26.367,54.688,-20.020,0
1486823383.595,28.809,31.738,45.898,51.758,-26.367,0
1486823383.599,30.762,50.781,47.852,49.805,-17.578,0
1486823383.603,28.809,62.500,43.945,56.641,-22.949,0
1486823383.607,32.715,77.148,55.176,59.570,-33.691,0
1486823383.611,30.762,72.754,45.898,59.082,5.859,0
1486823383.615,33.203,67.871,37.598,57.617,21.973,0
1486823383.618,48.340,77.148,42.969,62.012,-20.508,0
1486823383.622,43.457,67.383,40.527,47.852,-22.949,0
1486823383.626,20.996,64.453,26.367,23.926,-17.578,0
1486823383.630,11.230,69.824,33.691,11.719,16.113,0
1486823383.634,15.625,55.664,49.316,18.066,9.766,0
1486823383.638,33.691,63.477,63.477,34.668,-57.617,0
1486823383.642,51.758,75.684,77.637,39.551,-36.621,0
1486823383.646,45.410,67.871,55.664,38.086,-4.883,0
1486823383.650,21.973,42.969,22.949,18.066,-19.531,0
1486823383.654,9.766,19.043,34.180,11.719,-15.625,0
1486823383.658,18.066,13.184,50.781,22.461,-8.789,0
1486823383.661,24.414,13.672,40.527,20.996,12.207,0
1486823383.665,24.902,10.254,39.551,22.949,44.922,0
1486823383.669,15.137,12.695,26.855,23.438,26.367,0
1486823383.673,12.695,17.578,25.391,20.508,0.000,0
1486823383.677,26.855,22.949,33.691,33.203,14.648,0
1486823383.681,38.086,36.621,51.270,47.852,7.324,0
1486823383.685,36.133,33.691,64.453,35.156,-2.441,0
1486823383.689,19.531,21.484,51.270,26.855,-4.395,0
1486823383.693,15.625,15.625,39.551,35.645,-36.621,0
1486823383.697,29.297,28.809,39.062,41.992,-30.273,0
1486823383.700,32.227,46.387,58.594,43.945,5.371,0
1486823383.704,16.602,41.016,57.129,27.832,24.902,0
1486823383.708,4.883,30.273,27.344,15.137,23.926,0
1486823383.712,21.484,49.805,29.785,20.996,30.273,0
1486823383.716,38.086,66.406,72.754,28.320,28.809,0
1486823383.720,29.297,52.734,84.473,24.902,26.367,0
1486823383.724,28.809,57.129,78.125,37.598,7.812,0
1486823383.728,20.508,60.059,57.129,37.598,23.926,0
1486823383.732,11.719,48.828,49.805,27.344,86.426,0
1486823383.736,10.742,31.250,52.246,34.180,59.570,0
1486823383.740,18.066,21.484,41.504,41.016,8.789,0
1486823383.743,32.227,31.250,58.594,57.129,29.297,0
1486823383.747,29.785,34.668,57.129,51.758,39.551,0
1486823383.751,27.344,42.969,38.086,60.547,55.664,0
1486823383.755,29.785,54.199,57.129,63.477,23.438,0
1486823383.759,19.043,36.621,72.266,53.711,-5.859,0
1486823383.763,27.832,35.645,56.641,74.707,53.223,0
1486823383.767,52.734,65.430,56.641,76.172,59.570,0
1486823383.771,46.387,69.824,64.941,68.359,43.945,0
1486823383.775,28.320,57.617,62.988,73.242,41.504,0
1486823383.779,26.367,52.734,52.734,55.664,70.801,0
1486823383.783,40.039,71.777,36.621,50.293,77.148,0
1486823383.786,49.805,93.262,33.691,67.383,29.297,0
1486823383.790,51.758,98.145,38.086,67.383,37.598,0
1486823383.794,47.852,86.914,43.945,74.219,85.449,0
1486823383.798,40.527,72.754,52.734,68.359,71.777,0
1486823383.802,55.176,76.172,78.125,75.195,56.152,0
1486823383.806,69.336,78.613,85.449,74.219,68.848,0
1486823383.810,44.434,61.035,63.477,48.828,82.031,0
1486823383.814,40.527,61.035,59.570,63.965,76.660,0
1486823383.818,43.945,66.406,42.969,77.148,64.941,0
1486823383.822,33.203,47.363,33.203,70.801,28.809,0
1486823383.825,41.504,36.133,42.480,74.219,25.879,0
1486823383.829,52.246,61.035,50.781,78.125,59.570,0
1486823383.833,50.293,83.008,49.316,69.824,32.715,0
1486823383.837,49.805,81.543,64.453,67.871,45.898,0
1486823383.841,55.176,74.707,58.594,77.148,82.031,0
1486823383.845,56.641,74.707,37.598,76.172,99.609,0
1486823383.849,49.316,70.312,50.293,68.848,97.656,0
1486823383.853,39.551,60.547,56.641,59.082,70.801,0
1486823383.857,41.016,64.453,71.777,64.453,59.570,0
1486823383.861,50.293,69.336,86.914,77.148,63.965,0
1486823383.865,53.223,54.688,74.707,76.172,96.680,0
1486823383.868,58.594,57.129,57.617,83.008,86.426,0
1486823383.872,34.668,56.152,25.879,69.336,51.270,0
1486823383.876,25.879,51.270,17.090,57.617,44.434,0
1486823383.880,48.340,63.965,40.039,59.082,67.871,0
1486823383.884,56.152,70.312,41.016,73.242,77.148,0
1486823383.888,54.199,46.387,41.016,70.312,78.613,0
1486823383.892,53.711,22.461,50.781,63.477,24.902,0
1486823383.896,52.246,33.203,56.641,74.707,5.371,0
1486823383.900,39.551,33.203,56.152,76.172,51.270,0
1486823383.904,33.203,27.832,60.059,74.707,45.898,0
1486823383.908,43.945,47.852,64.941,77.148,11.230,0
1486823383.911,69.336,72.754,58.594,83.008,33.203,0
1486823383.915,63.477,68.359,57.129,62.500,62.500,0
1486823383.919,52.246,53.711,62.988,47.363,44.434,0
1486823383.923,64.453,54.688,49.316,62.500,-0.977,0
1486823383.927,59.570,51.758,33.691,63.965,-7.324,0
1486823383.931,64.453,58.105,42.480,76.172,46.875,0
1486823383.935,64.941,63.965,58.594,85.938,50.293,0
1486823383.939,42.480,41.992,43.457,59.570,2.441,0
1486823383.943,49.805,46.387,27.344,61.035,27.832,0
1486823383.947,48.828,60.547,40.039,74.219,50.781,0
1486823383.950,30.273,46.387,46.875,58.105,56.641,0
1486823383.954,30.273,59.082,57.129,49.316,49.316,0
1486823383.958,53.711,86.914,55.664,68.359,56.152,0
1486823383.962,68.359,101.562,52.246,79.590,52.734,0
1486823383.966,46.875,92.773,48.340,51.758,6.348,0
1486823383.970,29.297,76.660,43.945,34.180,19.531,0
1486823383.974,36.133,82.031,42.480,38.086,51.270,0
1486823383.978,41.016,84.473,40.527,32.715,41.016,0
1486823383.982,31.738,70.312,37.598,25.879,38.086,0
1486823383.986,25.879,62.988,18.555,18.555,43.945,0
1486823383.990,32.715,68.848,11.230,33.691,41.504,0
1486823383.993,41.016,74.219,39.551,42.480,22.461,0
1486823383.997,46.387,82.031,39.551,42.480,27.832,0
1486823384.001,51.758,79.590,52.246,44.922,24.414,0
1486823384.005,47.852,69.336,77.637,37.109,33.691,0
1486823384.009,46.387,62.988,49.805,34.668,33.691,0
1486823384.013,57.129,66.406,35.156,29.785,-11.230,0
1486823384.017,49.805,72.754,64.941,37.109,16.113,0
1486823384.021,30.273,60.547,73.730,36.133,36.133,0
1486823384.025,24.414,55.176,62.500,34.668,40.527,0
1486823384.029,32.227,59.082,73.242,46.875,41.016,0
1486823384.033,31.250,49.316,62.012,44.922,37.109,0
1486823384.036,25.391,43.457,43.457,29.785,13.672,0
1486823384.040,36.133,54.199,62.988,34.668,24.414,0
1486823384.044,39.062,64.453,64.941,47.363,51.758,0
1486823384.048,25.391,47.852,41.504,39.062,53.711,0
1486823384.052,33.691,43.457,46.875,56.152,64.453,0
1486823384.056,40.039,62.012,70.312,68.848,17.090,0
1486823384.060,38.086,69.336,79.590,52.734,-8.789,0
1486823384.064,56.152,82.520,92.285,76.172,40.527,0
1486823384.068,55.664,66.895,75.195,79.590,33.691,0
1486823384.072,31.250,33.203,44.922,56.152,-16.602,0
1486823384.075,20.508,38.574,48.828,44.922,-2.930,0
1486823384.079,21.484,41.504,55.664,31.250,52.734,0
1486823384.083,29.297,39.062,60.059,42.480,50.781,0
1486823384.087,50.293,47.363,67.383,56.152,19.531,0
1486823384.091,71.289,59.082,72.754,44.922,37.598,0
1486823384.095,74.707,59.570,65.430,41.992,42.969,0
1486823384.099,65.430,58.105,55.176,37.109,7.324,0
1486823384.103,50.293,49.316,57.129,25.391,-14.160,0
1486823384.107,27.832,41.992,49.805,33.691,5.859,0
1486823384.111,19.531,41.016,44.434,44.434,31.738,0
1486823384.115,28.320,40.039,39.062,49.316,29.785,0
1486823384.118,23.926,48.340,48.828,52.734,34.180,0
1486823384.122,6.836,46.875,57.617,42.480,44.922,0
1486823384.126,-4.883,44.434,40.039,26.367,57.129,0
1486823384.130,-0.977,54.199,35.156,20.508,39.551,0
1486823384.134,1.465,43.945,45.410,22.461,26.367,0
1486823384.138,3.906,41.504,49.316,27.832,32.715,0
1486823384.142,16.113,61.035,45.410,36.133,14.160,0
1486823384.146,19.043,55.664,46.387,30.762,-1.465,0
1486823384.150,13.672,30.273,57.129,16.602,-2.930,0
1486823384.154,16.113,29.297,52.734,42.480,-5.371,0
1486823384.158,28.809,40.039,57.129,65.430,0.977,0
1486823384.161,24.902,29.297,65.918,58.105,4.395,0
1486823384.165,21.484,21.484,79.102,58.105,-11.719,0
1486823384.169,18.555,14.648,67.383,47.852,10.742,0
1486823384.173,17.090,18.555,44.434,47.852,21.973,0
1486823384.177,19.531,25.391,62.012,47.852,-7.324,0
1486823384.181,18.555,19.043,67.383,38.086,27.832,0
1486823384.185,11.719,21.484,37.109,39.062,68.359,0
1486823384.189,15.625,21.973,20.508,50.781,4.883,0
1486823384.193,33.203,25.879,47.852,63.477,-18.555,0
1486823384.197,32.715,33.203,53.223,57.129,34.668,0
1486823384.200,17.578,11.719,53.711,33.691,42.480,0
1486823384.204,15.625,-9.766,58.594,31.738,-12.695,0
1486823384.208,22.461,3.906,50.293,38.086,-55.176,0
1486823384.212,20.996,32.227,44.434,29.785,-38.574,0
1486823384.216,31.250,62.500,54.688,40.527,2.441,0
1486823384.220,31.738,73.242,53.711,33.203,-21.484,0
1486823384.224,20.508,60.547,35.156,22.461,-37.598,0
1486823384.228,20.508,62.012,45.410,32.715,4.395,0
1486823384.232,28.809,70.312,56.641,44.922,8.789,0
1486823384.236,29.297,62.012,37.109,46.875,-35.645,0
1486823384.240,29.297,63.477,37.598,36.621,-30.273,0
1486823384.243,38.086,73.730,40.039,46.387,-20.996,0
1486823384.247,36.133,73.242,44.434,48.828,-35.645,0
1486823384.251,42.480,70.801,74.707,49.805,-38.086,0
1486823384.255,45.898,66.406,70.312,54.688,-41.016,0
1486823384.259,30.762,58.594,47.363,45.410,-20.020,0
1486823384.263,22.461,44.922,41.504,36.621,-2.930,0
1486823384.267,23.926,38.086,49.316,39.062,-9.766,0
1486823384.271,32.715,43.457,56.641,46.387,-25.391,0
1486823384.275,31.738,42.480,43.945,50.781,-11.719,0
1486823384.279,29.297,37.598,28.320,56.641,17.578,0
1486823384.283,45.898,41.016,51.270,70.801,-1.953,0
1486823384.286,41.992,24.414,65.918,66.895,-49.316,0
1486823384.290,15.137,-6.836,40.039,41.992,-57.617,0
1486823384.294,11.230,-13.672,45.410,31.250,-11.719,0
1486823384.298,21.973,3.418,79.590,47.852,-22.461,0
1486823384.302,29.297,4.395,87.402,63.477,-35.645,0
1486823384.306,36.133,4.883,74.707,49.316,-25.391,0
1486823384.310,27.344,15.625,56.152,35.156,-48.340,0
1486823384.314,20.996,22.949,36.621,41.992,-30.762,0
1486823384.318,31.250,41.992,33.691,48.340,-9.766,0
1486823384.322,47.363,57.617,51.758,59.570,-10.742,0
1486823384.325,47.852,41.504,35.156,53.223,-28.809,0
1486823384.329,31.738,24.902,16.602,33.203,-13.672,0
1486823384.333,32.715,18.066,35.156,35.156,-17.578,0
1486823384.337,41.016,10.742,36.133,30.273,-40.527,0
1486823384.341,35.156,3.906,23.926,22.949,-40.527,0
1486823384.345,44.922,14.160,55.664,47.852,-50.293,0
1486823384.349,55.176,21.973,58.594,55.176,-16.602,0
1486823384.353,54.688,28.320,32.227,57.617,-0.488,0
1486823384.357,55.664,35.645,38.086,68.848,-8.789,0
1486823384.361,51.758,19.043,36.133,56.641,2.441,0
1486823384.365,46.875,8.789,47.363,42.480,20.020,0
1486823384.368,33.691,8.789,59.570,33.203,-12.207,0
1486823384.372,33.691,12.207,63.965,30.762,-25.879,0
1486823384.376,33.691,19.531,46.387,22.949,-35.645,0
1486823384.380,28.809,25.391,31.250,26.855,-16.602,0
1486823384.384,20.996,14.648,33.203,27.832,-8.301,0
1486823384.388,23.438,16.113,20.996,35.156,-67.383,0
1486823384.392,30.273,29.785,27.832,44.434,-18.555,0
1486823384.396,23.926,27.832,27.344,36.621,13.672,0
1486823384.400,18.066,23.926,30.273,26.367,12.695,0
1486823384.404,34.180,21.484,62.012,35.156,2.930,0
1486823384.408,48.828,11.719,70.801,56.152,-30.273,0
1486823384.411,40.527,-1.953,61.035,54.688,4.395,0
1486823384.415,34.668,-8.789,51.758,53.711,12.695,0
1486823384.419,31.738,-17.090,49.805,54.688,-27.832,0
1486823384.423,27.832,-15.137,48.340,41.016,-9.766,0
1486823384.427,38.574,-7.812,45.410,46.875,27.832,0
1486823384.431,54.199,14.648,48.340,72.754,22.461,0
1486823384.435,57.129,25.391,47.363,60.059,15.137,0
1486823384.439,53.711,29.297,62.988,49.316,-3.906,0
1486823384.443,40.527,42.480,62.500,51.270,-50.293,0
1486823384.447,26.855,32.227,51.758,37.109,-34.668,0
1486823384.450,24.414,24.414,41.016,26.367,-4.883,0
1486823384.454,23.926,41.016,32.227,24.414,-17.090,0
1486823384.458,30.762,54.688,36.621,34.180,21.484,0
1486823384.462,23.438,51.270,49.805,46.387,12.207,0
1486823384.466,23.438,49.805,58.594,46.875,2.930,0
1486823384.470,32.715,45.410,41.504,36.133,27.832,0
1486823384.474,36.621,45.898,29.297,45.410,-14.648,0
1486823384.478,36.621,45.410,26.855,55.664,-22.461,0
1486823384.482,31.738,38.574,31.250,42.480,9.766,0
1486823384.486,28.809,36.621,55.664,34.668,26.855,0
1486823384.490,31.250,54.688,57.129,51.270,5.859,0
1486823384.493,28.320,47.852,55.664,54.199,1.465,0
1486823384.497,30.762,37.598,60.547,49.805,57.129,0
1486823384.501,24.902,33.203,62.500,47.363,37.598,0
1486823384.505,18.555,18.555,57.129,38.086,6.348,0
1486823384.509,25.879,24.902,52.246,41.016,8.789,0
1486823384.513,33.691,39.062,49.805,50.781,22.949,0
1486823384.517,42.480,50.293,56.152,62.988,46.387,0
1486823384.521,36.621,41.992,57.617,63.965,43.457,0
1486823384.525,27.832,31.250,50.293,62.988,50.293,0
1486823384.529,28.809,22.949,32.227,69.824,55.664,0
1486823384.533,36.133,16.113,21.973,66.406,30.762,0
1486823384.536,45.898,28.809,41.504,63.477,32.715,0
1486823384.540,42.480,40.039,42.969,60.547,51.270,0
1486823384.544,36.621,40.527,40.039,61.035,35.645,0
1486823384.548,49.805,47.363,46.875,72.754,29.297,0
1486823384.552,48.828,58.105,28.809,69.336,10.742,0
1486823384.556,48.340,76.660,36.621,67.871,31.738,0
1486823384.560,56.152,72.266,77.148,73.730,22.949,0
1486823384.564,48.340,51.270,78.613,64.453,14.648,0
1486823384.568,39.551,46.387,48.828,43.457,33.691,0
1486823384.572,33.691,49.316,27.832,28.320,14.160,0
1486823384.575,37.598,65.430,48.340,41.992,38.086,0
1486823384.579,44.922,77.637,74.219,70.801,79.590,0
1486823384.583,43.945,81.543,64.453,62.500,51.270,0
1486823384.587,32.715,77.148,27.832,40.039,-9.766,0
1486823384.591,46.387,75.684,21.973,56.152,9.277,0
1486823384.595,62.988,74.219,46.875,76.172,21.484,0
1486823384.599,54.199,77.637,61.035,57.617,23.926,0
1486823384.603,37.109,77.148,64.941,44.434,30.273,0
1486823384.607,30.762,60.547,49.316,33.203,16.113,0
1486823384.611,49.316,62.500,48.828,35.156,30.273,0
1486823384.615,49.805,62.012,45.898,54.199,35.645,0
1486823384.618,33.691,51.758,38.574,41.992,19.531,0
1486823384.622,42.969,65.918,34.668,52.246,10.742,0
1486823384.626,46.875,58.594,0.977,61.035,17.578,0
1486823384.630,32.715,38.086,8.789,35.645,26.367,0
1486823384.634,34.668,33.203,33.203,31.738,35.645,0
1486823384.638,42.480,32.227,30.762,51.758,25.879,0
1486823384.642,47.363,44.922,43.945,60.059,21.973,0
1486823384.646,31.738,46.387,59.570,53.711,49.316,0
1486823384.650,21.484,47.852,64.941,42.969,68.848,0
1486823384.654,35.645,61.035,56.641,40.527,59.570,0
1486823384.658,46.387,70.312,32.227,48.340,30.762,0
1486823384.661,46.875,74.219,19.043,48.828,32.715,0
1486823384.665,30.273,68.359,21.484,37.598,44.922,0
1486823384.669,26.855,67.871,15.625,47.852,23.926,0
1486823384.673,21.484,77.637,14.160,47.852,21.484,0
1486823384.677,17.090,78.613,20.020,26.855,33.203,0
1486823384.681,30.273,80.078,30.273,55.664,46.875,0
1486823384.685,28.809,82.031,19.043,60.547,44.434,0
1486823384.689,26.367,78.613,-34.180,40.527,22.461,0
1486823384.693,18.066,66.895,-49.316,45.898,9.277,0
1486823384.697,20.996,59.570,14.160,44.434,39.062,0
1486823384.700,27.832,41.016,56.641,44.922,49.805,0
1486823384.704,26.855,34.180,63.965,48.828,28.809,0
1486823384.708,35.156,53.223,64.941,58.105,3.418,0
1486823384.712,25.391,44.922,48.340,52.734,14.160,0
1486823384.716,9.277,31.250,40.039,37.109,45.410,0
1486823384.720,8.301,23.438,37.598,41.504,10.742,0
1486823384.724,9.277,18.555,31.738,41.992,-22.461,0
1486823384.728,1.953,16.602,27.832,23.926,6.836,0
1486823384.732,14.648,25.879,28.320,20.508,31.250,0
1486823384.736,31.738,49.805,26.367,31.738,13.672,0
1486823384.740,28.320,60.547,25.879,37.109,14.160,0
1486823384.743,23.926,51.758,43.945,36.621,18.555,0
1486823384.747,20.508,41.992,57.129,38.086,5.859,0
1486823384.751,20.508,30.273,44.434,42.480,23.438,0
1486823384.755,22.949,20.508,34.668,38.086,19.043,0
1486823384.759,19.531,16.602,40.039,22.461,6.836,0
1486823384.763,13.672,20.996,28.809,12.207,4.883,0
1486823384.767,2.441,23.926,26.367,12.207,14.648,0
1486823384.771,-9.766,21.484,27.832,9.277,32.715,0
1486823384.775,9.766,37.109,30.762,26.367,32.227,0
1486823384.779,37.598,44.922,38.574,50.293,18.555,0
1486823384.783,40.039,42.969,20.996,47.363,28.809,0
1486823384.786,33.691,35.645,19.531,44.434,19.531,0
1486823384.790,18.066,18.555,35.645,42.480,19.531,0
1486823384.794,21.973,45.898,55.176,49.805,56.152,0
1486823384.798,27.344,73.730,62.500,52.734,54.688,0
1486823384.802,26.855,80.078,39.551,52.246,31.738,0
1486823384.806,26.367,93.750,26.367,45.410,-4.395,0
1486823384.810,19.043,89.844,39.551,45.410,-13.184,0
1486823384.814,26.367,77.637,92.285,52.246,1.953,0
1486823384.818,34.668,80.078,128.418,54.199,7.324,0
1486823384.822,30.762,89.844,111.816,62.012,-2.930,0
1486823384.825,33.203,89.355,102.539,67.383,13.184,0
1486823384.829,38.086,85.449,108.398,72.266,54.688,0
1486823384.833,20.508,74.707,98.633,52.246,51.270,0
1486823384.837,11.719,70.312,70.801,35.156,5.859,0
1486823384.841,8.789,57.617,51.758,37.598,-12.695,0
1486823384.845,19.043,51.270,83.008,56.152,21.484,0
1486823384.849,37.109,65.430,95.703,70.312,58.594,0
1486823384.853,34.180,79.102,74.219,61.523,18.066,0
1486823384.857,28.320,70.801,90.332,46.875,-11.230,0
1486823384.861,29.297,46.387,102.051,51.270,22.949,0
1486823384.865,28.320,45.898,90.820,45.410,19.531,0
1486823384.868,40.527,75.195,82.520,50.293,-10.254,0
1486823384.872,31.738,66.406,71.777,57.617,10.254,0
1486823384.876,11.230,46.387,63.965,47.852,16.113,0
1486823384.880,13.672,54.199,43.945,40.527,6.348,0
1486823384.884,15.137,44.922,22.949,28.809,21.484,0
1486823384.888,24.902,43.457,23.926,39.551,40.527,0
1486823384.892,33.203,69.824,46.387,58.105,29.785,0
1486823384.896,31.738,81.055,70.312,61.523,20.020,0
1486823384.900,25.879,73.730,54.199,49.316,19.043,0
1486823384.904,22.461,71.289,57.617,42.969,17.578,0
1486823384.908,31.250,87.402,92.773,45.898,29.297,0
1486823384.911,40.527,101.074,86.914,53.711,8.789,0
1486823384.915,35.156,97.168,44.922,50.781,20.020,0
1486823384.919,19.043,80.566,38.086,39.551,19.043,0
1486823384.923,18.555,68.848,52.246,35.645,-9.766,0
1486823384.927,34.668,71.777,58.594,41.992,15.137,0
1486823384.931,31.250,71.777,51.758,39.062,42.480,0
1486823384.935,34.668,73.730,56.152,52.734,20.508,0
1486823384.939,40.039,88.379,52.734,60.547,-1.953,0
1486823384.943,27.344,74.707,44.922,34.180,5.371,0
1486823384.947,14.160,52.246,35.156,29.297,26.367,0
1486823384.950,1.953,37.598,22.461,21.484,39.062,0
1486823384.954,-2.930,38.574,43.945,16.113,17.578,0
1486823384.958,2.441,53.223,47.852,14.160,-33.203,0
1486823384.962,10.254,64.453,33.691,19.043,-1.465,0
1486823384.966,22.949,63.965,42.969,38.086,23.926,0
1486823384.970,31.250,54.688,52.246,25.391,-0.488,0
1486823384.974,40.527,53.223,50.781,17.090,34.180,0
1486823384.978,45.898,45.898,62.500,30.273,68.848,0
1486823384.982,37.598,25.391,52.246,44.922,41.016,0
1486823384.986,33.691,18.555,40.527,60.547,14.648,0
1486823384.990,24.414,37.109,30.273,67.871,27.832,0
1486823384.993,14.648,41.992,17.090,64.941,16.602,0
1486823384.997,20.996,48.828,52.734,63.965,30.762,0
1486823385.001,28.320,48.828,70.312,56.641,23.438,0
1486823385.005,32.715,50.781,69.824,61.035,0.000,0
1486823385.009,40.039,64.453,60.059,80.566,44.922,0
1486823385.013,30.762,56.641,37.598,73.730,78.613,0
1486823385.017,24.902,59.570,41.992,67.871,30.762,0
1486823385.021,33.691,62.012,51.758,69.824,-18.555,0
1486823385.025,37.598,60.547,44.434,62.012,30.273,0
1486823385.029,36.133,62.012,20.996,66.895,48.340,0
1486823385.033,40.039,60.059,26.855,77.637,47.852,0
1486823385.036,48.828,70.312,56.152,70.801,60.059,0
1486823385.040,51.270,76.172,50.293,72.266,43.945,0
1486823385.044,38.086,69.336,20.508,57.129,9.766,0
1486823385.048,34.180,59.082,34.668,46.387,-27.832,0
1486823385.052,40.527,62.988,61.035,56.641,-23.926,0
1486823385.056,38.086,60.059,50.781,56.152,-6.836,0
1486823385.060,29.785,43.457,34.668,39.551,-21.973,0
1486823385.064,33.203,41.504,33.691,35.156,-14.648,0
1486823385.068,43.457,46.875,49.316,40.527,13.672,0
1486823385.072,37.109,39.062,44.434,29.785,15.625,0
1486823385.075,34.180,39.551,25.391,25.879,19.043,0
1486823385.079,38.574,58.594,32.715,38.574,31.738,0
1486823385.083,30.762,55.664,30.273,43.945,38.086,0
1486823385.087,8.789,37.109,16.113,26.855,27.344,0
1486823385.091,6.348,33.691,5.371,13.184,4.883,0
1486823385.095,21.973,28.320,14.648,27.344,-7.324,0
1486823385.099,31.250,17.090,52.246,47.852,22.461,0
1486823385.103,39.551,7.812,73.242,57.617,20.508,0
1486823385.107,38.574,3.906,44.922,46.875,24.902,0
1486823385.111,19.531,-10.254,24.414,31.250,24.414,0
1486823385.115,13.184,-15.137,34.180,37.598,35.645,0
1486823385.118,27.832,5.371,52.246,51.758,22.461,0
1486823385.122,35.156,23.926,59.570,46.875,-6.348,0
1486823385.126,25.391,26.367,53.223,37.598,24.902,0
1486823385.130,17.090,21.484,38.086,34.180,47.363,0
1486823385.134,27.832,31.250,33.691,48.828,30.273,0
1486823385.138,48.340,54.199,41.504,66.895,27.832,0
1486823385.142,39.062,48.828,41.992,50.293,47.852,0
1486823385.146,29.785,27.344,54.199,49.805,40.527,0
1486823385.150,35.645,17.578,67.871,58.105,20.996,0
1486823385.154,25.391,14.160,52.734,43.945,6.836,0
1486823385.158,16.113,16.602,42.969,46.387,25.879,0
1486823385.161,25.391,33.203,52.246,66.406,44.434,0
1486823385.165,40.039,34.668,73.242,85.449,59.082,0
1486823385.169,41.504,27.344,74.707,73.242,30.273,0
1486823385.173,28.320,23.926,47.363,49.805,14.648,0
1486823385.177,22.949,16.602,25.391,37.109,37.598,0
1486823385.181,26.855,30.273,24.902,40.527,8.301,0
1486823385.185,30.762,46.387,24.414,56.641,16.113,0
1486823385.189,32.227,53.223,22.461,52.246,43.945,0
1486823385.193,29.785,54.199,50.781,33.691,24.902,0
1486823385.197,34.180,48.340,60.059,53.223,18.555,0
1486823385.200,42.969,62.012,62.988,53.711,33.203,0
1486823385.204,48.828,70.801,70.312,42.480,36.133,0
1486823385.208,36.133,53.711,58.105,42.480,23.438,0
1486823385.212,29.785,47.852,39.062,26.367,37.109,0
1486823385.216,42.969,45.898,45.898,32.715,57.129,0
1486823385.220,48.340,37.109,60.059,50.293,40.039,0
1486823385.224,42.969,27.832,41.504,44.434,10.254,0
1486823385.228,38.574,33.203,3.906,40.039,11.719,0
1486823385.232,40.039,38.574,4.395,33.203,30.762,0
1486823385.236,41.504,39.062,28.809,20.508,52.246,0
1486823385.240,26.855,32.227,38.086,9.277,4.395,0
1486823385.243,31.250,46.387,60.059,21.484,-9.277,0
1486823385.247,47.363,75.195,68.359,56.152,48.828,0
1486823385.251,59.570,71.289,60.059,58.105,46.875,0
1486823385.255,70.312,58.594,47.363,37.109,4.883,0
1486823385.259,63.477,60.059,43.945,38.574,3.418,0
1486823385.263,43.945,46.387,33.691,33.203,62.500,0
1486823385.267,51.758,53.223,19.043,41.016,69.824,0
1486823385.271,65.918,71.777,-3.906,52.246,22.461,0
1486823385.275,52.734,43.457,0.000,36.133,-4.883,0
1486823385.279,54.688,38.574,37.598,42.969,33.203,0
1486823385.283,72.266,62.012,47.363,53.223,35.645,0
1486823385.286,59.570,60.059,36.621,45.410,17.090,0
1486823385.290,31.738,53.711,26.367,36.133,32.227,0
1486823385.294,36.621,62.500,33.691,37.598,27.832,0
1486823385.298,44.922,72.266,36.621,36.133,33.691,0
1486823385.302,36.133,68.848,35.645,30.762,30.273,0
1486823385.306,32.715,46.875,25.391,33.691,37.598,0
1486823385.310,38.574,40.527,20.996,42.480,56.152,0
1486823385.314,45.410,55.664,41.504,47.363,40.527,0
1486823385.318,37.109,55.176,32.715,43.457,35.645,0
1486823385.322,16.602,42.480,-15.625,28.809,2.930,0
1486823385.325,23.926,49.316,-4.395,22.949,17.578,0
1486823385.329,33.203,47.363,47.363,32.715,72.266,0
1486823385.333,36.621,37.109,61.523,37.598,40.527,0
1486823385.337,38.086,34.180,64.941,38.574,14.648,0
1486823385.341,32.227,42.969,58.594,42.969,36.621,0
1486823385.345,31.250,51.758,42.969,37.109,44.922,0
1486823385.349,18.555,34.668,40.039,31.738,18.555,0
1486823385.353,12.695,41.992,43.457,23.438,40.039,0
1486823385.357,9.766,47.852,36.133,14.648,39.062,0
1486823385.361,17.090,50.781,25.391,25.391,20.996,0
1486823385.365,27.832,60.059,32.715,31.738,62.988,0
1486823385.368,22.461,50.781,60.059,21.484,55.176,0
1486823385.372,20.996,51.270,62.988,27.832,14.648,0
1486823385.376,22.461,62.012,49.316,34.668,-11.230,0
1486823385.380,24.902,54.199,61.523,34.180,17.090,0
1486823385.384,16.113,45.898,53.711,34.180,33.203,0
1486823385.388,-2.930,41.992,46.387,20.020,13.672,0
1486823385.392,2.441,41.016,63.477,17.578,13.184,0
1486823385.396,20.020,50.781,64.453,32.227,39.551,0
1486823385.400,27.832,50.781,71.289,42.969,29.785,0
1486823385.404,33.203,44.434,79.590,57.617,14.160,0
1486823385.408,36.621,41.016,76.660,59.570,2.441,0
1486823385.411,27.832,36.621,49.316,46.387,-1.953,0
1486823385.415,34.180,50.781,37.109,44.434,20.508,0
1486823385.419,52.246,58.105,69.824,63.965,24.414,0
1486823385.423,45.410,51.270,85.449,70.801,-17.090,0
1486823385.427,35.156,41.504,52.246,58.105,-29.785,0
1486823385.431,20.508,34.668,23.926,41.016,0.000,0
1486823385.435,13.672,24.902,42.969,31.250,10.254,0
1486823385.439,20.508,22.949,64.453,51.758,-10.254,0
1486823385.443,19.531,36.621,56.641,52.734,7.324,0
1486823385.447,28.809,46.875,60.547,58.105,46.387,0
1486823385.450,49.316,52.246,73.730,77.637,53.223,0
1486823385.454,41.504,42.969,58.105,54.688,23.438,0
1486823385.458,36.133,36.133,56.641,47.852,0.488,0
1486823385.462,51.270,28.809,60.059,57.617,28.320,0
1486823385.466,36.621,15.625,48.828,61.523,48.828,0
1486823385.470,36.621,20.020,61.523,74.707,32.715,0
1486823385.474,42.969,7.812,61.523,77.148,36.621,0
1486823385.478,34.668,5.371,60.547,67.871,37.598,0
1486823385.482,17.090,11.230,56.641,47.852,13.184,0
1486823385.486,19.531,22.461,50.781,45.410,16.113,0
1486823385.490,32.227,23.438,51.758,59.082,14.160,0
1486823385.493,33.203,18.066,51.270,70.312,-9.277,0
1486823385.497,40.527,37.598,60.059,76.660,1.465,0
1486823385.501,48.828,69.336,57.129,67.383,26.855,0
1486823385.505,52.246,92.285,43.457,74.707,-23.438,0
1486823385.509,45.898,84.961,33.691,68.848,-10.254,0
1486823385.513,34.180,69.824,44.434,55.664,44.922,0
1486823385.517,25.879,60.059,72.754,50.781,26.367,0
1486823385.521,16.602,50.293,57.129,41.016,3.418,0
1486823385.525,22.461,52.734,35.645,53.223,15.625,0
1486823385.529,8.301,45.410,26.367,46.387,29.297,0
1486823385.533,4.395,48.828,39.551,26.367,32.227,0
1486823385.536,37.598,71.289,70.312,55.176,65.430,0
1486823385.540,37.109,67.383,62.500,68.359,45.898,0
1486823385.544,19.043,59.570,51.758,47.852,-1.953,0
1486823385.548,13.672,50.293,51.270,33.203,7.324,0
1486823385.552,12.207,44.922,31.250,32.227,23.926,0
1486823385.556,23.438,59.570,27.832,57.617,0.977,0
1486823385.560,41.016,85.449,87.402,69.336,-15.625,0
1486823385.564,44.922,96.191,103.027,57.617,27.832,0
1486823385.568,33.691,78.125,61.035,57.617,54.688,0
1486823385.572,23.438,56.641,43.945,44.434,15.625,0
1486823385.575,28.809,60.059,29.785,38.574,7.812,0
1486823385.579,32.227,61.523,32.227,47.852,36.133,0
1486823385.583,26.855,32.227,31.738,52.246,25.391,0
1486823385.587,26.367,18.066,33.203,50.781,-7.812,0
1486823385.591,30.273,21.484,52.734,44.922,-21.484,0
1486823385.595,22.949,19.531,31.738,34.668,-5.371,0
1486823385.599,19.043,33.691,46.875,40.039,44.922,0
1486823385.603,16.602,43.457,74.707,49.316,62.500,0
1486823385.607,22.461,52.734,68.359,36.621,55.664,0
1486823385.611,27.344,61.523,67.383,51.758,70.801,0
1486823385.615,36.133,56.152,63.477,75.195,76.172,0
1486823385.618,35.156,57.617,51.270,70.312,77.637,0
1486823385.622,27.832,65.430,27.832,65.918,75.195,0
1486823385.626,21.973,59.570,31.250,59.570,63.477,0
1486823385.630,23.926,50.293,33.691,64.941,90.820,0
1486823385.634,32.715,57.617,50.293,63.965,112.793,0
1486823385.638,22.949,46.387,72.266,44.434,75.684,0
1486823385.642,18.555,36.133,55.664,45.898,56.641,0
1486823385.646,31.738,53.223,67.871,55.664,74.219,0
1486823385.650,39.062,46.387,81.543,59.082,92.285,0
1486823385.654,33.691,33.691,45.898,62.988,91.309,0
1486823385.658,37.109,49.805,33.691,62.988,95.703,0
1486823385.661,33.691,54.199,17.090,61.035,82.031,0
1486823385.665,29.297,41.992,0.977,53.711,79.102,0
1486823385.669,32.227,34.668,26.367,33.691,99.121,0
1486823385.673,34.668,53.223,56.152,36.621,81.055,0
1486823385.677,36.133,66.895,47.852,56.641,84.473,0
1486823385.681,54.199,75.195,41.504,72.754,84.961,0
1486823385.685,61.035,66.406,57.617,74.707,87.402,0
1486823385.689,55.664,51.270,63.965,55.176,76.660,0
1486823385.693,68.848,60.547,77.148,56.641,45.898,0
1486823385.697,65.430,52.246,56.641,45.898,54.199,0
1486823385.700,53.711,44.922,24.902,29.785,63.965,0
1486823385.704,47.852,43.457,33.691,14.160,46.387,0
1486823385.708,43.457,50.293,42.480,17.090,38.574,0
1486823385.712,26.367,58.105,29.297,30.273,60.059,0
1486823385.716,21.973,59.570,45.410,37.598,89.844,0
1486823385.720,33.691,49.805,65.918,59.082,59.570,0
1486823385.724,19.531,33.203,43.945,50.781,26.367,0
1486823385.728,18.555,43.945,15.137,40.039,47.852,0
1486823385.732,32.715,59.082,29.785,54.688,47.363,0
1486823385.736,29.785,58.594,48.828,56.152,46.875,0
1486823385.740,11.719,54.688,44.434,34.180,61.035,0
1486823385.743,13.184,66.895,65.918,45.410,40.039,0
1486823385.747,25.391,69.336,66.895,65.430,30.762,0
1486823385.751,18.066,53.711,43.945,53.711,26.367,0
1486823385.755,12.695,48.340,55.664,36.133,1.953,0
1486823385.759,5.859,33.203,59.570,31.738,43.457,0
1486823385.763,6.348,31.738,45.410,35.156,54.688,0
1486823385.767,12.695,48.340,42.969,31.250,42.969,0
1486823385.771,23.438,54.688,38.574,49.316,40.527,0
1486823385.775,18.066,49.316,25.391,50.781,10.254,0
1486823385.779,9.277,45.410,35.645,35.156,27.344,0
1486823385.783,16.602,38.574,62.012,36.133,31.738,0
1486823385.786,31.250,38.086,81.055,41.992,13.672,0
1486823385.790,39.062,40.527,83.984,64.453,20.508,0
1486823385.794,26.367,33.691,67.383,68.848,43.945,0
1486823385.798,16.113,30.762,59.570,45.410,32.715,0
1486823385.802,20.508,44.434,56.641,42.480,34.180,0
1486823385.806,18.555,40.039,54.199,46.387,56.641,0
1486823385.810,10.254,27.832,59.082,38.086,24.414,0
1486823385.814,2.441,28.809,48.828,30.273,42.969,0
1486823385.818,-1.465,29.785,31.738,45.410,57.129,0
1486823385.822,6.836,41.992,15.625,47.852,41.504,0
1486823385.825,11.719,42.969,24.902,38.086,32.227,0
1486823385.829,25.879,48.340,56.641,57.617,45.898,0
1486823385.833,31.250,55.664,51.758,62.988,32.715,0
1486823385.837,15.625,37.109,45.898,40.039,0.977,0
1486823385.841,-1.953,15.625,39.062,28.809,-4.883,0
1486823385.845,4.395,22.949,37.598,40.527,-7.324,0
1486823385.849,20.508,44.922,64.453,50.293,62.012,0
1486823385.853,22.949,57.129,57.617,52.734,50.293,0
1486823385.857,29.785,61.035,43.945,48.340,-10.254,0
1486823385.861,14.648,53.711,28.320,40.039,4.395,0
1486823385.865,18.555,59.570,45.410,51.270,42.480,0
1486823385.868,23.926,67.383,47.363,53.223,57.617,0
1486823385.872,18.555,75.195,27.344,32.715,13.184,0
1486823385.876,37.598,83.496,41.992,45.898,2.441,0
1486823385.880,28.809,72.266,38.086,52.246,34.668,0
1486823385.884,8.301,57.129,27.832,19.043,37.109,0
1486823385.888,5.371,53.223,15.625,-2.441,-15.137,0
1486823385.892,19.531,64.453,13.672,14.160,-31.738,0
1486823385.896,29.785,59.570,29.297,30.762,15.625,0
1486823385.900,23.926,41.992,35.156,12.695,40.039,0
1486823385.904,25.879,39.062,35.156,1.465,3.906,0
1486823385.908,35.645,58.594,42.969,19.531,-9.766,0
1486823385.911,43.457,88.379,51.270,48.340,26.855,0
1486823385.915,50.781,82.031,42.969,50.781,22.949,0
1486823385.919,51.270,48.828,40.527,29.785,-3.418,0
1486823385.923,56.152,51.270,59.570,42.480,-14.160,0
1486823385.927,42.480,47.363,65.918,46.387,1.465,0
1486823385.931,36.621,32.227,41.504,20.996,29.297,0
1486823385.935,36.621,40.527,28.320,23.926,37.598,0
1486823385.939,30.273,42.969,20.996,22.461,37.598,0
1486823385.943,36.133,44.922,11.719,14.160,58.105,0
1486823385.947,31.738,45.410,19.531,10.742,23.438,0
1486823385.950,34.668,47.363,48.828,15.625,-28.809,0
1486823385.954,29.297,51.270,56.152,20.996,25.879,0
1486823385.958,25.391,64.453,45.898,19.043,50.781,0
1486823385.962,26.367,65.430,41.992,22.949,46.875,0
1486823385.966,40.527,62.500,49.805,29.785,56.641,0
1486823385.970,68.359,80.566,62.500,56.152,66.895,0
1486823385.974,58.105,76.172,52.734,53.223,57.129,0
1486823385.978,45.898,65.918,68.359,42.480,48.340,0
1486823385.982,41.016,58.594,69.824,29.297,43.457,0
1486823385.986,23.926,44.434,37.598,2.441,39.062,0
1486823385.990,12.207,35.156,22.461,-5.371,21.973,0
1486823385.993,22.461,47.852,37.109,4.395,2.930,0
1486823385.997,18.555,57.617,40.527,13.672,31.738,0
1486823386.001,22.949,70.312,49.805,22.461,44.922,0
1486823386.005,47.363,91.797,58.105,43.457,-20.508,0
1486823386.009,36.621,76.172,40.039,39.062,-24.414,0
1486823386.013,25.391,46.387,35.156,27.832,36.621,0
1486823386.017,29.785,45.898,41.504,21.973,47.852,0
1486823386.021,26.367,72.266,40.039,16.113,31.250,0
1486823386.025,30.762,85.449,45.410,39.551,15.625,0
1486823386.029,32.715,70.312,54.688,44.434,19.043,0
1486823386.033,9.277,46.387,33.691,13.672,10.742,0
1486823386.036,4.395,47.363,41.016,18.555,-11.230,0
1486823386.040,21.484,62.988,55.664,34.180,-32.715,0
1486823386.044,29.297,59.082,48.828,38.086,-10.742,0
1486823386.048,35.645,54.199,64.453,41.016,11.719,0
1486823386.052,25.391,42.480,62.988,40.039,14.648,0
1486823386.056,18.555,37.598,50.293,52.734,20.996,0
1486823386.060,30.273,42.480,30.762,62.988,16.113,0
1486823386.064,41.504,47.363,33.691,73.242,31.738,0
1486823386.068,28.320,47.852,53.223,47.852,13.672,0
1486823386.072,19.043,45.898,48.828,41.504,2.441,0
1486823386.075,43.945,66.406,71.777,77.637,13.184,0
1486823386.079,40.527,63.965,69.336,69.824,16.113,0
1486823386.083,13.672,25.879,32.227,36.133,9.766,0
1486823386.087,3.418,2.441,20.020,24.414,16.602,0
1486823386.091,16.602,11.230,31.250,36.621,5.371,0
1486823386.095,32.227,31.738,48.340,43.457,16.113,0
1486823386.099,32.715,48.828,58.594,43.457,48.828,0
1486823386.103,31.738,65.430,56.152,61.523,31.250,0
1486823386.107,40.527,79.590,46.387,61.523,18.066,0
1486823386.111,42.480,76.660,38.574,52.734,25.391,0
1486823386.115,48.340,74.707,34.180,58.105,37.598,0
1486823386.118,62.012,63.477,57.129,55.664,39.062,0
1486823386.122,48.828,44.434,68.359,42.969,14.648,0
1486823386.126,40.039,43.945,55.664,53.711,-16.113,0
1486823386.130,41.016,39.062,38.574,53.223,-2.930,0
1486823386.134,35.156,46.875,27.832,50.293,51.758,0
1486823386.138,30.762,49.805,35.645,45.898,56.152,0
1486823386.142,34.180,38.574,42.969,36.133,-12.207,0
1486823386.146,34.668,37.598,45.410,41.992,-6.836,0
1486823386.150,51.758,55.664,64.453,76.660,56.641,0
1486823386.154,62.012,61.523,76.660,87.402,40.039,0
1486823386.158,39.062,24.902,60.059,62.988,1.953,0
1486823386.161,35.156,17.090,64.941,55.664,-1.953,0
1486823386.165,35.645,30.273,49.805,47.363,16.602,0
1486823386.169,24.902,23.926,23.926,36.621,12.695,0
1486823386.173,28.809,16.602,50.293,41.016,-22.949,0
1486823386.177,31.738,24.902,60.547,48.340,-12.207,0
1486823386.181,28.809,35.645,36.621,47.363,37.109,0
1486823386.185,29.785,31.738,40.527,53.711,19.531,0
1486823386.189,31.250,30.762,66.406,63.965,6.348,0
1486823386.193,30.273,31.738,62.500,53.223,42.969,0
1486823386.197,33.203,16.602,43.945,43.945,32.227,0
1486823386.200,36.133,12.207,47.852,50.293,35.645,0
1486823386.204,30.273,19.043,54.688,55.176,44.434,0
1486823386.208,34.180,23.926,54.199,56.152,15.625,0
1486823386.212,36.621,33.691,58.105,60.547,27.344,0
1486823386.216,41.016,45.410,61.523,74.707,25.391,0
1486823386.220,55.664,65.430,67.871,83.496,-10.254,0
1486823386.224,56.152,53.711,69.824,73.242,-15.137,0
1486823386.228,41.992,28.809,36.621,58.105,23.926,0
1486823386.232,20.020,13.672,2.441,37.109,43.945,0
1486823386.236,19.531,16.113,46.387,39.062,10.742,0
1486823386.240,36.621,41.504,83.496,67.871,-13.672,0
1486823386.243,30.273,35.156,47.363,52.734,13.184,0
1486823386.247,24.414,24.902,34.180,40.527,49.805,0
1486823386.251,27.832,39.062,51.270,41.016,49.316,0
1486823386.255,28.809,37.598,55.664,46.387,8.789,0
1486823386.259,34.180,23.926,57.617,57.617,4.395,0
1486823386.263,35.156,28.320,57.617,50.781,10.254,0
1486823386.267,20.996,13.672,33.203,50.293,30.273,0
1486823386.271,19.043,8.301,21.484,60.547,26.367,0
1486823386.275,32.227,25.879,33.691,64.453,-5.859,0
1486823386.279,20.508,22.461,30.273,50.293,25.391,0
1486823386.283,9.766,21.973,33.691,36.621,39.551,0
1486823386.286,17.578,27.344,45.898,52.734,24.414,0
1486823386.290,22.949,24.902,45.898,48.828,20.508,0
1486823386.294,24.902,26.855,50.781,39.062,0.488,0
1486823386.298,23.926,45.410,58.594,56.641,6.836,0
1486823386.302,24.414,46.875,56.641,42.480,26.855,0
1486823386.306,34.668,41.992,56.152,42.480,-7.812,0
1486823386.310,34.180,41.992,62.012,63.965,-27.832,0
1486823386.314,32.715,39.551,61.523,65.430,10.254,0
1486823386.318,27.344,34.668,46.387,56.152,-5.371,0
1486823386.322,7.812,28.809,21.484,38.086,-39.062,0
1486823386.325,11.719,31.738,20.020,30.273,-20.996,0
1486823386.329,29.297,31.738,43.945,49.805,41.504,0
1486823386.333,41.016,48.340,63.477,56.641,54.199,0
1486823386.337,37.598,51.758,41.016,38.574,-1.953,0
1486823386.341,27.832,48.340,32.227,34.180,2.441,0
1486823386.345,27.344,53.711,64.941,43.457,7.324,0
1486823386.349,48.340,72.754,76.660,60.547,21.484,0
1486823386.353,61.035,83.008,70.801,54.688,22.949,0
1486823386.357,39.551,64.941,50.293,19.043,-13.672,0
1486823386.361,41.992,76.660,53.223,19.043,-2.441,0
1486823386.365,56.152,82.520,63.965,27.344,9.277,0
1486823386.368,52.246,50.293,35.156,20.996,-20.508,0
1486823386.372,43.457,36.621,19.043,36.133,-5.371,0
1486823386.376,36.621,34.180,31.250,49.805,25.391,0
1486823386.380,32.227,32.715,45.410,52.246,10.254,0
1486823386.384,18.555,28.809,36.133,42.969,-0.977,0
1486823386.388,20.996,24.902,29.297,47.852,11.230,0
1486823386.392,33.203,24.414,34.668,64.453,3.906,0
1486823386.396,25.879,22.949,32.227,57.617,23.926,0
1486823386.400,26.367,32.227,47.852,53.223,36.621,0
1486823386.404,30.273,42.969,58.105,54.688,-13.672,0
1486823386.408,29.785,54.688,56.152,58.594,-40.527,0
1486823386.411,41.504,63.965,65.430,70.801,-29.785,0
1486823386.415,49.805,62.500,72.266,84.961,6.836,0
1486823386.419,27.832,36.133,50.781,50.293,14.160,0
1486823386.423,-4.883,13.672,22.949,8.301,9.277,0
1486823386.427,-11.719,24.902,18.066,21.973,18.066,0
1486823386.431,21.973,45.898,52.246,50.293,8.789,0
1486823386.435,32.227,53.223,40.527,35.156,22.461,0
1486823386.439,20.508,48.340,22.949,27.344,9.277,0
1486823386.443,21.484,36.621,46.875,40.527,-5.859,0
1486823386.447,25.391,41.504,57.617,40.039,7.324,0
1486823386.450,28.809,61.035,72.754,39.062,-11.719,0
1486823386.454,29.297,51.758,70.801,44.922,-48.340,0
1486823386.458,26.367,42.969,37.598,50.293,-69.824,0
1486823386.462,27.832,63.477,48.828,51.758,-21.973,0
1486823386.466,27.344,58.594,62.988,50.293,42.480,0
1486823386.470,24.414,55.664,56.152,51.270,25.879,0
1486823386.474,36.621,72.266,73.242,63.965,5.859,0
1486823386.478,27.832,49.316,68.848,56.152,26.855,0
1486823386.482,8.301,20.996,24.902,33.691,26.855,0
1486823386.486,6.348,16.602,7.812,23.926,14.648,0
1486823386.490,7.812,22.461,42.969,27.832,27.344,0
1486823386.493,17.090,36.133,43.945,45.410,36.621,0
1486823386.497,27.832,45.410,43.457,59.570,20.508,0
1486823386.501,26.855,42.480,69.336,56.152,-0.977,0
1486823386.505,21.484,34.180,63.965,51.270,-5.859,0
1486823386.509,19.531,47.363,57.617,44.922,13.184,0
1486823386.513,21.484,67.383,47.852,49.805,34.668,0
1486823386.517,17.090,61.523,25.391,54.688,-4.883,0
1486823386.521,32.715,66.895,41.992,63.965,-13.672,0
1486823386.525,44.922,68.848,74.707,63.477,13.672,0
1486823386.529,24.414,45.898,64.453,34.668,0.977,0
1486823386.533,21.973,51.758,58.105,26.855,15.137,0
1486823386.536,31.738,63.965,64.941,40.527,32.227,0
1486823386.540,19.043,50.293,55.664,42.969,-5.371,0
1486823386.544,12.695,36.621,37.598,36.621,-22.461,0
1486823386.548,15.137,42.480,10.254,24.414,-23.438,0
1486823386.552,14.160,55.664,35.156,22.461,-10.742,0
1486823386.556,21.484,52.734,74.707,27.344,-19.043,0
1486823386.560,23.438,45.410,67.383,16.602,-7.324,0
1486823386.564,16.602,46.875,39.551,-0.977,9.766,0
1486823386.568,25.879,47.363,32.227,4.883,11.719,0
1486823386.572,43.457,57.129,44.922,30.762,28.809,0
1486823386.575,58.594,75.684,51.270,44.434,36.621,0
1486823386.579,52.246,72.266,52.734,39.062,45.898,0
1486823386.583,30.273,54.199,35.645,21.973,26.855,0
1486823386.587,20.508,40.039,8.789,15.625,-6.836,0
1486823386.591,21.484,38.574,43.457,29.297,-14.160,0
1486823386.595,33.691,47.363,61.035,33.203,13.184,0
1486823386.599,53.223,71.289,40.527,39.062,32.715,0
1486823386.603,60.059,80.566,62.500,48.828,41.504,0
1486823386.607,40.527,61.035,53.223,25.879,16.602,0
1486823386.611,34.180,62.500,28.320,21.484,9.766,0
1486823386.615,50.781,58.594,41.992,41.992,23.926,0
1486823386.618,54.199,52.246,50.781,51.758,29.297,0
1486823386.622,39.551,47.363,42.969,39.062,19.531,0
1486823386.626,37.109,38.086,71.289,25.391,7.324,0
1486823386.630,48.340,43.945,76.660,32.227,43.457,0
1486823386.634,51.270,48.828,43.457,35.156,10.742,0
1486823386.638,51.270,54.199,34.180,29.297,-39.062,0
1486823386.642,41.992,70.312,44.922,33.691,-22.461,0
1486823386.646,39.062,64.453,42.969,32.715,33.203,0
1486823386.650,32.227,47.852,23.438,17.578,41.504,0
1486823386.654,31.738,51.270,21.484,28.809,8.789,0
1486823386.658,41.016,55.664,40.527,40.039,5.371,0
1486823386.661,35.645,54.199,61.523,41.504,2.441,0
1486823386.665,42.480,43.945,77.148,44.922,39.551,0
1486823386.669,55.176,44.922,63.477,43.945,12.695,0
1486823386.673,43.945,39.062,35.156,50.781,-19.043,0
1486823386.677,49.805,44.922,49.316,62.988,25.391,0
1486823386.681,68.359,66.406,51.270,72.754,19.531,0
1486823386.685,50.781,63.477,44.922,55.176,0.000,0
1486823386.689,36.621,62.500,75.195,33.203,21.484,0
1486823386.693,31.250,70.801,85.938,52.246,9.277,0
1486823386.697,21.484,68.359,70.312,57.617,-13.672,0
1486823386.700,27.832,66.406,57.129,38.574,15.137,0
1486823386.704,31.738,60.059,58.594,52.734,44.922,0
1486823386.708,30.762,42.969,63.477,55.664,44.434,0
1486823386.712,43.457,48.828,67.871,53.711,19.043,0
1486823386.716,46.875,61.523,60.059,64.941,17.578,0
1486823386.720,46.387,57.129,39.062,64.941,50.781,0
1486823386.724,40.527,53.223,23.438,61.523,30.762,0
1486823386.728,27.344,49.805,45.410,63.477,16.113,0
1486823386.732,44.922,49.316,45.898,79.102,7.812,0
1486823386.736,57.129,63.477,38.574,77.148,8.301,0
1486823386.740,38.086,64.453,74.219,67.383,6.348,0
1486823386.743,26.367,58.594,86.914,53.711,11.230,0
1486823386.747,21.973,60.547,62.500,50.781,30.762,0
1486823386.751,21.973,56.152,44.434,51.270,39.551,0
1486823386.755,31.738,66.895,42.480,55.176,5.859,0
1486823386.759,49.805,75.684,37.598,88.379,-6.348,0
1486823386.763,48.828,64.453,35.645,79.102,16.602,0
1486823386.767,26.367,39.062,38.574,37.109,33.691,0
1486823386.771,19.043,31.738,61.035,34.180,-9.277,0
1486823386.775,28.320,36.133,78.125,47.852,-33.203,0
1486823386.779,30.273,26.367,63.477,49.805,25.391,0
1486823386.783,28.320,17.578,38.574,34.668,55.176,0
1486823386.786,23.926,18.066,27.832,22.461,4.395,0
1486823386.790,28.809,21.973,36.621,38.574,-20.508,0
1486823386.794,32.715,22.461,46.875,61.523,59.082,0
1486823386.798,41.016,28.809,30.273,69.336,64.453,0
1486823386.802,56.152,41.016,21.484,67.383,38.086,0
1486823386.806,42.480,32.715,35.156,51.270,13.672,0
1486823386.810,19.043,15.137,50.293,23.926,26.855,0
1486823386.814,27.832,22.949,68.848,44.922,51.270,0
1486823386.818,32.227,22.949,61.523,63.965,24.902,0
1486823386.822,22.949,33.203,43.945,50.781,4.395,0
1486823386.825,33.203,49.316,49.805,58.594,23.926,0
1486823386.829,32.715,35.156,34.668,62.500,28.320,0
1486823386.833,35.645,46.387,5.859,47.363,-12.207,0
1486823386.837,48.340,65.918,16.602,45.898,-7.324,0
1486823386.841,50.781,67.383,50.781,60.547,15.137,0
1486823386.845,46.387,63.477,57.129,55.664,-0.977,0
1486823386.849,34.668,56.641,62.500,42.969,0.488,0
1486823386.853,34.180,56.152,62.988,45.410,26.367,0
1486823386.857,41.016,59.570,47.852,58.105,19.531,0
1486823386.861,40.039,55.176,43.457,49.805,27.344,0
1486823386.865,35.156,54.688,38.574,42.480,20.996,0
1486823386.868,47.363,82.031,41.016,72.266,5.859,0
1486823386.872,64.941,105.957,40.527,90.332,20.508,0
1486823386.876,45.410,77.637,24.414,62.988,-11.719,0
1486823386.880,23.926,47.363,26.367,45.410,-5.371,0
1486823386.884,40.039,45.898,30.273,44.434,42.969,0
1486823386.888,35.645,24.902,17.090,37.109,12.207,0
1486823386.892,20.508,15.625,28.320,21.484,-2.441,0
1486823386.896,34.180,43.945,56.152,31.250,0.977,0
1486823386.900,54.199,64.941,71.777,65.430,59.082,0
1486823386.904,60.547,75.684,62.988,71.777,70.312,0
1486823386.908,46.387,57.129,10.254,60.059,20.996,0
1486823386.911,42.480,46.875,4.883,57.617,4.883,0
1486823386.915,59.082,66.895,65.430,61.523,18.066,0
1486823386.919,59.570,62.012,89.844,56.152,35.645,0
1486823386.923,33.691,50.781,58.105,38.086,-13.184,0
1486823386.927,27.832,54.688,41.992,41.016,-10.742,0
1486823386.931,61.035,73.730,69.824,75.684,45.898,0
1486823386.935,59.570,77.637,75.684,88.867,34.668,0
1486823386.939,27.832,41.504,26.367,65.918,21.484,0
1486823386.943,29.785,22.949,2.930,62.012,19.531,0
1486823386.947,30.273,25.391,16.602,49.316,46.387,0
1486823386.950,40.039,40.527,43.457,42.480,32.227,0
1486823386.954,61.523,66.895,72.754,48.828,9.766,0
1486823386.958,63.965,73.730,76.172,55.664,17.090,0
1486823386.962,53.223,69.824,45.898,49.316,47.363,0
1486823386.966,54.199,62.012,45.898,51.758,36.621,0
1486823386.970,35.645,41.504,65.918,64.941,-8.789,0
1486823386.974,22.949,36.621,55.176,71.289,39.062,0
1486823386.978,28.320,39.062,43.457,72.266,50.293,0
1486823386.982,14.648,36.621,40.039,65.430,35.645,0
1486823386.986,0.488,41.016,29.297,49.316,25.879,0
1486823386.990,16.113,53.711,29.297,54.688,-5.859,0
1486823386.993,28.320,63.965,54.199,70.801,22.461,0
1486823386.997,12.207,66.895,62.988,55.176,62.500,0
1486823387.001,9.277,63.477,35.156,49.316,37.598,0
1486823387.005,31.250,69.336,7.812,61.523,21.484,0
1486823387.009,57.617,101.074,42.480,79.590,20.996,0
1486823387.013,62.500,97.168,66.406,74.219,-22.949,0
1486823387.017,31.250,58.105,19.531,39.062,6.836,0
1486823387.021,22.949,60.547,35.156,43.457,50.781,0
1486823387.025,34.668,79.590,83.496,56.152,-2.930,0
1486823387.029,19.043,63.477,66.406,46.387,-29.297,0
1486823387.033,11.719,41.504,48.828,51.270,30.762,0
1486823387.036,14.648,38.574,21.973,44.922,40.039,0
1486823387.040,34.180,49.805,22.461,43.457,19.043,0
1486823387.044,47.363,65.430,43.945,58.105,38.574,0
1486823387.048,19.043,52.734,28.320,34.180,47.363,0
1486823387.052,32.227,67.383,50.781,42.480,36.133,0
1486823387.056,124.023,155.762,128.906,141.113,-11.719,0
1486823387.060,171.387,200.195,183.105,195.312,20.020,0
1486823387.064,151.855,194.336,205.078,180.176,51.758,0
1486823387.068,146.484,186.523,208.984,159.180,41.992,0
1486823387.072,171.387,195.312,198.242,175.781,9.766,0
1486823387.075,163.574,193.848,168.457,182.617,-1.465,0
1486823387.079,150.391,174.316,140.137,173.828,49.316,0
1486823387.083,135.254,155.273,134.766,150.879,42.969,0
1486823387.087,128.418,152.344,155.273,147.949,-7.324,0
1486823387.091,134.766,147.949,163.574,148.438,-1.465,0
1486823387.095,123.535,146.484,163.086,133.789,7.812,0
1486823387.099,109.863,144.531,138.672,127.441,22.461,0
1486823387.103,110.840,137.695,118.652,118.652,9.766,0
1486823387.107,126.953,144.531,141.113,126.953,-5.859,0
1486823387.111,129.883,138.184,138.184,133.789,24.902,0
1486823387.115,108.398,124.023,110.352,122.070,39.062,0
1486823387.118,89.355,118.164,102.051,106.445,23.926,0
1486823387.122,84.473,113.281,90.332,95.215,26.367,0
1486823387.126,80.078,107.910,83.008,93.750,30.762,0
1486823387.130,88.867,103.027,87.402,98.633,46.387,0
1486823387.134,95.703,101.562,106.445,102.539,27.832,0
1486823387.138,92.773,94.727,108.887,94.238,19.531,0
1486823387.142,82.031,95.215,97.168,87.402,8.789,0
1486823387.146,77.637,104.980,100.586,96.191,19.043,0
1486823387.150,103.027,121.094,96.191,106.445,42.480,0
1486823387.154,96.680,109.375,97.168,97.168,3.906,0
1486823387.158,75.684,89.844,92.773,78.613,-1.465,0
1486823387.161,85.938,99.609,105.469,84.473,8.301,0
1486823387.165,91.309,99.121,105.469,94.238,6.348,0
1486823387.169,60.547,73.242,70.801,66.406,34.668,0
1486823387.173,61.523,73.730,59.570,62.500,-0.977,0
1486823387.177,81.055,88.379,67.871,84.473,0.000,0
1486823387.181,68.359,89.355,72.754,74.219,20.996,0
1486823387.185,70.312,103.027,78.125,75.684,2.441,0
1486823387.189,76.660,107.422,87.891,85.449,-19.531,0
1486823387.193,68.359,98.145,105.957,81.055,-20.508,0
1486823387.197,63.965,97.656,104.980,72.266,17.090,0
1486823387.200,62.012,93.750,94.727,72.266,18.555,0
1486823387.204,61.523,95.215,94.727,76.660,-20.508,0
1486823387.208,81.055,113.770,97.656,85.449,-23.438,0
1486823387.212,87.891,114.258,76.660,91.797,4.883,0
1486823387.216,74.219,91.797,69.824,92.285,57.129,0
1486823387.220,58.594,78.125,66.406,63.965,45.410,0
1486823387.224,43.457,85.449,56.152,40.527,2.930,0
1486823387.228,51.758,85.449,99.609,68.359,9.766,0
1486823387.232,57.617,80.078,138.184,76.172,35.645,0
1486823387.236,51.758,90.820,130.371,50.781,34.668,0
1486823387.240,66.895,118.652,157.715,62.988,0.000,0
1486823387.243,70.801,122.559,176.270,81.055,2.930,0
1486823387.247,66.895,118.652,160.645,83.008,36.621,0
1486823387.251,74.707,136.719,156.738,87.402,9.766,0
1486823387.255,68.848,131.348,133.789,80.566,-35.645,0
1486823387.259,61.035,118.164,107.910,75.684,4.883,0
1486823387.263,69.824,137.207,109.375,81.055,29.297,0
1486823387.267,62.012,122.559,109.863,69.336,-3.418,0
1486823387.271,35.156,82.520,82.031,39.551,-18.066,0
1486823387.275,37.598,102.539,77.148,44.434,6.836,0
1486823387.279,49.805,108.398,105.469,50.781,24.414,0
1486823387.283,39.551,87.891,87.402,37.598,17.578,0
1486823387.286,28.809,86.914,74.707,32.715,24.414,0
1486823387.290,30.273,93.262,89.844,30.273,17.578,0
1486823387.294,43.945,119.141,93.262,40.039,7.324,0
1486823387.298,45.898,126.465,103.027,48.340,8.789,0
1486823387.302,32.227,109.863,101.562,48.340,17.578,0
1486823387.306,28.809,104.980,92.773,61.523,48.828,0
1486823387.310,28.809,101.074,93.262,57.617,21.973,0
1486823387.314,41.016,94.238,81.055,52.246,4.395,0
1486823387.318,47.852,98.145,74.707,54.688,31.250,0
1486823387.322,44.922,94.727,81.055,49.805,-7.812,0
1486823387.325,48.340,86.914,83.008,61.523,1.465,0
1486823387.329,32.227,83.496,90.820,55.176,44.922,0
1486823387.333,36.621,90.332,96.680,44.434,51.270,0
1486823387.337,49.316,122.559,84.961,49.805,37.598,0
1486823387.341,35.645,145.508,59.082,43.457,-16.113,0
1486823387.345,27.344,135.254,63.965,35.645,-16.602,0
1486823387.349,26.367,124.023,66.895,29.297,36.621,0
1486823387.353,30.762,129.395,63.965,36.133,63.477,0
1486823387.357,28.320,127.930,83.496,43.945,35.156,0
1486823387.361,32.227,117.676,86.426,38.086,26.855,0
1486823387.365,31.738,134.277,65.430,43.945,48.828,0
1486823387.368,16.113,136.719,44.434,34.668,10.254,0
1486823387.372,17.090,113.770,48.340,11.719,-18.555,0
1486823387.376,22.949,125.977,73.242,18.555,25.879,0
1486823387.380,26.367,137.207,82.520,47.363,39.551,0
1486823387.384,27.344,120.605,75.684,42.969,10.742,0
1486823387.388,24.902,119.629,53.711,31.250,-0.488,0
1486823387.392,37.598,146.973,40.527,43.457,-1.953,0
1486823387.396,30.762,150.879,36.133,28.320,6.348,0
1486823387.400,6.836,104.004,32.715,4.883,29.297,0
1486823387.404,5.859,96.191,65.430,12.695,34.668,0
1486823387.408,31.738,128.906,89.844,34.668,13.184,0
1486823387.411,32.715,123.047,87.402,41.016,12.695,0
1486823387.415,9.766,102.539,70.801,18.066,34.668,0
1486823387.419,0.977,91.797,48.828,11.230,30.762,0
1486823387.423,1.465,96.680,39.551,20.508,0.488,0
1486823387.427,10.254,97.656,45.410,15.137,37.598,0
1486823387.431,17.090,92.773,72.266,21.484,23.438,0
1486823387.435,27.344,99.609,92.773,40.039,-26.367,0
1486823387.439,25.879,98.145,78.613,35.645,-3.906,0
1486823387.443,10.254,68.359,57.129,20.020,25.879,0
1486823387.447,12.207,53.223,43.457,29.785,11.719,0
1486823387.450,16.113,65.430,38.086,39.062,19.531,0
1486823387.454,17.090,65.430,56.641,29.785,48.828,0
1486823387.458,17.578,75.195,70.312,35.645,30.762,0
1486823387.462,16.602,80.078,82.520,42.969,29.785,0
1486823387.466,20.020,67.871,79.590,38.574,36.133,0
1486823387.470,8.301,59.570,61.035,25.391,42.480,0
1486823387.474,9.766,67.383,54.688,29.297,46.387,0
1486823387.478,16.113,84.961,48.828,36.621,11.230,0
1486823387.482,17.090,99.609,65.430,43.945,-9.766,0
1486823387.486,32.715,106.934,83.496,54.688,-6.348,0
1486823387.490,23.438,98.145,60.547,29.297,-27.344,0
1486823387.493,11.719,75.684,37.598,24.414,-23.438,0
1486823387.497,14.160,71.289,35.645,36.133,42.480,0
1486823387.501,18.066,70.312,36.133,37.109,46.875,0
1486823387.505,27.832,76.660,46.875,42.969,-20.020,0
1486823387.509,20.996,87.891,41.992,41.016,-39.551,0
1486823387.513,23.926,82.520,42.969,43.457,14.160,0
1486823387.517,33.203,87.891,61.035,46.875,70.801,0
1486823387.521,21.484,83.496,54.199,33.203,38.574,0
1486823387.525,-4.395,59.082,43.945,19.043,-6.348,0
1486823387.529,-3.906,63.477,60.059,10.742,17.090,0
1486823387.533,40.527,83.008,65.918,46.387,40.039,0
1486823387.536,49.316,73.242,51.758,57.617,-3.906,0
1486823387.540,17.090,46.875,34.668,28.809,0.000,0
1486823387.544,11.230,37.598,25.879,20.996,43.457,0
1486823387.548,2.930,41.992,42.969,18.066,46.875,0
1486823387.552,0.488,32.227,43.457,11.230,20.996,0
1486823387.556,23.438,50.293,39.062,26.855,-11.719,0
1486823387.560,30.273,69.336,33.691,44.922,31.250,0
1486823387.564,25.391,48.828,19.531,27.832,38.574,0
1486823387.568,33.691,56.641,16.602,27.344,18.555,0
1486823387.572,49.805,75.195,34.668,44.434,26.367,0
1486823387.575,39.062,72.266,41.016,44.922,16.113,0
1486823387.579,5.859,49.316,19.531,17.090,11.719,0
1486823387.583,12.207,36.133,33.691,7.324,-0.488,0
1486823387.587,29.785,38.086,60.059,35.645,5.859,0
1486823387.591,17.090,34.180,50.293,32.227,23.438,0
1486823387.595,21.484,41.016,33.203,32.715,9.766,0
1486823387.599,40.039,53.711,39.551,46.387,4.883,0
1486823387.603,39.062,54.199,58.105,34.180,-1.953,0
1486823387.607,33.691,57.129,57.617,40.039,5.371,0
1486823387.611,34.180,54.688,58.105,39.551,7.324,0
1486823387.615,31.738,51.758,69.336,31.738,21.973,0
1486823387.618,35.156,66.406,61.035,48.340,20.508,0
1486823387.622,45.410,85.449,60.059,60.059,-5.859,0
1486823387.626,43.457,85.938,58.594,48.828,-40.527,0
1486823387.630,36.621,67.383,53.223,42.480,-20.020,0
1486823387.634,49.805,61.035,70.312,56.152,44.922,0
1486823387.638,46.875,62.012,71.289,61.523,7.812,0
1486823387.642,27.832,59.082,59.082,56.641,-20.020,0
1486823387.646,31.250,73.242,51.270,45.410,12.207,0
1486823387.650,36.621,76.172,54.199,41.504,63.477,0
1486823387.654,29.785,75.195,56.641,37.598,35.645,0
1486823387.658,20.508,78.125,47.852,45.410,-14.160,0
1486823387.661,25.391,96.680,54.688,40.527,12.695,0
1486823387.665,14.160,103.027,59.082,16.113,32.227,0
1486823387.669,10.254,85.449,56.152,23.926,23.926,0
1486823387.673,31.250,91.797,78.125,47.363,0.977,0
1486823387.677,30.762,97.168,75.684,55.176,46.875,0
1486823387.681,14.160,85.938,70.312,46.387,78.125,0
1486823387.685,20.508,83.008,68.848,37.598,44.922,0
1486823387.689,34.180,103.027,55.176,41.016,13.184,0
1486823387.693,33.691,104.492,58.105,46.875,-12.207,0
1486823387.697,27.832,76.172,49.805,49.316,28.320,0
1486823387.700,9.277,68.848,32.715,44.922,24.414,0
1486823387.704,10.254,74.219,54.688,53.223,1.953,0
1486823387.708,15.625,68.359,78.613,52.734,32.227,0
1486823387.712,9.766,65.430,69.824,51.758,14.160,0
1486823387.716,11.719,77.148,55.664,52.246,19.531,0
1486823387.720,9.277,80.566,53.711,41.992,-13.184,0
1486823387.724,26.367,87.402,41.992,61.523,-37.109,0
1486823387.728,28.809,105.469,47.852,67.871,-7.324,0
1486823387.732,6.836,90.820,58.105,48.828,1.465,0
1486823387.736,9.766,73.242,53.711,37.109,18.555,0
1486823387.740,16.113,75.195,70.312,34.668,18.555,0
1486823387.743,9.277,74.219,73.730,37.598,-20.508,0
1486823387.747,9.277,67.383,65.430,41.992,21.484,0
1486823387.751,20.508,72.754,49.805,52.246,31.250,0
1486823387.755,27.344,84.961,42.480,43.945,-10.742,0
1486823387.759,29.297,87.891,54.688,44.434,-8.789,0
1486823387.763,23.438,79.102,61.035,48.340,-21.484,0
1486823387.767,21.484,63.965,44.922,40.039,-9.766,0
1486823387.771,38.086,69.336,51.270,50.781,9.277,0
1486823387.775,35.156,65.430,63.477,44.434,0.000,0
1486823387.779,26.855,50.781,48.340,28.320,22.461,0
1486823387.783,32.227,79.102,46.875,23.438,47.363,0
1486823387.786,41.016,95.215,53.711,14.648,24.902,0
1486823387.790,47.852,68.359,45.410,13.184,-6.348,0
1486823387.794,49.316,68.848,31.250,26.367,-5.859,0
1486823387.798,58.105,140.137,32.715,23.438,17.578,0
1486823387.802,58.105,166.992,39.062,13.184,19.531,0
1486823387.806,40.527,122.559,35.645,39.062,17.090,0
1486823387.810,29.297,118.164,41.504,47.363,35.645,0
1486823387.814,23.438,130.859,44.434,32.715,55.664,0
1486823387.818,19.043,108.398,59.082,44.434,67.383,0
1486823387.822,16.113,76.660,78.613,57.129,9.277,0
1486823387.825,17.578,72.266,88.379,31.250,-17.578,0
1486823387.829,19.043,55.176,88.379,14.648,-2.930,0
1486823387.833,21.973,52.734,74.219,21.484,9.277,0
1486823387.837,12.695,64.453,54.199,14.648,-4.883,0
1486823387.841,7.324,56.641,52.246,16.113,-1.465,0
1486823387.845,19.043,53.223,60.059,32.227,39.551,0
1486823387.849,42.480,67.383,44.434,34.668,38.086,0
1486823387.853,41.992,53.711,34.668,36.133,-1.953,0
1486823387.857,33.203,36.133,47.363,42.969,-6.836,0
1486823387.861,23.926,30.273,37.598,20.020,25.391,0
1486823387.865,-2.441,26.855,24.414,-4.883,15.137,0
1486823387.868,-4.883,38.086,51.270,3.906,4.883,0
1486823387.872,0.488,61.035,70.312,5.859,1.953,0
1486823387.876,15.625,86.426,73.730,19.043,30.273,0
1486823387.880,22.461,86.914,68.359,28.809,73.242,0
1486823387.884,14.648,87.891,59.082,28.809,57.129,0
1486823387.888,13.184,88.379,46.387,40.039,24.902,0
1486823387.892,14.648,87.891,33.203,38.086,8.789,0
1486823387.896,21.484,92.773,59.570,39.062,44.434,0
1486823387.900,22.949,79.590,85.938,51.270,31.250,0
1486823387.904,28.809,62.988,69.824,57.129,-25.391,0
1486823387.908,17.578,53.223,53.223,33.691,5.859,0
1486823387.911,5.371,68.848,59.570,24.414,-2.930,0
1486823387.915,24.414,74.219,71.289,39.551,-2.930,0
1486823387.919,33.691,71.777,67.871,53.223,63.477,0
1486823387.923,31.738,85.938,71.289,54.688,42.969,0
1486823387.927,20.020,72.266,66.406,32.715,35.156,0
1486823387.931,2.930,62.012,32.715,22.949,73.730,0
1486823387.935,20.020,89.355,37.109,37.598,56.641,0
1486823387.939,37.109,88.867,69.824,65.430,-6.348,0
1486823387.943,26.855,71.289,55.176,59.570,-23.438,0
1486823387.947,20.020,83.984,35.645,33.691,25.879,0
1486823387.950,18.555,93.750,43.945,20.996,63.965,0
1486823387.954,26.855,85.449,48.340,29.785,22.949,0
1486823387.958,33.691,100.586,46.387,51.270,-26.367,0
1486823387.962,33.691,114.746,42.969,53.223,-5.859,0
1486823387.966,37.598,97.168,59.082,43.945,54.688,0
1486823387.970,42.480,111.816,60.059,47.852,17.090,0
1486823387.974,38.086,127.930,50.781,41.016,-6.348,0
1486823387.978,28.320,126.953,42.480,25.879,53.711,0
1486823387.982,29.785,149.414,38.574,32.227,35.645,0
1486823387.986,31.738,162.109,69.336,34.180,6.836,0
1486823387.990,45.898,171.875,92.285,46.387,37.109,0
1486823387.993,71.777,197.754,98.145,78.125,33.203,0
1486823387.997,61.523,172.363,80.078,69.824,1.465,0
1486823388.001,19.531,123.535,39.062,32.227,-2.930,0
1486823388.005,2.930,94.238,3.418,18.066,-12.207,0
1486823388.009,27.344,100.586,19.531,45.410,-11.230,0
1486823388.013,42.480,131.348,72.754,64.453,39.551,0
1486823388.017,31.738,124.512,82.520,45.898,41.504,0
1486823388.021,33.691,110.352,81.055,44.922,20.020,0
1486823388.025,35.645,112.793,78.125,54.688,10.254,0
1486823388.029,36.621,110.352,85.938,49.316,0.488,0
1486823388.033,40.527,109.863,88.379,55.664,18.066,0
1486823388.036,40.527,112.793,65.918,59.570,14.648,0
1486823388.040,34.180,107.422,47.852,37.109,27.344,0
1486823388.044,35.645,96.680,11.230,53.223,14.160,0
1486823388.048,31.250,85.938,13.184,63.477,23.926,0
1486823388.052,21.973,89.355,54.199,42.969,23.438,0
1486823388.056,43.457,109.375,82.031,54.688,-2.441,0
1486823388.060,57.129,117.676,88.379,76.660,-14.160,0
1486823388.064,51.758,106.934,90.820,64.453,-3.418,0
1486823388.068,43.945,101.074,80.566,53.711,31.738,0
1486823388.072,38.574,91.797,58.594,55.176,13.672,0
1486823388.075,31.250,83.984,45.898,40.039,-10.742,0
1486823388.079,25.391,96.191,40.039,26.855,21.484,0
1486823388.083,45.898,108.398,17.090,44.434,53.223,0
1486823388.087,65.430,109.375,16.602,59.570,39.062,0
1486823388.091,41.504,80.078,43.945,41.992,4.883,0
1486823388.095,23.438,57.129,52.246,32.715,-7.812,0
1486823388.099,26.855,64.941,50.781,26.367,53.711,0
1486823388.103,33.691,70.312,51.758,36.133,65.918,0
1486823388.107,41.016,87.891,53.711,49.316,14.160,0
1486823388.111,39.551,93.750,67.871,65.918,10.742,0
1486823388.115,42.969,84.473,78.613,81.543,35.156,0
1486823388.118,49.316,96.680,76.660,74.707,17.090,0
1486823388.122,51.270,99.121,72.754,61.035,10.254,0
1486823388.126,58.105,83.496,64.453,62.500,5.859,0
1486823388.130,70.312,97.656,55.664,81.055,19.043,0
1486823388.134,62.500,107.910,65.430,74.219,39.551,0
1486823388.138,48.828,89.355,62.500,58.594,7.812,0
1486823388.142,56.641,98.145,62.988,62.012,12.207,0
1486823388.146,51.758,97.168,55.176,71.777,41.504,0
1486823388.150,36.133,64.941,42.480,61.035,41.504,0
1486823388.154,17.090,32.715,62.012,47.852,15.625,0
1486823388.158,19.043,43.457,73.242,56.641,16.602,0
1486823388.161,45.898,63.477,62.012,71.289,12.695,0
1486823388.165,53.711,55.664,75.684,69.336,26.367,0
1486823388.169,51.758,54.199,92.773,59.570,26.855,0
1486823388.173,44.434,48.828,81.543,53.711,-0.488,0
1486823388.177,41.016,41.504,70.801,56.152,19.043,0
1486823388.181,49.805,41.992,65.918,70.801,72.754,0
1486823388.185,64.941,65.430,68.848,78.613,35.645,0
1486823388.189,66.895,83.984,64.941,86.914,-10.254,0
1486823388.193,61.035,66.406,64.453,87.891,11.230,0
1486823388.197,66.406,58.105,66.895,80.566,8.789,0
1486823388.200,60.059,66.895,61.523,69.824,14.648,0
1486823388.204,56.152,69.336,62.500,69.336,33.691,0
1486823388.208,58.594,96.191,80.566,71.289,34.668,0
1486823388.212,60.547,108.887,81.055,81.055,47.852,0
1486823388.216,52.246,78.613,44.434,76.660,42.480,0
1486823388.220,45.410,64.941,37.598,70.312,-1.465,0
1486823388.224,52.734,63.965,53.223,84.961,-0.488,0
1486823388.228,51.758,54.688,62.500,83.984,36.621,0
1486823388.232,58.105,51.758,58.105,80.566,27.832,0
1486823388.236,61.523,41.504,46.387,87.402,22.949,0
1486823388.240,45.410,19.531,44.922,76.172,13.672,0
1486823388.243,39.551,8.789,51.758,66.406,-0.977,0
1486823388.247,51.758,16.113,68.359,85.938,44.922,0
1486823388.251,65.918,15.137,83.496,101.562,41.504,0
1486823388.255,69.336,-2.930,79.590,95.703,-11.719,0
1486823388.259,49.805,11.230,68.359,70.312,-5.371,0
1486823388.263,28.320,41.016,64.941,60.547,42.969,0
1486823388.267,25.879,30.273,47.852,58.594,40.039,0
1486823388.271,43.457,38.086,61.523,73.730,5.371,0
1486823388.275,53.223,59.570,50.781,76.660,14.160,0
1486823388.279,35.156,42.969,23.438,56.152,18.555,0
1486823388.283,27.832,39.062,42.480,64.453,36.133,0
1486823388.286,33.203,64.941,62.500,72.266,31.250,0
1486823388.290,37.598,70.312,79.102,73.730,-18.555,0
1486823388.294,41.992,64.453,68.848,78.125,30.273,0
1486823388.298,46.387,61.035,67.383,75.195,46.387,0
1486823388.302,36.133,42.480,70.312,60.547,11.230,0
1486823388.306,30.273,20.020,56.152,53.223,11.719,0
1486823388.310,40.039,26.367,70.801,68.848,5.371,0
1486823388.314,48.828,38.086,74.707,85.449,13.672,0
1486823388.318,54.199,28.809,38.574,78.613,39.551,0
1486823388.322,57.617,42.969,33.691,64.941,11.719,0
1486823388.325,55.664,62.500,45.410,65.918,17.578,0
1486823388.329,59.570,59.570,54.688,78.613,25.879,0
1486823388.333,67.871,47.363,58.105,75.684,6.348,0
1486823388.337,62.500,31.738,52.246,65.918,35.645,0
1486823388.341,55.176,35.645,48.340,68.359,49.805,0
1486823388.345,54.688,26.367,32.715,63.477,18.555,0
1486823388.349,51.758,-2.441,18.066,63.477,29.297,0
1486823388.353,61.523,9.277,44.922,74.219,33.691,0
1486823388.357,63.965,34.180,75.195,81.543,5.859,0
1486823388.361,61.523,47.852,62.500,89.844,12.695,0
1486823388.365,66.406,53.711,67.383,88.867,19.043,0
1486823388.368,67.871,66.895,84.473,87.891,2.930,0
1486823388.372,72.754,75.195,88.867,89.355,-14.160,0
1486823388.376,67.383,54.199,75.195,86.426,-5.371,0
1486823388.380,44.922,37.109,47.363,66.406,33.691,0
1486823388.384,50.781,48.828,50.293,70.801,46.387,0
1486823388.388,65.430,57.129,48.340,94.727,9.766,0
1486823388.392,54.199,55.176,24.902,87.402,-2.441,0
1486823388.396,50.293,56.641,51.758,78.125,8.301,0
1486823388.400,59.570,37.598,72.266,89.355,39.062,0
1486823388.404,54.688,24.902,52.246,89.844,29.785,0
1486823388.408,47.363,28.809,43.945,79.590,-15.137,0
1486823388.411,55.176,37.109,43.457,87.402,-6.348,0
1486823388.415,69.824,46.387,60.547,99.609,13.672,0
1486823388.419,86.914,55.176,67.871,98.633,25.879,0
1486823388.423,96.191,72.754,64.453,115.234,-11.230,0
1486823388.427,86.426,77.637,77.637,120.117,-9.766,0
1486823388.431,62.012,55.664,63.477,98.145,51.758,0
1486823388.435,43.945,43.457,29.297,73.242,44.922,0
1486823388.439,64.453,51.270,16.113,68.359,20.020,0
1486823388.443,59.570,47.852,14.160,75.195,11.230,0
1486823388.447,34.180,37.598,-8.789,63.477,29.785,0
1486823388.450,45.410,55.176,-9.766,77.637,41.992,0
1486823388.454,63.477,84.961,30.762,98.145,9.766,0
1486823388.458,67.383,89.355,41.992,103.516,44.434,0
1486823388.462,69.824,87.402,35.156,101.562,51.758,0
1486823388.466,74.707,80.078,47.363,99.609,21.484,0
1486823388.470,80.566,72.754,52.246,102.051,8.301,0
1486823388.474,62.500,69.824,23.438,93.750,33.203,0
1486823388.478,46.875,48.828,10.742,83.008,34.668,0
1486823388.482,55.664,51.270,42.969,84.473,-5.371,0
1486823388.486,51.758,56.152,53.223,83.008,4.883,0
1486823388.490,41.016,40.527,42.969,79.590,-8.789,0
1486823388.493,41.504,36.133,19.043,86.426,6.836,0
1486823388.497,53.223,33.691,35.645,92.773,41.504,0
1486823388.501,72.266,33.203,71.289,97.656,56.152,0
1486823388.505,81.055,44.434,62.012,103.027,25.879,0
1486823388.509,99.609,75.195,71.289,134.766,14.648,0
1486823388.513,112.305,78.125,82.031,153.320,6.836,0
1486823388.517,65.430,44.434,47.363,104.492,-9.277,0
1486823388.521,60.059,37.598,29.785,97.168,28.320,0
1486823388.525,80.566,61.523,47.363,117.188,14.160,0
1486823388.529,53.711,64.941,62.988,89.355,11.230,0
1486823388.533,44.434,56.641,59.570,72.266,32.227,0
1486823388.536,50.293,64.941,53.223,66.406,40.039,0
1486823388.540,56.152,85.449,60.059,79.102,39.551,0
1486823388.544,52.734,82.031,42.969,83.008,15.625,0
1486823388.548,56.641,80.078,43.945,73.242,45.410,0
1486823388.552,65.430,96.680,65.918,77.637,48.340,0
1486823388.556,67.871,109.863,83.496,92.285,22.461,0
1486823388.560,58.105,105.957,44.434,79.590,5.371,0
1486823388.564,45.898,107.910,4.883,54.688,41.992,0
1486823388.568,46.387,95.215,33.691,56.152,51.758,0
1486823388.572,37.109,70.801,58.594,48.828,18.555,0
1486823388.575,42.480,74.219,77.637,56.641,33.691,0
1486823388.579,42.480,70.312,42.969,43.457,24.902,0
1486823388.583,32.227,74.707,20.996,25.879,37.109,0
1486823388.587,33.203,65.918,37.109,53.711,36.133,0
1486823388.591,36.133,54.688,63.477,49.805,5.859,0
1486823388.595,60.547,87.402,95.703,46.387,6.348,0
1486823388.599,66.406,84.473,79.102,50.781,25.879,0
1486823388.603,52.246,48.828,58.105,37.598,1.465,0
1486823388.607,64.941,46.387,48.340,41.016,-5.371,0
1486823388.611,73.242,54.688,52.246,62.988,18.555,0
1486823388.615,58.105,68.359,72.266,69.824,-0.488,0
1486823388.618,32.227,74.707,62.500,59.082,-20.508,0
1486823388.622,16.113,58.105,53.223,65.918,-29.297,0
1486823388.626,18.066,60.059,59.570,65.430,-41.504,0
1486823388.630,18.066,69.336,35.645,51.270,-11.230,0
1486823388.634,46.387,95.703,51.270,79.590,12.207,0
1486823388.638,57.129,112.793,78.125,76.172,-6.836,0
1486823388.642,40.039,88.379,70.312,57.129,6.836,0
1486823388.646,35.156,71.289,76.660,62.988,35.156,0
1486823388.650,34.668,72.754,72.754,67.383,34.180,0
1486823388.654,48.340,95.215,56.152,76.172,20.508,0
1486823388.658,51.270,104.980,62.500,72.754,16.602,0
1486823388.661,40.527,101.074,81.055,63.477,41.016,0
1486823388.665,43.945,105.957,71.777,78.613,44.922,0
1486823388.669,42.480,107.422,29.297,82.520,45.898,0
1486823388.673,41.992,109.375,31.250,68.359,38.574,0
1486823388.677,58.105,108.398,77.637,68.359,8.789,0
1486823388.681,67.383,103.516,104.492,77.637,38.086,0
1486823388.685,49.316,93.750,74.219,66.895,69.824,0
1486823388.689,28.809,81.543,37.109,40.039,33.691,0
1486823388.693,42.480,92.285,69.824,47.852,22.949,0
1486823388.697,60.059,104.492,104.492,68.848,41.504,0
1486823388.700,37.109,81.055,72.266,60.059,49.805,0
1486823388.704,19.043,61.523,50.781,38.574,20.996,0
1486823388.708,19.531,70.312,47.363,37.598,0.488,0
1486823388.712,30.273,93.750,56.152,54.688,64.453,0
1486823388.716,36.621,97.656,65.430,62.500,85.938,0
1486823388.720,28.320,80.078,56.641,50.781,29.785,0
1486823388.724,39.062,94.238,76.660,50.293,9.766,0
1486823388.728,47.852,112.305,85.449,68.359,29.297,0
1486823388.732,38.574,102.539,70.312,70.801,42.969,0
1486823388.736,38.086,89.844,63.477,65.430,19.043,0
1486823388.740,44.434,89.355,72.754,54.688,11.230,0
1486823388.743,24.414,80.078,71.777,33.203,46.387,0
1486823388.747,21.973,82.031,83.984,29.297,69.336,0
1486823388.751,30.273,96.680,85.938,50.293,55.664,0
1486823388.755,33.691,92.773,22.461,71.289,9.277,0
1486823388.759,37.598,83.496,37.109,55.664,-2.441,0
1486823388.763,26.367,79.102,74.219,41.504,34.668,0
1486823388.767,36.621,96.191,78.613,66.406,24.414,0
1486823388.771,43.945,94.238,70.312,64.941,26.367,0
1486823388.775,13.184,65.430,31.250,34.180,26.367,0
1486823388.779,18.066,74.219,54.199,44.922,14.160,0
1486823388.783,32.227,88.379,66.895,57.617,41.992,0
1486823388.786,41.504,91.309,67.383,65.430,40.527,0
1486823388.790,44.434,95.703,82.520,61.035,24.902,0
1486823388.794,31.250,81.055,83.008,47.363,40.039,0
1486823388.798,25.391,72.266,77.148,47.852,42.969,0
1486823388.802,37.598,89.844,75.195,60.059,47.852,0
1486823388.806,51.270,92.285,85.449,67.871,67.871,0
1486823388.810,40.527,70.801,87.402,75.195,16.602,0
1486823388.814,23.438,45.410,84.961,64.453,5.371,0
1486823388.818,17.090,27.344,82.031,31.738,64.453,0
1486823388.822,17.578,22.461,89.844,29.785,40.039,0
1486823388.825,31.738,38.086,105.469,31.250,13.184,0
1486823388.829,37.109,40.527,90.332,37.598,52.734,0
1486823388.833,45.410,41.504,82.520,60.547,69.824,0
1486823388.837,68.359,65.918,106.445,84.473,32.227,0
1486823388.841,59.570,65.918,114.746,80.078,-7.812,0
1486823388.845,37.109,37.598,110.352,55.176,-4.883,0
1486823388.849,41.504,48.340,106.934,46.387,37.598,0
1486823388.853,48.828,67.383,101.074,46.387,54.688,0
1486823388.857,30.273,62.012,91.309,29.297,9.277,0
1486823388.861,26.367,51.758,83.984,28.809,-2.930,0
1486823388.865,44.434,47.852,76.660,45.410,53.711,0
1486823388.868,42.480,47.852,66.406,42.969,48.828,0
1486823388.872,37.598,52.246,76.172,45.410,22.949,0
1486823388.876,47.363,63.477,87.891,43.945,50.293,0
1486823388.880,50.781,59.082,66.895,34.668,67.383,0
1486823388.884,45.898,55.664,42.480,37.598,42.480,0
1486823388.888,46.875,53.223,57.129,41.504,-6.348,0
1486823388.892,54.688,63.965,81.055,31.738,-9.277,0
1486823388.896,63.965,80.566,71.289,45.898,30.273,0
1486823388.900,72.754,88.867,60.547,77.148,47.363,0
1486823388.904,60.547,80.566,72.266,49.316,10.254,0
1486823388.908,46.387,56.641,60.547,17.090,-12.207,0
1486823388.911,36.621,51.270,64.453,24.414,47.852,0
1486823388.915,27.344,42.969,75.684,19.531,56.641,0
1486823388.919,26.855,29.785,46.387,4.883,5.371,0
1486823388.923,36.621,49.805,55.176,24.902,6.836,0
1486823388.927,44.922,74.707,80.566,43.945,26.855,0
1486823388.931,42.969,89.355,86.426,27.344,26.855,0
1486823388.935,51.758,100.098,73.730,36.133,44.434,0
1486823388.939,67.383,104.980,72.266,54.688,51.270,0
1486823388.943,68.359,92.773,78.613,61.035,31.738,0
1486823388.947,53.711,76.660,56.152,61.035,36.133,0
1486823388.950,40.527,63.477,39.062,46.875,54.688,0
1486823388.954,38.574,56.152,50.781,43.945,37.109,0
1486823388.958,35.645,59.082,69.824,40.527,20.020,0
1486823388.962,48.828,63.965,60.059,41.992,16.602,0
1486823388.966,52.734,66.895,55.664,61.035,34.668,0
1486823388.970,44.434,60.547,68.848,70.312,70.801,0
1486823388.974,35.156,58.105,62.500,52.246,17.090,0
1486823388.978,45.898,71.777,74.707,66.406,-1.953,0
1486823388.982,62.012,83.984,70.312,76.660,28.320,0
1486823388.986,47.852,64.453,53.711,55.176,35.645,0
1486823388.990,28.809,41.992,58.594,49.316,16.113,0
1486823388.993,32.227,51.270,54.688,54.199,12.207,0
1486823388.997,34.668,57.617,52.246,43.457,49.805,0
1486823389.001,30.273,54.199,63.477,33.203,35.645,0
1486823389.005,32.227,63.477,72.754,39.062,0.488,0
1486823389.009,29.297,70.312,71.777,35.156,19.043,0
1486823389.013,41.016,67.383,83.008,48.340,35.156,0
1486823389.017,42.480,44.434,78.125,63.965,25.879,0
1486823389.021,38.086,29.297,59.570,63.477,8.789,0
1486823389.025,45.898,28.809,55.664,61.035,10.254,0
1486823389.029,53.711,44.922,51.758,71.289,22.461,0
1486823389.033,62.988,66.406,29.785,69.824,57.617,0
1486823389.036,62.012,67.383,35.645,66.895,23.438,0
1486823389.040,44.434,52.734,56.641,63.477,-34.668,0
1486823389.044,44.434,66.895,61.523,65.430,13.672,0
1486823389.048,55.176,76.660,63.477,80.078,42.480,0
1486823389.052,36.621,34.180,36.133,62.012,22.461,0
1486823389.056,18.555,22.949,36.133,50.293,-9.766,0
1486823389.060,20.996,43.457,58.594,57.129,16.113,0
1486823389.064,29.785,47.852,60.059,62.988,35.645,0
1486823389.068,37.109,58.594,62.012,65.430,16.113,0
1486823389.072,41.504,72.266,61.035,53.223,-6.836,0
1486823389.075,55.176,87.891,47.363,70.312,5.371,0
1486823389.079,48.828,69.336,19.531,63.477,22.949,0
1486823389.083,42.480,49.805,13.672,37.598,4.883,0
1486823389.087,51.758,65.430,42.969,42.480,-5.859,0
1486823389.091,49.316,74.219,58.105,47.852,6.836,0
1486823389.095,57.617,67.871,64.453,64.453,25.879,0
1486823389.099,59.570,62.012,49.805,62.500,34.180,0
1486823389.103,45.898,50.781,31.738,37.598,50.781,0
1486823389.107,38.574,38.574,41.504,33.203,27.344,0
1486823389.111,27.344,48.828,56.641,31.738,15.625,0
1486823389.115,14.160,53.223,60.059,17.578,60.547,0
1486823389.118,24.414,43.945,39.062,24.902,53.223,0
1486823389.122,28.320,42.969,12.207,34.180,7.324,0
1486823389.126,34.180,51.758,14.648,41.504,13.672,0
1486823389.130,46.387,62.988,45.410,55.664,42.969,0
1486823389.134,39.551,56.641,49.316,48.340,25.879,0
1486823389.138,28.320,44.434,42.480,41.504,26.367,0
1486823389.142,29.785,47.852,41.992,46.875,16.113,0
1486823389.146,38.086,54.688,45.410,42.969,-4.395,0
1486823389.150,43.457,49.805,69.824,34.180,43.457,0
