timestamps,TP9,AF7,AF8,TP10,Right AUX,Marker0
1507344882.535,24.414,47.852,32.715,17.090,35.156,0
1507344882.539,27.832,40.527,25.879,15.625,-27.344,0
1507344882.543,39.551,35.645,19.531,20.996,-16.113,0
1507344882.546,43.457,41.504,37.109,21.484,19.531,0
1507344882.550,32.715,41.504,34.180,16.602,-4.883,0
1507344882.554,26.855,41.016,29.297,16.602,-12.695,0
1507344882.558,31.250,37.598,38.574,13.672,0.488,0
1507344882.562,34.180,31.250,26.367,12.695,29.297,0
1507344882.566,33.691,38.574,21.484,19.043,59.082,0
1507344882.570,28.320,41.504,30.273,18.555,-4.395,0
1507344882.574,33.691,40.039,16.602,23.926,-21.973,0
1507344882.578,34.180,40.039,-4.883,22.949,38.086,0
1507344882.582,27.832,31.250,22.461,25.879,22.949,0
1507344882.586,30.762,34.668,44.434,33.691,5.859,0
1507344882.589,25.879,32.715,28.809,29.785,21.484,0
1507344882.593,25.391,26.855,36.133,30.273,34.180,0
1507344882.597,45.410,38.574,54.688,40.039,43.457,0
1507344882.601,46.387,38.574,24.902,41.016,31.738,0
1507344882.605,44.922,36.133,9.766,38.086,27.832,0
1507344882.609,52.734,38.086,26.367,39.551,3.418,0
1507344882.613,45.898,30.762,21.973,39.062,-10.742,0
1507344882.617,48.828,28.809,42.969,46.387,0.000,0
1507344882.621,53.711,37.109,56.152,55.664,20.020,0
1507344882.625,61.035,39.551,44.434,60.059,20.508,0
1507344882.628,67.383,46.387,21.973,54.688,11.719,0
1507344882.632,50.781,43.945,15.137,42.969,19.043,0
1507344882.636,49.316,38.086,43.945,47.363,25.391,0
1507344882.640,63.477,40.039,33.203,58.105,2.441,0
1507344882.644,54.688,31.738,-28.809,50.781,-20.508,0
1507344882.648,51.758,36.621,-7.812,47.363,-27.832,0
1507344882.652,69.336,53.711,56.152,58.105,-11.719,0
1507344882.656,68.359,44.922,72.266,63.965,-7.812,0
1507344882.660,66.406,41.504,61.035,68.848,-17.578,0
1507344882.664,63.965,45.898,23.438,60.059,6.836,0
1507344882.668,62.500,42.480,23.926,52.734,26.367,0
1507344882.671,67.383,48.828,60.547,63.965,1.953,0
1507344882.675,69.824,50.781,59.570,70.801,20.996,0
1507344882.679,75.195,46.875,28.809,71.289,57.617,0
1507344882.683,82.031,44.922,46.387,74.219,33.691,0
1507344882.687,83.496,43.945,55.664,75.195,4.883,0
1507344882.691,80.566,45.410,38.574,75.195,-2.930,0
1507344882.695,67.871,47.363,36.133,69.824,20.996,0
1507344882.699,65.918,42.969,22.461,64.453,38.086,0
1507344882.703,82.520,45.410,12.695,71.289,2.441,0
1507344882.707,79.102,43.457,26.367,65.430,-12.207,0
1507344882.711,74.707,41.992,42.480,60.547,16.602,0
1507344882.714,95.215,50.781,54.688,77.148,28.809,0
1507344882.718,99.121,46.875,36.133,76.660,14.648,0
1507344882.722,89.844,41.992,19.043,74.219,-2.930,0
1507344882.726,93.750,42.969,36.133,83.008,21.973,0
1507344882.730,90.332,42.969,51.270,79.102,30.273,0
1507344882.734,85.938,47.363,37.109,76.172,14.648,0
1507344882.738,97.168,55.176,17.578,80.078,29.785,0
1507344882.742,96.191,46.875,24.414,74.707,40.527,0
1507344882.746,95.215,44.922,36.621,70.312,26.367,0
1507344882.750,103.027,47.852,39.062,76.660,9.277,0
1507344882.753,103.027,44.434,35.156,83.008,6.836,0
1507344882.757,98.145,38.574,20.020,78.613,38.086,0
1507344882.761,101.562,46.875,30.762,84.473,62.988,0
1507344882.765,105.469,53.711,39.551,89.844,39.551,0
1507344882.769,95.703,39.062,27.344,81.055,32.715,0
1507344882.773,86.426,42.969,41.016,76.660,54.688,0
1507344882.777,92.773,53.711,34.180,74.219,33.691,0
1507344882.781,97.168,47.363,20.508,69.336,-15.137,0
1507344882.785,100.586,49.316,47.852,77.148,8.301,0
1507344882.789,93.750,46.387,59.082,79.590,25.879,0
1507344882.793,75.684,33.203,49.316,69.336,-11.719,0
1507344882.796,69.824,41.504,44.434,67.871,-29.785,0
1507344882.800,73.730,52.246,35.645,65.430,-19.531,0
1507344882.804,72.754,46.387,36.621,61.523,10.742,0
1507344882.808,66.895,41.016,27.832,53.711,14.160,0
1507344882.812,65.918,43.945,21.973,52.246,5.859,0
1507344882.816,68.848,48.340,23.926,55.664,26.855,0
1507344882.820,70.312,50.293,26.367,50.293,13.184,0
1507344882.824,66.895,50.293,29.785,53.711,-4.883,0
1507344882.828,62.988,41.504,14.648,52.246,19.531,0
1507344882.832,66.406,38.086,18.555,51.758,17.578,0
1507344882.836,71.289,44.922,19.531,58.594,-11.719,0
1507344882.839,80.078,50.781,28.809,62.500,16.602,0
1507344882.843,86.426,56.152,54.688,65.430,31.738,0
1507344882.847,82.520,50.293,56.641,63.965,23.926,0
1507344882.851,76.660,37.109,48.828,58.594,-14.648,0
1507344882.855,75.684,39.062,38.086,65.430,-42.969,0
1507344882.859,64.941,42.969,42.480,63.477,18.066,0
1507344882.863,57.129,44.434,41.016,59.570,57.617,0
1507344882.867,58.594,41.504,21.973,62.988,22.461,0
1507344882.871,64.941,30.273,8.301,56.641,6.348,0
1507344882.875,70.312,41.504,34.668,61.523,12.207,0
1507344882.878,62.988,53.711,54.199,65.430,40.039,0
1507344882.882,58.594,52.246,19.043,56.641,24.902,0
1507344882.886,64.941,55.664,13.672,55.664,-30.273,0
1507344882.890,65.430,46.875,28.320,58.594,-20.020,0
1507344882.894,59.570,42.480,41.504,48.828,4.395,0
1507344882.898,62.500,50.293,51.758,45.410,-9.277,0
1507344882.902,67.871,51.270,41.992,52.734,-33.691,0
1507344882.906,65.430,46.875,17.578,47.852,-14.160,0
1507344882.910,67.871,52.734,11.719,49.316,1.953,0
1507344882.914,74.707,60.059,25.391,61.035,23.926,0
1507344882.918,78.125,61.035,17.090,60.059,23.926,0
1507344882.921,79.590,61.035,5.859,50.293,12.695,0
1507344882.925,81.055,60.059,28.809,57.617,33.203,0
1507344882.929,85.449,59.082,56.641,62.500,18.066,0
1507344882.933,94.727,48.340,50.781,67.871,16.602,0
1507344882.937,98.145,45.410,23.926,68.848,20.508,0
1507344882.941,86.426,51.758,8.301,58.594,3.906,0
1507344882.945,80.566,50.293,19.043,62.500,1.953,0
1507344882.949,76.172,42.969,31.250,62.012,-18.066,0
1507344882.953,82.031,47.852,27.832,62.500,-1.953,0
1507344882.957,87.402,57.129,29.785,65.918,21.484,0
1507344882.961,79.590,55.664,42.969,60.547,4.395,0
1507344882.964,74.707,49.805,24.902,57.617,-0.488,0
1507344882.968,69.336,40.039,13.672,50.293,20.020,0
1507344882.972,70.312,48.828,31.738,46.875,-2.441,0
1507344882.976,62.988,50.781,33.203,40.527,-34.180,0
1507344882.980,57.129,42.969,33.203,34.668,-8.301,0
1507344882.984,58.594,46.875,39.551,42.969,8.789,0
1507344882.988,54.688,49.316,28.320,41.016,0.488,0
1507344882.992,49.316,42.480,10.254,36.133,-8.789,0
1507344882.996,58.105,43.945,17.578,42.969,18.066,0
1507344883.000,71.289,49.805,35.645,44.434,-2.441,0
1507344883.003,67.383,44.922,27.832,40.527,-43.945,0
1507344883.007,64.453,43.457,18.555,40.039,-29.297,0
1507344883.011,62.988,43.945,16.602,36.133,24.902,0
1507344883.015,50.781,41.992,27.344,38.086,56.641,0
1507344883.019,43.457,47.852,35.156,41.504,3.418,0
1507344883.023,47.852,45.898,25.391,37.109,-10.254,0
1507344883.027,57.617,43.945,27.344,39.062,25.391,0
1507344883.031,61.035,54.688,38.086,41.504,30.273,0
1507344883.035,53.223,53.223,31.738,39.062,-6.348,0
1507344883.039,48.340,51.270,27.832,38.086,11.230,0
1507344883.043,55.176,50.781,36.133,41.016,45.410,0
1507344883.046,62.012,44.434,33.691,41.016,22.949,0
1507344883.050,61.523,45.898,31.250,42.480,-7.324,0
1507344883.054,56.641,51.758,34.180,40.527,8.789,0
1507344883.058,48.340,51.758,41.016,38.086,47.852,0
1507344883.062,37.109,42.480,17.090,25.879,42.480,0
1507344883.066,44.434,48.828,5.371,28.809,33.691,0
1507344883.070,46.387,47.363,18.066,33.691,32.715,0
1507344883.074,43.457,49.805,15.137,27.344,6.836,0
1507344883.078,54.199,63.477,37.109,35.645,3.906,0
1507344883.082,53.223,51.270,43.945,36.133,20.020,0
1507344883.086,51.270,41.992,20.508,43.457,12.207,0
1507344883.089,38.574,39.062,7.324,34.668,18.555,0
1507344883.093,31.250,38.086,21.973,24.414,24.902,0
1507344883.097,40.527,51.758,41.504,39.062,13.672,0
1507344883.101,38.574,52.246,12.207,30.762,24.902,0
1507344883.105,49.316,49.805,15.625,27.344,15.625,0
1507344883.109,66.406,55.664,46.875,41.992,16.113,0
1507344883.113,49.316,45.898,44.922,30.762,18.555,0
1507344883.117,30.762,43.945,41.016,21.973,11.230,0
1507344883.121,32.715,36.133,38.086,25.391,-8.301,0
1507344883.125,38.086,40.527,30.273,25.879,-25.879,0
1507344883.128,42.480,51.270,19.043,31.738,16.113,0
1507344883.132,44.922,47.852,12.695,30.273,41.992,0
1507344883.136,48.340,42.969,25.391,27.832,-14.160,0
1507344883.140,37.109,34.668,38.574,24.902,0.000,0
1507344883.144,31.250,33.691,20.996,16.602,47.363,0
1507344883.148,38.574,37.109,-9.766,24.414,18.555,0
1507344883.152,41.016,41.016,15.137,35.645,10.254,0
1507344883.156,34.180,43.457,37.109,24.414,22.461,0
1507344883.160,27.344,47.363,20.508,25.879,49.316,0
1507344883.164,31.738,46.875,34.668,24.902,41.016,0
1507344883.168,37.109,45.410,46.387,26.367,28.809,0
1507344883.171,41.992,44.434,22.949,34.668,18.555,0
1507344883.175,45.898,50.781,33.203,36.133,19.531,0
1507344883.179,43.945,53.711,52.734,40.039,33.691,0
1507344883.183,44.434,44.434,38.574,39.062,6.836,0
1507344883.187,53.223,41.504,40.039,37.598,2.930,0
1507344883.191,52.246,41.504,42.969,42.969,21.484,0
1507344883.195,47.363,42.480,18.555,36.621,26.367,0
1507344883.199,45.410,39.062,15.625,29.297,18.555,0
1507344883.203,43.457,44.922,30.273,34.668,10.254,0
1507344883.207,42.969,56.641,33.203,43.457,26.367,0
1507344883.211,35.156,42.480,19.043,30.762,21.973,0
1507344883.214,32.715,43.945,10.254,25.879,1.953,0
1507344883.218,47.363,54.688,19.531,44.922,11.719,0
1507344883.222,44.922,55.664,30.273,40.527,2.930,0
1507344883.226,26.367,50.781,50.293,24.902,-13.672,0
1507344883.230,18.555,40.039,54.688,21.973,-12.207,0
1507344883.234,32.227,51.758,46.387,34.668,19.043,0
1507344883.238,25.879,45.410,3.906,29.785,33.691,0
1507344883.242,25.391,40.527,0.488,23.438,22.461,0
1507344883.246,44.434,60.547,35.156,38.086,20.996,0
1507344883.250,46.387,59.570,42.480,41.016,34.668,0
1507344883.253,43.457,50.293,51.270,35.645,22.461,0
1507344883.257,30.273,49.316,37.109,35.645,-15.137,0
1507344883.261,29.297,54.199,32.715,39.551,-20.508,0
1507344883.265,36.133,54.199,19.043,41.016,34.668,0
1507344883.269,36.621,54.199,11.719,41.016,11.230,0
1507344883.273,36.133,43.945,28.320,32.227,-38.086,0
1507344883.277,36.621,40.039,42.480,34.180,-17.090,0
1507344883.281,40.039,44.434,56.641,37.598,40.039,0
1507344883.285,43.457,41.504,60.547,37.109,46.875,0
1507344883.289,36.133,40.527,41.992,35.645,-11.719,0
1507344883.293,24.414,35.156,15.625,34.180,-26.367,0
1507344883.296,29.785,40.039,30.273,41.016,21.484,0
1507344883.300,33.203,48.340,39.551,43.457,29.297,0
1507344883.304,30.762,44.922,32.715,41.016,4.883,0
1507344883.308,34.668,49.805,39.551,45.898,14.648,0
1507344883.312,39.062,53.711,39.551,48.828,40.527,0
1507344883.316,38.086,54.688,25.391,43.945,27.832,0
1507344883.320,28.320,48.828,12.695,28.809,0.977,0
1507344883.324,30.273,41.992,6.348,23.438,25.391,0
1507344883.328,42.480,49.805,16.113,39.062,30.762,0
1507344883.332,43.945,49.805,33.203,53.223,11.719,0
1507344883.336,38.574,42.969,39.062,45.898,-21.484,0
1507344883.339,43.457,33.203,41.016,38.574,-2.441,0
1507344883.343,41.992,37.598,25.391,46.387,47.852,0
1507344883.347,41.016,44.434,13.184,42.969,46.875,0
1507344883.351,46.875,50.293,44.434,41.992,38.086,0
1507344883.355,51.758,60.547,61.523,51.270,14.648,0
1507344883.359,45.898,56.152,54.688,47.852,21.973,0
1507344883.363,40.527,49.316,39.551,41.016,20.508,0
1507344883.367,40.527,45.410,28.320,37.598,12.695,0
1507344883.371,37.598,44.434,27.832,31.250,21.484,0
1507344883.375,42.969,45.898,34.180,35.156,1.953,0
1507344883.378,41.016,40.039,34.668,37.109,22.949,1
1507344883.382,35.156,37.109,30.762,31.738,53.711,0
1507344883.386,41.992,38.574,28.320,32.715,41.992,0
1507344883.390,43.457,38.574,28.320,35.156,30.273,0
1507344883.394,34.668,34.180,25.391,27.832,10.742,0
1507344883.398,44.434,38.574,13.672,23.438,6.348,0
1507344883.402,62.988,47.363,3.418,32.227,34.180,0
1507344883.406,73.730,48.828,4.395,32.715,14.160,0
1507344883.410,75.684,51.758,29.297,30.762,-20.996,0
1507344883.414,71.289,51.270,42.480,35.156,-0.977,0
1507344883.418,65.430,43.457,25.879,37.109,31.250,0
1507344883.421,63.477,49.805,20.020,32.715,20.508,0
1507344883.425,62.500,54.199,41.992,29.785,7.324,0
1507344883.429,62.500,44.434,53.223,32.227,25.391,0
1507344883.433,56.641,42.969,47.852,34.668,47.852,0
1507344883.437,50.781,47.363,36.133,32.227,37.109,0
1507344883.441,41.992,46.387,28.809,33.203,17.090,0
1507344883.445,31.738,44.922,32.715,36.621,11.719,0
1507344883.449,37.109,42.480,35.156,40.527,27.832,0
1507344883.453,47.363,44.922,36.621,41.016,-17.090,0
1507344883.457,44.922,50.293,36.133,41.016,-27.344,0
1507344883.461,37.109,45.898,28.320,40.039,32.227,0
1507344883.464,40.527,42.480,25.391,34.668,14.160,0
1507344883.468,44.434,41.992,18.066,34.180,-22.461,0
1507344883.472,49.805,42.969,26.855,45.410,-8.789,0
1507344883.476,41.504,42.480,37.109,47.363,23.926,0
1507344883.480,39.062,36.621,26.855,41.992,25.879,0
1507344883.484,47.363,31.738,31.738,45.410,13.184,0
1507344883.488,42.969,42.480,26.367,40.039,7.812,0
1507344883.492,40.527,56.152,8.301,44.434,-0.488,0
1507344883.496,41.504,46.387,18.066,47.363,0.000,0
1507344883.500,49.805,43.945,38.574,46.875,-39.062,0
1507344883.503,47.852,51.270,43.945,46.387,-29.297,0
1507344883.507,39.551,50.293,45.898,31.250,23.438,0
1507344883.511,44.434,45.898,34.180,33.203,-2.930,0
1507344883.515,43.457,43.945,33.691,46.875,-22.949,0
1507344883.519,30.762,39.551,31.738,37.598,-9.766,0
1507344883.523,36.133,44.922,22.949,38.086,23.926,0
1507344883.527,42.480,52.734,35.156,42.969,49.805,0
1507344883.531,36.621,46.875,38.086,38.574,48.340,0
1507344883.535,33.691,41.992,34.180,38.574,24.902,0
1507344883.539,27.832,41.992,34.668,37.109,30.273,0
1507344883.543,29.785,44.922,33.691,36.621,17.090,0
1507344883.546,36.621,43.945,34.668,40.527,8.301,0
1507344883.550,41.504,41.504,32.715,42.480,23.438,0
1507344883.554,41.504,35.156,21.973,41.992,1.953,0
1507344883.558,36.621,36.133,33.203,41.992,0.488,0
1507344883.562,43.945,55.176,37.598,51.270,14.160,0
1507344883.566,38.574,48.340,10.254,44.922,34.668,0
1507344883.570,38.086,34.180,20.020,35.156,27.344,0
1507344883.574,47.363,40.527,41.016,40.039,0.000,0
1507344883.578,46.387,46.875,35.645,42.969,6.348,0
1507344883.582,46.387,45.898,21.973,41.992,52.734,0
1507344883.586,46.387,49.316,14.160,41.016,51.758,0
1507344883.589,40.527,50.781,29.785,41.016,27.832,0
1507344883.593,36.621,47.363,43.945,42.480,23.438,0
1507344883.597,38.574,44.434,41.992,39.062,45.410,0
1507344883.601,39.062,43.457,50.293,35.645,38.574,0
1507344883.605,34.180,42.969,46.875,32.715,-45.898,0
1507344883.609,33.691,45.410,16.602,29.297,-33.203,0
1507344883.613,34.180,33.691,-0.977,29.297,43.945,0
1507344883.617,42.480,41.016,17.090,35.645,0.000,0
1507344883.621,39.551,50.781,20.020,30.762,-36.133,0
1507344883.625,30.273,42.969,25.391,26.367,0.000,0
1507344883.628,31.250,42.969,13.184,29.297,2.930,0
1507344883.632,39.062,42.480,10.742,29.297,38.574,0
1507344883.636,39.062,40.039,43.945,22.461,23.438,0
1507344883.640,39.551,41.504,49.805,19.043,0.488,0
1507344883.644,46.875,43.945,50.781,36.621,5.371,0
1507344883.648,40.039,32.715,40.527,35.156,-7.324,0
1507344883.652,40.527,41.016,19.043,31.250,-22.461,0
1507344883.656,41.992,48.340,20.508,35.156,0.977,0
1507344883.660,37.109,36.621,32.715,30.762,16.113,0
1507344883.664,41.016,38.574,34.180,33.203,-10.254,0
1507344883.668,45.410,47.363,8.789,30.273,-11.719,0
1507344883.671,42.480,36.133,9.766,22.461,-1.465,0
1507344883.675,42.480,41.992,22.461,31.250,-10.742,0
1507344883.679,41.016,60.059,18.066,39.062,0.977,0
1507344883.683,38.086,53.711,26.367,34.180,17.090,0
1507344883.687,37.598,46.387,51.758,31.250,0.488,0
1507344883.691,43.457,36.621,45.898,32.715,0.488,0
1507344883.695,55.664,39.551,30.273,38.086,-19.531,0
1507344883.699,50.293,47.363,41.504,37.109,-18.066,0
1507344883.703,39.062,42.969,44.434,27.344,2.930,0
1507344883.707,40.039,35.156,35.156,24.414,-5.859,0
1507344883.711,41.016,29.785,19.043,16.602,22.461,0
1507344883.714,47.852,44.922,26.855,17.090,24.414,0
1507344883.718,51.270,53.711,33.691,29.297,1.465,0
1507344883.722,40.527,44.434,21.484,25.391,2.441,0
1507344883.726,40.039,47.363,14.648,26.367,2.441,0
1507344883.730,34.668,42.969,18.555,24.902,6.836,0
1507344883.734,30.273,28.809,38.086,23.926,-25.391,0
1507344883.738,31.738,24.902,31.738,19.531,-55.176,0
1507344883.742,39.062,37.109,17.578,22.461,3.418,0
1507344883.746,49.316,47.363,24.902,32.227,54.199,0
1507344883.750,47.852,40.039,32.227,29.297,27.832,0
1507344883.753,48.828,38.086,44.922,29.785,-2.930,0
1507344883.757,48.828,44.922,48.340,33.691,-17.090,0
1507344883.761,47.852,44.434,24.414,36.133,21.484,0
1507344883.765,44.922,39.551,17.090,36.133,29.297,0
1507344883.769,38.574,34.180,28.320,28.809,9.766,0
1507344883.773,44.922,43.457,10.254,25.879,7.324,0
1507344883.777,40.039,46.875,0.000,22.949,7.812,0
1507344883.781,32.715,33.203,31.250,22.949,-18.555,0
1507344883.785,31.738,29.785,41.016,22.949,-5.371,0
1507344883.789,26.855,45.898,32.227,18.555,9.766,0
1507344883.793,36.133,54.199,30.273,28.320,27.344,0
1507344883.796,35.645,40.527,43.945,29.785,27.344,0
1507344883.800,34.180,35.156,50.293,24.414,-5.371,0
1507344883.804,42.480,39.062,43.945,28.809,14.160,0
1507344883.808,47.363,37.109,37.598,32.715,31.250,0
1507344883.812,44.434,37.109,25.879,23.926,13.672,0
1507344883.816,36.133,31.250,27.344,16.113,10.742,0
1507344883.820,41.504,36.133,40.039,31.738,20.996,0
1507344883.824,46.387,46.387,39.551,42.480,22.949,0
1507344883.828,36.621,49.805,25.391,34.180,-18.066,0
1507344883.832,29.785,41.016,26.855,25.879,-47.363,0
1507344883.836,38.086,43.945,40.527,25.391,-13.184,0
1507344883.839,37.598,49.316,40.527,31.250,14.648,0
1507344883.843,32.227,39.551,35.645,35.156,21.484,0
1507344883.847,39.551,41.992,41.016,39.551,4.883,0
1507344883.851,39.551,42.969,35.156,30.273,21.973,0
1507344883.855,41.504,43.945,13.672,28.320,-2.930,0
1507344883.859,54.199,46.387,15.625,40.527,-1.953,0
1507344883.863,56.152,41.016,45.898,41.016,57.129,0
1507344883.867,48.828,39.062,45.898,37.109,56.152,0
1507344883.871,48.828,39.551,42.480,35.156,8.301,0
1507344883.875,45.898,38.574,31.250,31.250,-17.578,0
1507344883.878,47.852,37.109,-3.906,34.668,13.184,0
1507344883.882,53.223,30.762,7.324,41.504,10.742,0
1507344883.886,51.270,27.344,32.715,38.574,-6.836,0
1507344883.890,45.898,32.715,35.156,39.062,-7.812,0
1507344883.894,45.898,26.367,43.457,42.480,30.273,0
1507344883.898,48.340,21.484,41.992,37.109,67.383,0
1507344883.902,45.898,24.414,35.645,33.691,27.344,0
1507344883.906,49.316,36.621,41.016,52.246,52.734,0
1507344883.910,50.781,43.945,46.387,62.988,61.523,0
1507344883.914,49.805,28.320,37.598,52.246,35.156,0
1507344883.918,55.176,26.367,32.715,51.270,13.184,0
1507344883.921,46.875,24.414,17.090,47.363,-27.832,0
1507344883.925,43.457,22.949,3.906,46.875,17.578,0
1507344883.929,54.199,28.320,32.715,47.852,24.902,0
1507344883.933,59.570,32.227,42.969,43.457,0.488,0
1507344883.937,49.316,30.762,38.574,34.668,1.953,0
1507344883.941,43.457,22.461,57.129,31.738,14.648,0
1507344883.945,42.969,16.113,48.828,30.762,29.785,0
1507344883.949,44.434,25.879,36.133,37.598,33.203,0
1507344883.953,51.270,33.691,39.551,46.387,20.020,0
1507344883.957,51.758,24.414,34.180,41.016,22.949,0
1507344883.961,47.363,22.461,27.344,41.992,51.270,0
1507344883.964,44.922,29.785,33.203,45.410,32.715,0
1507344883.968,58.594,36.133,27.344,53.223,-9.277,0
1507344883.972,62.500,36.621,-7.812,51.758,0.000,0
1507344883.976,58.594,37.109,8.789,49.805,-0.488,0
1507344883.980,50.293,32.227,38.574,47.852,-25.391,0
1507344883.984,44.922,30.273,36.133,49.805,8.789,0
1507344883.988,47.852,32.227,29.297,53.711,34.668,0
1507344883.992,51.270,24.902,32.227,46.875,-4.883,0
1507344883.996,59.082,30.762,51.758,47.363,-19.043,0
1507344884.000,54.688,31.250,42.969,48.340,-6.348,0
1507344884.003,52.246,27.832,41.504,54.199,-15.137,0
1507344884.007,54.688,35.156,45.410,53.711,-40.039,0
1507344884.011,52.246,33.691,24.414,46.387,-24.414,0
1507344884.015,50.293,34.668,5.859,40.039,33.203,0
1507344884.019,55.664,38.574,20.996,38.574,14.160,0
1507344884.023,60.059,34.180,28.320,43.945,-18.066,0
1507344884.027,57.129,32.227,27.832,41.992,-6.836,0
1507344884.031,50.781,29.785,47.852,37.598,4.395,0
1507344884.035,45.410,27.832,47.363,42.969,7.324,0
1507344884.039,41.016,25.879,40.527,41.016,8.789,0
1507344884.043,35.156,25.391,43.945,33.691,21.973,0
1507344884.046,38.086,24.902,30.762,33.691,35.645,0
1507344884.050,45.410,22.949,17.090,34.668,18.066,0
1507344884.054,45.410,24.414,26.855,35.156,14.160,0
1507344884.058,32.715,27.832,26.367,30.273,8.789,0
1507344884.062,26.855,30.273,20.508,28.809,31.250,0
1507344884.066,37.109,30.273,44.922,32.227,31.738,0
1507344884.070,35.156,23.438,47.852,35.645,-16.602,0
1507344884.074,34.668,25.879,30.762,40.527,-3.906,0
1507344884.078,42.480,36.133,23.926,37.109,4.883,0
1507344884.082,45.898,36.133,27.832,35.156,14.648,0
1507344884.086,41.992,31.250,34.668,38.574,-20.508,0
1507344884.089,43.457,38.086,26.855,45.410,-11.719,0
1507344884.093,52.734,52.734,39.062,48.828,22.949,0
1507344884.097,49.316,46.387,47.363,47.852,19.043,0
1507344884.101,40.527,27.344,32.227,39.062,16.602,0
1507344884.105,43.945,23.926,27.344,32.715,21.973,0
1507344884.109,50.781,41.016,20.508,40.039,34.180,0
1507344884.113,51.270,45.410,16.113,46.387,7.812,0
1507344884.117,44.434,39.551,35.645,46.875,2.441,0
1507344884.121,32.227,36.621,43.457,37.109,32.227,0
1507344884.125,24.902,32.227,30.762,29.785,34.180,0
1507344884.128,27.344,32.715,19.043,29.297,14.160,0
1507344884.132,30.273,37.598,27.344,30.273,-23.926,0
1507344884.136,26.855,42.480,33.203,32.227,-9.277,0
1507344884.140,22.949,41.504,34.180,29.785,15.137,0
1507344884.144,21.973,33.691,30.762,21.973,20.508,0
1507344884.148,18.066,35.645,8.789,5.859,29.785,0
1507344884.152,12.207,41.992,-5.859,1.953,15.137,0
1507344884.156,2.930,38.086,10.254,-3.418,3.906,0
1507344884.160,-9.766,42.480,10.254,-22.461,-5.371,0
1507344884.164,-9.277,49.316,7.324,-20.020,0.977,0
1507344884.168,-17.578,49.805,11.230,-22.949,32.227,0
1507344884.171,-39.551,41.504,-20.020,-40.039,20.508,0
1507344884.175,-39.551,36.621,-13.672,-40.039,-4.395,0
1507344884.179,-27.344,41.016,29.297,-35.156,48.340,0
1507344884.183,-30.762,51.270,14.160,-44.922,27.832,0
1507344884.187,-41.016,53.223,12.695,-50.781,-20.508,0
1507344884.191,-33.691,49.805,19.043,-44.434,16.602,0
1507344884.195,-20.020,62.012,-9.766,-36.621,35.156,0
1507344884.199,-24.902,60.059,-2.930,-41.504,4.883,0
1507344884.203,-19.531,55.664,9.766,-30.762,-19.531,0
1507344884.207,-13.672,48.340,36.133,-21.484,-37.109,0
1507344884.211,-21.484,36.621,21.484,-29.785,-7.812,0
1507344884.214,-10.254,48.828,-9.766,-18.066,36.621,0
1507344884.218,4.395,59.082,22.461,-5.859,11.230,0
1507344884.222,9.277,54.199,35.156,-11.230,20.996,0
1507344884.226,6.348,53.223,35.156,-9.766,48.828,0
1507344884.230,5.859,43.457,32.715,1.465,29.297,0
1507344884.234,15.137,43.457,19.531,8.301,6.348,0
1507344884.238,13.672,46.875,24.902,12.695,16.602,0
1507344884.242,12.695,33.691,22.949,12.207,14.160,0
1507344884.246,24.414,26.855,24.902,17.578,-12.695,0
1507344884.250,29.785,37.598,41.992,27.344,-18.555,0
1507344884.253,27.832,49.316,29.297,31.738,14.648,0
1507344884.257,37.598,47.363,1.465,34.180,41.992,0
1507344884.261,41.016,48.340,20.020,36.133,31.250,0
1507344884.265,45.898,52.734,48.828,38.086,14.160,0
1507344884.269,60.059,55.664,51.758,44.922,22.461,0
1507344884.273,55.176,43.457,46.387,43.945,17.578,0
1507344884.277,50.293,33.691,35.645,46.387,18.555,0
1507344884.281,57.617,41.016,47.363,56.152,47.852,0
1507344884.285,54.688,44.922,52.246,54.199,40.039,0
1507344884.289,52.246,39.551,24.902,45.410,10.742,0
1507344884.293,59.570,35.156,28.320,46.387,15.137,0
1507344884.296,58.105,35.156,55.664,47.852,24.902,0
1507344884.300,59.082,37.598,39.551,46.387,11.230,0
1507344884.304,58.594,35.645,15.625,42.480,8.789,0
1507344884.308,55.664,33.691,29.785,42.480,-1.465,0
1507344884.312,68.848,43.457,25.391,56.152,8.789,0
1507344884.316,69.336,43.945,9.277,53.711,30.762,0
1507344884.320,62.988,40.039,28.809,51.270,31.738,0
1507344884.324,56.152,41.504,42.969,48.828,-22.949,0
1507344884.328,50.781,38.086,48.828,45.410,-20.508,0
1507344884.332,60.059,37.598,44.434,54.688,34.180,0
1507344884.336,63.965,45.410,35.156,56.152,16.113,0
1507344884.339,53.223,42.480,30.273,50.293,32.227,0
1507344884.343,58.105,33.203,36.621,54.199,35.645,0
1507344884.347,70.312,38.574,58.594,61.523,36.133,0
1507344884.351,66.406,42.969,59.082,58.594,51.270,0
1507344884.355,63.965,34.180,48.340,49.805,33.691,0
1507344884.359,74.707,34.180,36.133,48.340,25.391,0
1507344884.363,79.590,43.945,25.391,49.805,16.113,0
1507344884.367,88.379,41.992,19.531,46.387,-15.625,0
1507344884.371,96.680,46.875,19.531,51.270,-21.973,0
1507344884.375,86.914,52.734,29.785,55.664,8.789,0
1507344884.378,82.520,47.852,49.316,52.246,27.832,0
1507344884.382,79.590,41.016,67.871,51.758,4.395,0
1507344884.386,75.684,44.922,75.195,57.617,-36.133,0
1507344884.390,65.918,43.457,54.688,52.246,-10.742,0
1507344884.394,56.641,32.227,24.414,53.711,22.949,0
1507344884.398,63.965,39.551,33.203,60.547,-16.113,0
1507344884.402,62.012,44.922,52.246,53.711,-24.414,0
1507344884.406,64.941,40.039,44.922,51.758,23.926,0
1507344884.410,72.754,40.527,35.645,55.664,29.785,0
1507344884.414,66.895,38.574,32.715,53.223,25.391,0
1507344884.418,67.871,43.945,36.133,54.688,29.297,0
1507344884.421,66.406,44.434,35.645,56.641,32.715,0
1507344884.425,62.500,38.574,32.227,57.129,36.621,0
1507344884.429,65.430,39.551,31.738,57.617,12.207,0
1507344884.433,55.176,34.180,46.875,48.340,5.859,0
1507344884.437,46.387,35.156,38.574,47.852,24.902,0
1507344884.441,44.922,38.086,28.809,48.828,7.812,0
1507344884.445,46.387,38.086,29.297,49.805,-19.531,0
1507344884.449,52.734,41.016,11.719,59.082,-2.930,0
1507344884.453,48.828,41.504,27.344,57.617,13.184,0
1507344884.457,40.039,39.551,48.340,45.898,0.488,0
1507344884.461,42.480,33.203,59.082,42.969,-2.441,0
1507344884.464,53.711,38.086,51.758,52.246,12.695,0
1507344884.468,47.852,37.598,38.086,49.805,23.438,0
1507344884.472,40.527,29.785,35.645,47.363,26.367,0
1507344884.476,47.852,36.133,31.250,49.316,13.672,0
1507344884.480,48.828,35.645,36.621,42.480,31.250,0
1507344884.484,52.246,37.109,30.273,46.875,38.086,0
1507344884.488,48.828,42.969,6.348,48.828,3.906,0
1507344884.492,41.992,44.434,15.625,44.922,14.648,0
1507344884.496,41.016,48.340,46.875,50.293,35.156,0
1507344884.500,38.574,39.551,50.781,47.852,22.949,0
1507344884.503,37.109,32.227,45.410,47.363,-4.395,0
1507344884.507,33.691,35.156,48.340,46.875,-14.160,0
1507344884.511,39.062,41.992,37.598,45.410,35.645,0
1507344884.515,46.875,46.387,7.812,46.875,40.039,0
1507344884.519,39.551,36.621,21.484,41.992,-14.648,0
1507344884.523,31.738,26.855,58.594,37.109,-17.578,0
1507344884.527,29.297,25.879,45.410,27.832,44.922,0
1507344884.531,37.109,34.668,46.387,35.645,35.645,0
1507344884.535,44.922,32.715,51.758,46.875,-6.348,0
1507344884.539,36.133,32.715,32.227,40.527,-4.883,0
1507344884.543,27.832,33.691,14.648,32.227,14.648,0
1507344884.546,38.086,40.039,21.973,39.062,14.648,0
1507344884.550,45.898,49.805,45.898,44.434,-21.484,0
1507344884.554,41.992,45.898,17.578,42.969,-1.465,0
1507344884.558,45.410,41.992,4.883,43.457,32.227,0
1507344884.562,40.527,38.574,33.203,36.621,24.902,0
1507344884.566,33.203,39.551,32.227,25.879,16.602,0
1507344884.570,41.016,47.852,57.129,30.762,4.395,0
1507344884.574,40.527,45.410,58.105,34.180,-2.441,0
1507344884.578,37.598,37.109,39.062,32.715,4.883,0
1507344884.582,50.293,40.039,34.668,42.480,3.418,0
1507344884.586,56.152,39.062,29.785,44.434,-7.812,0
1507344884.589,58.594,38.574,38.086,46.387,0.000,0
1507344884.593,54.199,42.480,28.320,43.945,14.160,0
1507344884.597,41.992,39.062,19.043,38.574,13.672,0
1507344884.601,38.574,42.969,43.457,38.574,-5.371,0
1507344884.605,38.086,46.875,25.879,32.227,-7.324,0
1507344884.609,31.250,34.180,16.113,24.902,-3.906,0
1507344884.613,33.691,25.391,50.781,30.273,26.367,0
1507344884.617,34.180,37.109,52.246,31.738,45.898,0
1507344884.621,35.645,43.945,43.457,33.203,23.438,0
1507344884.625,40.039,35.645,47.363,32.227,3.418,0
1507344884.628,38.086,32.227,11.719,18.066,39.551,0
1507344884.632,50.781,45.898,-14.648,34.180,58.105,2
1507344884.636,54.688,51.758,36.133,47.852,-7.812,0
1507344884.640,38.086,44.434,55.664,31.250,-26.367,0
1507344884.644,44.434,47.852,37.598,33.691,14.160,0
1507344884.648,51.758,47.852,38.574,39.551,13.184,0
1507344884.652,44.434,36.133,39.062,33.691,-11.719,0
1507344884.656,43.457,42.480,40.039,35.156,-4.395,0
1507344884.660,48.828,49.805,38.086,41.992,13.184,0
1507344884.664,50.293,37.109,33.691,38.574,-8.301,0
1507344884.668,51.758,40.527,39.551,34.180,-56.641,0
1507344884.671,51.758,41.016,47.363,38.574,-63.965,0
1507344884.675,53.711,41.016,47.363,42.969,-13.184,0
1507344884.679,53.223,45.410,47.852,40.527,8.301,0
1507344884.683,49.316,44.922,41.992,37.598,-2.930,0
1507344884.687,47.852,48.828,28.320,36.133,-6.348,0
1507344884.691,40.039,46.875,-2.441,33.691,-6.348,0
1507344884.695,28.320,39.551,-5.859,28.320,-9.766,0
1507344884.699,31.738,35.645,21.484,26.367,22.949,0
1507344884.703,42.480,39.062,20.508,31.738,23.926,0
1507344884.707,41.504,46.387,16.602,32.227,-4.395,0
1507344884.711,49.805,50.293,40.039,38.086,18.555,0
1507344884.714,59.082,45.410,45.898,41.992,10.254,0
1507344884.718,58.105,40.527,48.340,40.039,-15.137,0
1507344884.722,51.270,37.109,53.223,38.086,25.391,0
1507344884.726,45.898,38.574,52.246,39.062,37.109,0
1507344884.730,50.781,40.527,43.945,37.109,-5.371,0
1507344884.734,56.152,40.527,42.969,37.109,-26.855,0
1507344884.738,56.641,41.992,41.992,45.410,0.977,0
1507344884.742,54.688,37.109,25.391,42.969,27.832,0
1507344884.746,51.270,28.320,-8.301,40.039,-6.348,0
1507344884.750,51.758,36.133,6.836,48.340,-13.672,0
1507344884.753,54.688,41.504,46.387,47.363,20.020,0
1507344884.757,53.711,43.457,48.828,48.340,21.484,0
1507344884.761,54.688,49.805,43.457,51.758,19.043,0
1507344884.765,59.570,45.410,39.551,46.875,25.391,0
1507344884.769,67.871,42.969,36.133,53.223,0.000,0
1507344884.773,63.965,46.875,21.973,52.246,-25.391,0
1507344884.777,49.316,41.016,21.484,45.410,-4.883,0
1507344884.781,47.852,39.551,42.969,47.363,34.180,0
1507344884.785,52.246,49.316,51.270,46.875,38.574,0
1507344884.789,55.664,53.711,41.504,43.457,17.578,0
1507344884.793,53.223,49.805,38.574,42.480,14.160,0
1507344884.796,48.340,44.922,30.762,38.574,46.875,0
1507344884.800,50.781,35.156,17.090,35.645,1.953,0
1507344884.804,49.805,32.227,24.414,36.133,-22.949,0
1507344884.808,43.457,49.805,36.621,36.133,3.906,0
1507344884.812,45.898,47.852,34.668,45.898,20.508,0
1507344884.816,51.758,36.133,29.297,50.293,9.766,0
1507344884.820,54.688,46.875,44.434,40.527,-15.625,0
1507344884.824,48.340,53.223,34.668,40.039,-12.207,0
1507344884.828,41.992,46.387,24.414,42.480,8.301,0
1507344884.832,42.969,40.039,46.387,41.016,20.996,0
1507344884.836,38.574,40.527,57.129,41.504,8.789,0
1507344884.839,36.621,42.480,27.344,38.574,16.113,0
1507344884.843,34.668,35.645,-1.953,32.227,31.738,0
1507344884.847,43.945,36.621,28.320,36.133,6.836,0
1507344884.851,55.664,46.387,51.758,44.922,-12.207,0
1507344884.855,49.316,38.574,35.156,41.016,3.418,0
1507344884.859,52.734,36.621,20.996,41.016,23.926,0
1507344884.863,55.664,47.852,24.414,41.992,8.789,0
1507344884.867,62.012,54.199,43.457,47.852,-11.719,0
1507344884.871,64.453,59.570,50.781,58.105,4.395,0
1507344884.875,57.129,58.594,51.758,49.316,25.879,0
1507344884.878,52.734,47.363,45.898,39.551,11.230,0
1507344884.882,47.852,42.480,33.691,41.504,24.414,0
1507344884.886,44.434,42.480,32.715,42.969,41.992,0
1507344884.890,39.062,40.527,26.855,37.109,12.207,0
1507344884.894,44.434,39.551,21.973,34.180,23.438,0
1507344884.898,53.223,45.898,35.645,41.016,31.738,0
1507344884.902,50.781,49.316,20.996,41.992,20.996,0
1507344884.906,51.270,45.898,-1.465,41.016,8.789,0
1507344884.910,54.199,49.316,9.766,44.922,12.207,0
1507344884.914,50.781,51.270,20.020,44.922,36.621,0
1507344884.918,45.410,45.410,39.551,44.434,25.879,0
1507344884.921,41.992,38.086,53.711,45.410,-4.883,0
1507344884.925,43.457,47.363,42.480,43.457,-13.672,0
1507344884.929,49.805,46.875,45.410,45.410,21.973,0
1507344884.933,46.387,40.039,39.062,44.922,45.898,0
1507344884.937,45.410,50.781,27.832,45.898,2.441,0
1507344884.941,53.223,54.199,40.527,45.410,-8.301,0
1507344884.945,56.641,45.410,39.551,44.922,47.852,0
1507344884.949,56.641,41.016,30.273,44.434,57.617,0
1507344884.953,58.105,55.664,31.738,48.828,21.973,0
1507344884.957,58.105,63.477,20.020,53.711,0.488,0
1507344884.961,51.758,56.152,28.320,51.758,66.895,0
1507344884.964,48.828,49.316,48.340,43.945,70.312,0
1507344884.968,52.734,48.340,49.805,37.109,12.695,0
1507344884.972,51.270,54.199,46.387,38.086,8.789,0
1507344884.976,44.434,40.039,27.832,36.133,9.766,0
1507344884.980,47.852,39.551,30.273,42.480,1.465,0
1507344884.984,54.199,54.199,41.504,49.316,-5.371,0
1507344884.988,47.852,47.363,34.180,42.480,12.207,0
1507344884.992,39.551,38.086,28.320,31.250,25.391,0
1507344884.996,41.504,40.527,26.367,28.320,16.602,0
1507344885.000,44.434,46.875,17.578,32.227,-20.020,0
1507344885.003,44.434,43.457,23.926,38.574,-14.648,0
1507344885.007,38.574,45.410,30.273,40.039,21.973,0
1507344885.011,27.832,46.875,18.066,33.691,5.859,0
1507344885.015,36.621,41.016,24.902,36.133,2.930,0
1507344885.019,37.109,42.480,38.574,28.320,-3.418,0
1507344885.023,41.016,45.898,49.805,27.832,-13.184,0
1507344885.027,54.199,49.805,46.387,40.039,8.301,0
1507344885.031,52.734,49.316,45.898,37.109,4.395,0
1507344885.035,56.152,43.457,44.922,34.668,-22.949,0
1507344885.039,58.594,41.504,29.785,30.762,-13.184,0
1507344885.043,51.758,43.457,7.324,27.832,-17.578,0
1507344885.046,39.062,47.852,-10.254,31.738,-9.277,0
1507344885.050,35.645,52.246,11.719,34.180,20.508,0
1507344885.054,37.109,51.270,44.434,38.574,14.648,0
1507344885.058,37.598,45.898,52.734,40.527,0.488,0
1507344885.062,40.039,44.922,50.293,33.691,32.715,0
1507344885.066,42.480,40.039,38.574,34.180,41.016,0
1507344885.070,48.828,39.551,32.715,42.969,3.418,0
1507344885.074,47.852,42.969,39.551,44.434,1.953,0
1507344885.078,36.133,45.410,45.410,37.598,46.875,0
1507344885.082,40.039,51.758,41.016,31.738,64.453,0
1507344885.086,44.922,52.734,31.250,35.645,44.434,0
1507344885.089,44.434,53.711,19.531,35.156,-7.324,0
1507344885.093,55.664,53.223,11.719,38.086,-6.348,0
1507344885.097,51.270,47.852,25.391,35.645,33.203,0
1507344885.101,43.945,46.387,31.250,35.156,-8.301,0
1507344885.105,53.223,41.992,19.531,38.574,-23.926,0
1507344885.109,56.641,38.574,24.414,31.738,6.348,0
1507344885.113,48.828,45.410,47.363,35.645,-3.418,0
1507344885.117,42.480,50.781,56.152,38.574,13.184,0
1507344885.121,40.039,49.805,44.434,37.598,24.902,0
1507344885.125,39.062,46.387,30.273,34.668,18.555,0
1507344885.128,44.922,47.363,38.574,33.203,38.574,0
1507344885.132,49.316,51.270,41.016,38.086,52.734,3
1507344885.136,43.457,45.898,18.555,34.668,4.395,0
1507344885.140,35.156,39.551,20.996,28.320,4.395,0
1507344885.144,40.527,45.898,34.668,35.156,26.855,0
1507344885.148,43.945,42.480,29.785,37.598,0.000,0
1507344885.152,33.691,37.109,21.973,29.297,-30.273,0
1507344885.156,38.086,47.852,32.715,33.203,-20.508,0
1507344885.160,44.922,51.758,38.574,35.645,31.250,0
1507344885.164,38.574,45.410,31.738,31.250,12.207,0
1507344885.168,36.621,41.016,34.668,31.738,-10.742,0
1507344885.171,39.551,41.504,41.504,32.715,25.391,0
1507344885.175,36.133,45.898,27.344,33.691,14.648,0
1507344885.179,37.598,44.434,17.090,29.297,32.227,0
1507344885.183,37.598,41.504,17.578,32.715,48.340,0
1507344885.187,40.039,40.527,14.160,35.156,38.574,0
1507344885.191,47.852,38.574,14.160,35.156,14.160,0
1507344885.195,42.480,46.875,27.344,39.062,-29.785,0
1507344885.199,33.691,41.504,31.738,36.621,-18.066,0
1507344885.203,41.992,33.691,15.625,32.227,20.996,0
1507344885.207,42.969,39.551,40.039,30.273,59.570,0
1507344885.211,37.598,41.992,61.523,23.438,53.223,0
1507344885.214,46.875,45.410,50.781,27.344,43.457,0
1507344885.218,47.852,38.086,35.156,31.738,43.457,0
1507344885.222,39.551,35.645,31.738,24.414,13.184,0
1507344885.226,40.039,44.922,27.344,29.297,16.602,0
1507344885.230,41.992,56.641,13.672,38.574,41.504,0
1507344885.234,40.039,53.711,9.766,38.086,35.645,0
1507344885.238,39.551,51.270,26.367,37.598,-17.090,0
1507344885.242,40.039,54.688,30.762,35.156,-20.996,0
1507344885.246,45.898,44.922,16.602,28.809,52.734,0
1507344885.250,47.852,41.992,29.785,30.762,55.664,0
1507344885.253,50.293,52.246,57.129,43.457,16.113,0
1507344885.257,42.480,52.246,52.246,45.410,37.109,0
1507344885.261,40.527,43.945,46.387,45.410,83.008,0
1507344885.265,48.340,42.969,50.781,45.898,57.617,0
1507344885.269,45.898,43.945,39.062,35.645,11.230,0
1507344885.273,45.898,39.551,22.949,31.738,22.461,0
1507344885.277,42.969,42.480,20.508,33.203,38.086,0
1507344885.281,39.551,41.016,33.691,35.645,27.344,0
1507344885.285,43.457,36.133,28.809,40.527,-4.883,0
1507344885.289,47.363,48.340,9.766,38.086,3.906,0
1507344885.293,51.758,48.828,40.527,37.109,47.852,0
1507344885.296,43.945,39.551,48.340,31.250,16.602,0
1507344885.300,32.715,36.133,33.691,22.461,-17.090,0
1507344885.304,28.809,40.039,-1.465,25.879,17.090,0
1507344885.308,37.598,46.387,-10.254,39.551,53.223,0
1507344885.312,43.457,47.363,51.270,41.992,40.039,0
1507344885.316,37.598,44.434,59.570,31.738,7.324,0
1507344885.320,35.645,39.551,46.875,28.320,-19.531,0
1507344885.324,36.621,31.250,26.367,30.273,6.836,0
1507344885.328,45.410,44.434,17.090,35.645,4.395,0
1507344885.332,52.246,50.781,41.016,39.062,-1.953,0
1507344885.336,43.457,41.504,43.945,31.738,17.090,0
1507344885.339,41.992,47.363,37.598,33.203,24.902,0
1507344885.343,41.504,52.246,37.109,37.598,27.344,0
1507344885.347,33.691,43.945,31.738,31.250,38.086,0
1507344885.351,26.367,39.551,28.320,22.461,52.246,0
1507344885.355,35.645,46.387,33.203,22.949,37.598,0
1507344885.359,44.434,50.781,10.742,32.227,36.133,0
1507344885.363,35.645,46.875,4.883,28.809,25.391,0
1507344885.367,37.598,51.758,42.969,30.762,10.254,0
1507344885.371,40.039,57.617,33.691,34.668,-5.859,0
1507344885.375,40.527,54.199,13.184,26.855,-1.465,0
1507344885.378,48.828,52.734,31.738,26.367,39.551,0
1507344885.382,50.781,57.617,35.156,29.297,35.645,0
1507344885.386,51.270,53.223,42.480,34.180,1.465,0
1507344885.390,49.805,51.758,36.133,37.109,14.160,0
1507344885.394,45.410,65.430,33.203,30.273,40.527,0
1507344885.398,38.086,62.500,24.902,17.578,59.082,0
1507344885.402,34.668,54.688,9.766,16.113,26.367,0
1507344885.406,34.668,56.152,29.297,24.902,-18.066,0
1507344885.410,31.250,58.105,36.621,22.949,12.695,0
1507344885.414,36.133,60.059,29.297,22.949,23.926,0
1507344885.418,30.273,61.523,17.578,22.461,2.441,0
1507344885.421,29.785,60.547,14.648,15.137,-22.949,0
1507344885.425,40.527,65.430,20.020,19.043,24.414,0
1507344885.429,39.551,74.707,42.969,33.691,53.223,0
1507344885.433,32.715,76.660,60.059,29.297,2.441,0
1507344885.437,26.855,68.359,46.875,20.508,-5.859,0
1507344885.441,34.180,74.707,35.156,25.879,28.320,0
1507344885.445,47.363,87.891,26.367,32.715,52.734,0
1507344885.449,51.758,79.102,30.762,38.574,26.855,0
1507344885.453,49.316,75.684,26.367,37.109,-3.418,0
1507344885.457,46.875,86.914,11.230,38.086,30.273,0
1507344885.461,47.852,85.449,26.367,46.875,30.273,0
1507344885.464,54.688,80.566,45.410,47.363,3.906,0
1507344885.468,52.734,75.195,41.992,40.039,9.766,0
1507344885.472,50.293,73.730,28.320,37.598,31.738,0
1507344885.476,52.734,78.613,24.902,35.645,38.086,0
1507344885.480,53.711,75.195,34.180,34.180,-12.207,0
1507344885.484,51.270,76.172,30.762,32.227,-9.766,0
1507344885.488,47.852,75.684,22.949,31.250,0.977,0
1507344885.492,46.875,73.242,26.367,29.785,-13.184,0
1507344885.496,40.039,72.754,22.461,26.367,30.762,0
1507344885.500,44.922,71.289,21.484,31.250,49.316,0
1507344885.503,51.270,69.336,21.973,32.227,5.371,0
1507344885.507,49.316,72.266,31.250,32.715,-0.488,0
1507344885.511,50.293,80.078,36.621,31.250,25.879,0
1507344885.515,46.387,81.543,27.344,27.832,44.922,0
1507344885.519,41.504,79.102,28.809,31.738,12.695,0
1507344885.523,41.992,73.242,36.621,34.668,-9.766,0
1507344885.527,46.387,66.406,41.504,37.598,19.043,0
1507344885.531,46.387,69.824,35.156,31.738,29.297,0
1507344885.535,45.410,67.383,32.715,29.785,-1.953,0
1507344885.539,41.016,64.453,26.855,35.645,5.371,0
1507344885.543,37.109,69.824,16.602,29.297,47.852,0
1507344885.546,44.434,73.242,19.531,25.879,55.664,0
1507344885.550,51.758,72.754,17.090,29.785,41.504,0
1507344885.554,59.570,70.801,28.809,38.086,-25.879,0
1507344885.558,57.617,66.406,41.504,42.969,-28.809,0
1507344885.562,48.340,65.430,39.551,40.527,31.738,0
1507344885.566,48.340,66.406,45.410,41.504,10.742,0
1507344885.570,46.875,68.848,41.016,45.410,-15.137,0
1507344885.574,45.898,71.289,25.879,42.969,12.695,0
1507344885.578,45.898,64.453,24.902,40.527,34.668,0
1507344885.582,50.781,65.918,28.320,38.574,-4.883,0
1507344885.586,63.965,72.754,24.902,43.945,-36.133,0
1507344885.589,50.781,68.848,11.230,37.109,3.418,0
1507344885.593,32.715,64.941,20.996,25.879,16.113,0
1507344885.597,48.828,70.801,49.316,44.434,-8.301,0
1507344885.601,53.223,66.895,40.039,44.922,-22.461,0
1507344885.605,43.945,62.988,36.133,29.297,0.977,0
1507344885.609,41.504,64.453,34.180,28.809,22.949,0
1507344885.613,43.457,68.359,28.320,30.762,2.930,0
1507344885.617,46.387,69.824,39.551,28.809,-38.574,0
1507344885.621,46.875,67.383,37.109,26.855,-26.367,0
1507344885.625,42.480,63.477,23.438,26.855,30.273,0
1507344885.628,32.227,63.965,23.926,23.438,8.789,0
1507344885.632,28.320,62.012,27.832,26.855,-12.207,4
1507344885.636,37.109,60.547,27.832,35.645,14.160,0
1507344885.640,32.715,62.012,18.066,33.203,11.719,0
1507344885.644,25.879,52.734,19.531,26.855,16.602,0
1507344885.648,32.715,46.387,41.992,28.809,0.000,0
1507344885.652,31.250,53.223,39.062,29.297,-9.277,0
1507344885.656,31.738,59.570,22.949,29.785,0.977,0
1507344885.660,31.738,61.035,28.320,27.832,-8.301,0
1507344885.664,27.344,54.688,33.203,20.508,-4.883,0
1507344885.668,27.344,42.480,30.273,20.020,20.996,0
1507344885.671,31.738,49.805,31.250,28.809,-2.441,0
1507344885.675,37.598,56.152,42.969,26.855,3.906,0
1507344885.679,34.668,50.293,46.387,26.855,57.129,0
1507344885.683,33.691,55.176,41.016,30.273,31.738,0
1507344885.687,39.551,59.570,36.621,24.902,11.719,0
1507344885.691,39.551,60.547,34.668,25.879,14.648,0
1507344885.695,41.504,60.547,34.668,27.832,26.855,0
1507344885.699,37.598,57.129,33.691,25.879,34.668,0
1507344885.703,35.645,56.641,31.738,31.738,-31.738,0
1507344885.707,30.273,56.641,30.273,29.297,-53.711,0
1507344885.711,23.926,51.758,27.344,20.508,9.277,0
1507344885.714,24.902,48.340,19.531,11.719,45.410,0
1507344885.718,25.879,48.828,13.184,2.930,31.738,0
1507344885.722,17.090,47.852,10.254,1.953,25.879,0
1507344885.726,0.977,49.805,7.812,-1.953,47.363,0
1507344885.730,-8.789,48.828,9.277,-10.254,31.250,0
1507344885.734,-11.719,49.316,-12.207,-15.625,7.324,0
1507344885.738,-14.160,60.059,-8.789,-17.578,13.672,0
1507344885.742,-24.414,54.688,-12.207,-29.297,32.715,0
1507344885.746,-31.250,36.133,-21.484,-45.898,21.973,0
1507344885.750,-31.738,40.527,13.184,-46.387,-41.504,0
1507344885.753,-24.414,57.617,16.602,-37.598,-47.363,0
1507344885.757,-30.273,59.082,11.230,-47.363,6.836,0
1507344885.761,-24.414,56.152,10.254,-47.363,6.348,0
1507344885.765,-14.648,53.711,-16.602,-40.039,4.883,0
1507344885.769,-19.043,49.805,-22.949,-41.016,21.484,0
1507344885.773,-30.273,40.039,-8.301,-34.668,5.859,0
1507344885.777,-32.227,36.621,2.441,-37.109,15.137,0
1507344885.781,-27.344,32.227,1.953,-42.969,24.414,0
1507344885.785,-21.484,39.062,-1.465,-35.645,3.418,0
1507344885.789,-4.883,70.801,19.531,-14.160,4.395,0
1507344885.793,-12.695,69.824,31.250,-11.719,17.090,0
1507344885.796,-15.137,50.781,30.273,-15.137,12.207,0
1507344885.800,-16.113,47.852,13.184,-20.020,7.812,0
1507344885.804,-12.207,44.922,-4.395,-11.230,-6.348,0
1507344885.808,7.812,44.434,17.090,0.488,-2.441,0
1507344885.812,11.719,46.875,18.066,0.488,13.672,0
1507344885.816,6.836,48.340,18.555,1.465,24.414,0
1507344885.820,15.625,49.805,37.109,4.395,9.766,0
1507344885.824,30.762,62.012,33.203,20.996,14.648,0
1507344885.828,29.785,59.570,13.672,25.879,39.062,0
1507344885.832,34.668,51.270,22.949,23.926,43.457,0
1507344885.836,49.316,56.152,50.293,33.203,19.531,0
1507344885.839,43.945,53.223,35.156,35.645,11.230,0
1507344885.843,43.457,52.734,5.371,36.621,35.156,0
1507344885.847,51.758,39.551,18.066,41.992,40.039,0
1507344885.851,52.734,24.902,36.621,42.969,-3.418,0
1507344885.855,60.059,38.086,41.504,45.898,-17.090,0
1507344885.859,58.105,49.805,36.621,50.781,22.949,0
1507344885.863,53.711,54.688,19.043,53.223,25.391,0
1507344885.867,56.152,51.270,14.160,55.176,9.766,0
1507344885.871,55.176,43.945,23.926,48.340,2.930,0
1507344885.875,56.152,38.574,32.227,45.410,25.391,0
1507344885.878,67.383,41.992,37.598,54.688,27.832,0
1507344885.882,69.336,39.062,41.992,54.199,-3.418,0
1507344885.886,64.453,35.645,35.645,52.734,-24.414,0
1507344885.890,71.777,46.875,35.156,64.941,-21.484,0
1507344885.894,69.336,41.016,41.504,61.523,20.996,0
1507344885.898,67.383,34.180,29.297,58.594,7.812,0
1507344885.902,67.871,42.480,44.434,67.383,-9.766,0
1507344885.906,62.012,42.969,62.988,71.289,18.066,0
1507344885.910,64.453,42.480,44.434,70.801,24.414,0
1507344885.914,70.312,46.387,37.109,68.848,27.832,0
1507344885.918,70.801,39.551,40.039,66.406,24.414,0
1507344885.921,67.871,38.574,42.969,66.895,20.508,0
1507344885.925,60.059,40.039,38.086,57.617,17.578,0
1507344885.929,67.871,40.039,28.320,57.129,15.137,0
1507344885.933,80.566,39.551,34.180,65.918,-0.977,0
1507344885.937,72.266,43.945,45.898,68.359,8.301,0
1507344885.941,62.012,46.387,55.176,67.871,17.090,0
1507344885.945,62.500,41.504,51.758,65.430,15.137,0
1507344885.949,62.500,45.898,39.062,60.059,54.688,0
1507344885.953,64.941,43.945,37.109,64.941,37.598,0
1507344885.957,68.848,38.574,35.645,71.777,-33.691,0
1507344885.961,68.359,41.016,21.484,63.477,-9.766,0
1507344885.964,70.801,45.410,27.344,62.500,36.621,0
1507344885.968,64.941,50.781,38.086,62.988,28.809,0
1507344885.972,65.918,52.734,35.156,66.406,-11.719,0
1507344885.976,60.059,37.109,46.387,57.129,-8.789,0
1507344885.980,63.965,32.715,56.641,51.270,24.414,0
1507344885.984,75.195,43.457,50.293,54.688,17.578,0
1507344885.988,69.336,43.945,55.664,52.734,-11.719,0
1507344885.992,57.129,41.992,52.734,51.758,-2.441,0
1507344885.996,51.270,49.316,42.480,51.758,37.109,0
1507344886.000,49.805,41.992,26.367,48.828,23.438,0
1507344886.003,57.617,35.156,22.949,50.293,-7.812,0
1507344886.007,66.895,41.504,38.574,60.547,6.836,0
1507344886.011,55.176,43.457,41.016,51.758,38.086,0
1507344886.015,57.617,54.199,38.086,47.852,9.277,0
1507344886.019,66.895,56.641,20.020,58.594,-29.785,0
1507344886.023,63.477,49.316,-10.742,49.316,-10.254,0
1507344886.027,63.965,39.062,21.484,50.781,24.902,0
1507344886.031,55.664,35.156,69.824,52.734,11.719,0
1507344886.035,48.340,47.852,61.523,44.434,-26.855,0
1507344886.039,49.805,52.246,41.504,41.016,-36.133,0
1507344886.043,50.781,48.340,30.273,34.180,5.859,0
1507344886.046,53.223,45.898,28.320,30.762,15.137,0
1507344886.050,50.781,38.574,27.832,32.227,-2.930,0
1507344886.054,41.992,38.086,14.160,39.551,17.090,0
1507344886.058,50.293,51.758,20.508,42.969,18.066,0
1507344886.062,55.664,50.781,34.668,42.480,2.930,0
1507344886.066,48.340,42.480,34.180,42.969,-1.953,0
1507344886.070,60.547,46.875,45.410,48.828,-0.488,0
1507344886.074,58.105,46.387,41.992,39.551,8.789,0
1507344886.078,53.223,34.668,30.273,39.551,11.230,0
1507344886.082,55.176,40.527,47.363,54.199,17.090,0
1507344886.086,58.594,53.711,55.664,56.152,14.160,0
1507344886.089,65.430,50.781,30.273,49.316,17.090,0
1507344886.093,62.988,50.781,25.879,56.152,18.555,0
1507344886.097,62.012,54.199,24.414,55.664,-10.254,0
1507344886.101,62.988,47.852,12.207,47.363,-3.418,0
1507344886.105,64.941,44.922,22.461,41.504,18.555,0
1507344886.109,64.453,50.781,31.738,45.410,10.254,0
1507344886.113,55.176,50.781,36.133,51.270,15.137,0
1507344886.117,52.734,44.922,36.133,45.410,2.930,0
1507344886.121,57.617,44.922,41.992,50.293,3.906,0
1507344886.125,54.199,43.457,38.086,46.387,4.395,0
1507344886.128,51.758,46.875,11.230,35.156,3.418,0
1507344886.132,57.617,56.641,21.973,40.039,40.039,0
1507344886.136,48.828,49.805,50.293,32.227,8.301,5
1507344886.140,42.480,45.898,59.082,31.738,-15.625,0
1507344886.144,41.504,42.480,36.621,22.949,16.602,0
1507344886.148,38.086,42.969,32.715,20.996,43.457,0
1507344886.152,41.016,42.480,34.668,35.156,54.199,0
1507344886.156,38.086,35.645,28.809,33.203,0.488,0
1507344886.160,37.109,46.387,41.992,33.203,16.113,0
1507344886.164,39.062,48.340,34.668,31.738,36.621,0
1507344886.168,41.992,49.316,16.602,33.203,-13.672,0
1507344886.171,44.922,57.129,32.227,34.668,-20.020,0
1507344886.175,44.922,52.246,52.246,35.156,39.062,0
1507344886.179,47.852,46.875,51.758,40.527,59.570,0
1507344886.183,59.082,49.805,38.086,46.875,23.926,0
1507344886.187,61.035,50.781,27.344,43.457,7.812,0
1507344886.191,49.805,44.922,27.832,39.062,18.555,0
1507344886.195,48.340,39.551,31.250,37.598,25.879,0
1507344886.199,55.664,39.551,40.527,33.691,-23.438,0
1507344886.203,60.059,42.480,34.180,41.504,-9.277,0
1507344886.207,66.406,39.551,16.113,41.504,49.805,0
1507344886.211,68.848,47.852,3.906,28.809,36.133,0
1507344886.214,70.801,58.594,41.016,26.855,6.348,0
1507344886.218,78.125,59.082,48.828,38.086,-7.812,0
1507344886.222,70.801,57.617,27.832,33.691,-7.324,0
1507344886.226,59.570,45.410,48.340,27.344,12.207,0
1507344886.230,52.734,40.527,52.246,31.738,1.953,0
1507344886.234,52.734,47.852,42.969,35.645,-26.367,0
1507344886.238,51.270,40.527,41.016,34.668,11.230,0
1507344886.242,45.898,40.527,25.879,27.832,18.066,0
1507344886.246,51.758,57.617,14.160,38.574,7.324,0
1507344886.250,48.340,49.316,28.809,36.621,20.508,0
1507344886.253,47.363,42.969,20.508,31.738,18.066,0
1507344886.257,48.828,47.852,9.277,33.203,12.207,0
1507344886.261,37.598,44.922,24.414,29.785,22.461,0
1507344886.265,41.504,46.875,24.902,33.691,40.039,0
1507344886.269,42.480,42.969,26.855,25.879,34.180,0
1507344886.273,40.527,42.969,38.086,24.414,-8.301,0
1507344886.277,37.598,42.969,40.039,25.879,-35.645,0
1507344886.281,34.668,38.086,38.574,25.391,9.766,0
1507344886.285,42.969,47.852,40.527,37.598,7.324,0
1507344886.289,48.340,56.152,31.738,45.898,-24.902,0
1507344886.293,42.480,45.898,31.738,39.062,11.230,0
1507344886.296,36.621,37.598,45.410,34.180,33.691,0
1507344886.300,37.598,41.504,48.340,38.574,15.625,0
1507344886.304,40.039,41.504,36.133,42.480,4.395,0
1507344886.308,35.645,34.668,15.625,36.133,31.250,0
1507344886.312,25.879,34.668,3.418,24.902,50.781,0
1507344886.316,34.668,40.039,22.461,27.344,39.062,0
1507344886.320,49.316,39.551,41.016,41.016,18.555,0
1507344886.324,50.293,48.828,28.320,37.109,28.320,0
1507344886.328,42.480,49.316,18.066,30.273,32.715,0
1507344886.332,34.668,42.969,27.832,29.785,9.766,0
1507344886.336,35.645,46.387,41.016,28.809,6.348,0
1507344886.339,34.180,40.039,41.992,29.785,10.742,0
1507344886.343,27.832,39.062,36.133,27.344,36.621,0
1507344886.347,31.738,47.852,42.969,32.227,13.672,0
1507344886.351,41.504,51.758,35.645,31.738,-23.438,0
1507344886.355,41.016,52.246,20.020,28.809,13.184,0
1507344886.359,41.992,52.246,23.926,37.598,35.645,0
1507344886.363,38.574,50.293,35.156,37.598,26.855,0
1507344886.367,32.715,48.340,34.668,31.250,-0.488,0
1507344886.371,36.133,48.340,20.996,35.645,2.441,0
1507344886.375,32.227,42.480,15.137,31.738,24.902,0
1507344886.378,38.086,37.109,31.738,31.738,-16.113,0
1507344886.382,50.781,46.387,40.039,41.016,-22.949,0
1507344886.386,47.363,49.805,33.203,35.156,23.438,0
1507344886.390,37.598,45.410,39.062,24.902,31.250,0
1507344886.394,34.668,43.457,39.062,25.391,36.133,0
1507344886.398,27.344,40.039,21.484,20.508,19.043,0
1507344886.402,29.297,42.969,18.555,17.578,10.742,0
1507344886.406,38.574,44.922,28.809,29.785,35.645,0
1507344886.410,26.855,36.621,24.902,23.438,8.301,0
1507344886.414,29.297,32.715,20.508,20.996,5.371,0
1507344886.418,39.062,37.109,30.762,34.668,45.898,0
1507344886.421,40.527,50.293,38.086,34.668,25.391,0
1507344886.425,44.434,56.152,41.016,34.668,29.785,0
1507344886.429,49.316,47.363,36.621,32.715,55.664,0
1507344886.433,49.805,42.969,26.367,32.227,20.020,0
1507344886.437,41.016,42.480,20.508,30.762,-6.348,0
1507344886.441,36.133,41.504,25.391,27.344,0.000,0
1507344886.445,37.109,41.504,39.062,35.645,22.949,0
1507344886.449,38.574,44.922,36.621,43.457,18.066,0
1507344886.453,43.457,42.969,19.531,40.527,-15.137,0
1507344886.457,45.410,47.363,16.602,31.250,-41.992,0
1507344886.461,40.527,50.781,39.062,26.855,8.301,0
1507344886.464,38.574,51.758,45.898,36.621,41.504,0
1507344886.468,37.598,43.945,12.695,30.762,-15.137,0
1507344886.472,38.574,41.992,13.672,25.879,-38.574,0
1507344886.476,46.875,49.805,30.273,31.738,27.344,0
1507344886.480,46.387,47.852,38.086,31.738,28.809,0
1507344886.484,39.062,41.504,64.453,26.855,-13.672,0
1507344886.488,41.504,41.992,58.594,25.391,4.395,0
1507344886.492,42.969,35.156,28.809,21.973,8.301,0
1507344886.496,38.574,25.391,23.926,13.672,-14.160,0
1507344886.500,42.969,41.504,41.016,20.020,-57.129,0
1507344886.503,37.598,51.758,34.180,25.879,-48.828,0
1507344886.507,38.574,49.805,12.207,27.344,4.395,0
1507344886.511,45.898,51.270,15.625,27.832,22.949,0
1507344886.515,42.480,46.875,27.832,19.531,25.391,0
1507344886.519,30.762,33.203,17.090,10.742,12.695,0
1507344886.523,34.668,43.457,21.973,21.484,16.113,0
1507344886.527,41.504,48.340,42.480,26.855,45.410,0
1507344886.531,34.180,36.621,31.250,19.531,36.133,0
1507344886.535,37.598,42.480,28.809,25.879,6.836,0
1507344886.539,49.316,49.316,42.969,34.668,4.883,0
1507344886.543,44.922,45.410,37.109,31.250,1.465,0
1507344886.546,35.645,44.922,21.973,27.344,1.953,0
1507344886.550,38.574,50.781,23.926,27.344,19.043,0
1507344886.554,49.316,54.688,39.551,32.715,8.301,0
1507344886.558,52.246,50.781,43.945,33.691,-22.949,0
1507344886.562,49.805,43.457,46.875,36.621,13.184,0
1507344886.566,45.898,34.180,42.969,41.016,29.297,0
1507344886.570,46.875,32.715,26.367,36.133,-9.766,0
1507344886.574,45.898,43.457,10.254,34.668,11.719,0
1507344886.578,43.945,52.246,26.855,40.039,27.832,0
1507344886.582,49.316,57.129,29.297,44.922,17.090,0
1507344886.586,48.828,54.199,25.391,46.875,25.879,0
1507344886.589,45.898,48.828,41.504,43.457,-10.742,0
1507344886.593,37.109,45.410,37.109,34.180,-18.555,0
1507344886.597,35.645,44.434,24.902,26.855,27.344,0
1507344886.601,44.922,41.016,30.273,36.133,-3.906,0
1507344886.605,39.551,35.645,29.297,36.621,-23.438,0
1507344886.609,30.762,36.133,15.137,26.855,15.137,0
1507344886.613,33.691,33.203,-2.930,27.832,16.602,0
1507344886.617,42.480,46.387,21.973,28.320,11.230,0
1507344886.621,44.922,47.852,49.805,26.367,8.301,0
1507344886.625,43.457,43.945,52.246,27.832,15.137,0
1507344886.628,46.387,50.781,52.246,27.832,12.207,0
1507344886.632,44.434,46.875,34.668,28.320,-8.301,0
1507344886.636,39.062,45.410,25.391,29.785,-12.695,0
1507344886.640,42.480,46.387,26.367,39.551,14.160,0
1507344886.644,47.852,45.410,30.273,42.480,54.688,0
1507344886.648,45.898,41.504,31.250,34.180,17.090,0
1507344886.652,45.410,36.621,27.344,33.691,-9.766,0
1507344886.656,52.246,41.504,33.691,37.598,36.621,0
1507344886.660,48.340,43.945,25.391,40.039,41.504,0
1507344886.664,41.992,45.410,24.414,38.574,-18.066,0
1507344886.668,43.457,44.922,31.738,37.598,-24.902,0
1507344886.671,40.527,37.109,34.180,33.203,9.766,0
1507344886.675,37.598,43.457,41.992,33.203,27.832,0
1507344886.679,44.922,51.270,7.812,41.504,22.461,0
1507344886.683,47.363,52.246,-0.488,46.875,-4.883,0
1507344886.687,36.133,47.363,46.387,41.016,12.207,0
1507344886.691,30.273,37.109,52.734,35.645,21.484,0
1507344886.695,40.527,44.922,33.691,35.156,-10.742,0
1507344886.699,46.875,53.711,31.738,35.156,9.277,0
1507344886.703,41.992,43.945,36.621,30.273,53.711,0
1507344886.707,45.410,33.691,40.039,25.391,30.762,0
1507344886.711,41.504,42.480,42.480,26.367,0.488,0
1507344886.714,40.039,52.246,15.137,31.250,7.812,0
1507344886.718,44.434,46.875,2.930,33.691,18.066,0
1507344886.722,35.156,40.527,35.156,32.715,32.715,0
1507344886.726,38.574,46.875,44.434,34.668,30.762,0
1507344886.730,47.363,53.223,36.133,41.992,10.742,0
1507344886.734,38.574,45.410,27.832,31.250,24.902,0
1507344886.738,42.480,43.457,31.738,26.367,6.836,0
1507344886.742,55.664,51.270,38.086,39.062,12.207,0
1507344886.746,49.805,51.758,33.203,37.598,60.059,0
1507344886.750,47.363,49.805,28.809,36.133,17.578,0
1507344886.753,45.410,49.316,18.066,30.273,-21.973,0
1507344886.757,40.527,47.363,20.508,27.344,11.230,0
1507344886.761,40.039,45.410,33.691,37.598,62.012,0
1507344886.765,43.945,51.758,16.602,40.039,40.039,0
1507344886.769,43.457,51.758,-8.789,38.574,33.203,0
1507344886.773,41.992,46.875,17.090,38.086,32.715,0
1507344886.777,40.527,42.480,43.457,31.738,24.902,0
1507344886.781,42.480,46.387,41.504,37.109,51.270,0
1507344886.785,44.922,47.852,28.320,43.457,0.488,0
1507344886.789,47.363,34.180,33.691,41.016,7.324,0
1507344886.793,55.176,30.762,34.180,40.039,41.504,0
1507344886.796,48.340,46.387,16.602,30.762,11.719,0
1507344886.800,41.504,57.617,37.109,29.785,15.137,0
1507344886.804,30.762,57.129,38.086,31.250,4.395,0
1507344886.808,21.484,53.223,42.480,26.855,17.578,0
1507344886.812,20.020,45.898,55.176,24.902,20.508,0
1507344886.816,26.855,47.852,43.457,28.809,-9.277,0
1507344886.820,33.203,41.504,25.391,27.832,-14.160,0
1507344886.824,37.598,41.504,27.344,30.273,-21.484,0
1507344886.828,55.176,55.176,40.527,43.945,-0.488,0
1507344886.832,56.641,53.223,37.598,39.551,17.578,0
1507344886.836,47.852,46.387,19.531,37.109,28.809,0
1507344886.839,42.969,42.480,18.066,35.156,37.109,0
1507344886.843,41.504,45.410,36.133,29.785,-2.930,0
1507344886.847,42.480,50.293,41.016,31.250,-36.621,0
1507344886.851,38.574,47.363,21.484,28.320,-3.906,0
1507344886.855,40.039,43.945,12.207,30.273,12.207,0
1507344886.859,41.504,43.945,37.109,30.273,27.344,0
1507344886.863,32.227,41.992,25.879,17.578,12.207,0
1507344886.867,25.391,33.203,-4.883,16.602,-4.395,0
1507344886.871,37.598,35.645,25.391,41.016,-4.883,0
1507344886.875,39.551,43.945,54.688,36.621,15.137,0
1507344886.878,34.668,48.340,52.734,24.902,46.875,0
1507344886.882,41.504,48.828,53.223,30.762,30.762,0
1507344886.886,45.898,48.828,41.992,28.320,-6.348,0
1507344886.890,41.992,51.270,31.250,30.762,18.555,0
1507344886.894,41.992,44.922,30.273,36.133,36.133,0
1507344886.898,40.527,42.969,31.250,30.762,23.926,0
1507344886.902,32.715,41.992,26.367,20.508,0.488,0
1507344886.906,36.133,42.480,34.180,29.297,-34.180,0
1507344886.910,38.574,39.551,20.020,32.227,16.113,0
1507344886.914,34.180,40.039,-6.348,20.996,27.832,0
1507344886.918,38.574,45.898,6.836,18.066,-4.883,0
1507344886.921,36.133,30.273,7.324,17.578,1.465,0
1507344886.925,39.551,25.391,24.414,27.832,30.273,0
1507344886.929,46.387,45.898,40.039,38.086,38.574,0
1507344886.933,42.480,47.363,32.227,28.809,3.906,0
1507344886.937,45.898,45.898,45.898,27.344,-11.230,0
1507344886.941,48.828,53.223,50.293,37.109,42.969,0
1507344886.945,42.969,49.316,33.691,37.109,65.430,0
1507344886.949,36.133,41.504,29.297,29.297,38.086,0
1507344886.953,39.062,48.828,17.578,30.273,22.949,0
1507344886.957,36.621,45.898,11.230,27.832,28.320,0
1507344886.961,31.250,40.039,34.668,25.391,29.785,0
1507344886.964,28.320,35.156,38.574,27.832,-7.812,0
1507344886.968,33.203,40.039,35.156,31.250,-20.508,0
1507344886.972,36.621,47.363,37.598,28.809,38.574,0
1507344886.976,41.504,49.316,37.598,31.250,32.715,0
1507344886.980,45.898,46.875,37.598,33.691,-6.836,0
1507344886.984,40.527,34.180,23.438,24.902,-7.324,0
1507344886.988,58.105,43.457,33.203,38.086,15.625,0
1507344886.992,62.012,55.176,48.340,40.527,17.090,0
1507344886.996,41.992,50.293,38.574,28.809,3.906,0
1507344887.000,44.922,44.922,20.508,33.203,17.578,0
1507344887.003,43.457,40.039,-10.254,31.250,20.996,0
1507344887.007,41.504,47.363,22.949,23.438,13.184,0
1507344887.011,41.016,51.270,26.855,22.949,26.855,0
1507344887.015,38.086,49.805,-0.977,26.855,44.434,0
1507344887.019,38.086,52.246,34.668,25.879,30.273,0
1507344887.023,33.691,55.176,55.176,24.414,19.531,0
1507344887.027,33.691,45.410,58.594,20.020,58.594,0
1507344887.031,33.691,37.109,29.297,15.625,45.410,0
1507344887.035,33.691,44.922,14.160,22.949,16.113,0
1507344887.039,36.133,49.316,41.504,27.344,14.648,0
1507344887.043,39.551,56.152,39.551,35.156,40.527,0
1507344887.046,42.480,55.176,16.113,34.668,40.039,0
1507344887.050,44.434,44.434,1.953,36.133,17.090,0
1507344887.054,39.062,36.621,0.000,35.156,16.113,0
1507344887.058,37.109,47.363,23.438,31.738,51.270,0
1507344887.062,42.480,56.152,56.152,33.691,41.504,0
1507344887.066,39.062,45.410,49.316,27.832,-16.602,0
1507344887.070,40.039,46.875,28.320,31.250,-25.391,0
1507344887.074,47.363,54.199,29.785,36.133,11.719,0
1507344887.078,49.316,55.176,33.203,30.273,11.230,0
1507344887.082,50.781,49.316,36.133,30.273,-21.484,0
1507344887.086,44.922,44.922,29.297,26.855,-26.367,0
1507344887.089,42.969,45.410,19.043,21.973,-2.441,0
1507344887.093,49.805,49.805,19.043,30.273,29.785,0
1507344887.097,47.852,51.758,31.250,35.645,16.602,0
1507344887.101,43.945,47.852,32.227,32.715,-12.695,0
1507344887.105,48.340,46.875,28.320,36.621,1.465,0
1507344887.109,38.574,44.922,13.184,31.738,15.625,0
1507344887.113,36.621,51.270,-14.160,21.484,9.766,0
1507344887.117,52.246,57.129,-3.418,26.367,-8.301,0
1507344887.121,43.457,44.434,25.879,14.648,-9.766,0
1507344887.125,34.668,38.574,26.855,9.766,15.137,0
1507344887.128,44.922,36.133,41.992,22.949,21.484,0
1507344887.132,49.316,37.598,37.109,25.391,-4.395,0
1507344887.136,47.363,54.199,17.090,23.438,-9.277,0
1507344887.140,42.480,56.152,24.902,25.391,-21.484,0
1507344887.144,38.086,48.828,24.414,13.672,-40.527,0
1507344887.148,40.039,47.852,22.461,11.230,-37.598,0
1507344887.152,49.805,45.410,25.391,23.926,-41.504,0
1507344887.156,54.199,43.457,14.160,26.367,-51.270,0
1507344887.160,48.828,40.527,3.906,25.879,-53.711,0
1507344887.164,38.574,37.598,-9.277,19.043,-32.227,0
1507344887.168,39.062,50.293,7.812,18.555,-40.527,0
1507344887.171,43.457,52.734,49.805,26.367,-48.340,0
1507344887.175,38.086,46.387,50.781,25.391,-9.277,0
1507344887.179,39.062,44.434,38.086,18.555,-6.348,0
1507344887.183,41.016,48.340,35.645,18.555,-27.344,0
1507344887.187,25.391,45.410,21.973,14.648,-17.578,0
1507344887.191,28.320,40.039,20.996,13.672,-12.695,0
1507344887.195,41.016,42.969,44.434,20.020,16.602,0
1507344887.199,36.621,40.527,41.016,10.742,6.348,0
1507344887.203,42.480,46.875,34.180,7.812,-30.762,0
1507344887.207,49.805,48.828,16.113,9.277,-31.250,0
1507344887.211,49.316,44.922,-12.695,8.301,14.160,0
1507344887.214,43.945,49.316,17.090,3.418,15.137,0
1507344887.218,49.316,47.363,44.434,6.348,-42.480,0
1507344887.222,53.711,35.645,25.391,7.324,-33.691,0
1507344887.226,44.922,41.992,16.602,1.465,6.836,0
1507344887.230,47.852,51.758,33.691,10.742,23.438,0
1507344887.234,44.922,48.340,48.828,18.555,1.953,0
1507344887.238,36.621,46.875,39.062,15.137,-3.418,0
1507344887.242,42.969,46.387,24.414,17.090,4.883,0
1507344887.246,53.223,48.340,4.395,21.973,12.695,0
1507344887.250,51.270,47.852,-8.789,22.461,-14.648,0
1507344887.253,54.199,50.293,27.832,25.879,-27.832,0
1507344887.257,52.246,44.922,40.039,20.996,22.949,0
1507344887.261,52.246,43.945,29.297,18.555,8.301,0
1507344887.265,55.664,51.758,28.320,26.855,-13.184,0
1507344887.269,52.246,49.805,18.066,32.715,17.090,0
1507344887.273,55.664,48.340,17.578,33.691,34.668,0
1507344887.277,53.223,46.875,27.832,30.273,5.859,0
1507344887.281,52.734,42.969,26.367,30.762,-11.230,0
1507344887.285,49.316,42.969,25.391,29.785,16.113,0
1507344887.289,44.922,47.852,34.668,29.297,35.645,0
1507344887.293,50.781,50.293,34.668,32.715,2.930,0
1507344887.296,46.875,45.898,28.320,28.809,-36.621,0
1507344887.300,34.180,48.340,34.668,21.973,9.277,0
1507344887.304,30.762,44.922,28.320,25.391,14.160,0
1507344887.308,25.391,39.062,10.742,28.320,17.578,0
1507344887.312,26.855,43.945,13.672,21.973,28.809,0
1507344887.316,30.273,47.363,22.949,23.926,10.254,0
1507344887.320,29.785,50.781,30.762,31.738,-14.648,0
1507344887.324,34.180,50.293,31.738,34.180,-20.020,0
1507344887.328,41.992,49.805,28.320,34.180,-1.465,0
1507344887.332,42.969,44.922,13.184,34.180,25.879,0
1507344887.336,37.598,40.527,13.184,24.902,7.812,0
1507344887.339,37.598,52.734,39.062,16.602,-35.645,0
1507344887.343,31.250,57.129,12.207,8.789,-7.324,0
1507344887.347,35.645,51.758,-1.953,7.324,32.227,0
1507344887.351,44.922,52.246,33.203,20.508,1.465,0
1507344887.355,38.086,52.734,41.016,19.043,-12.207,0
1507344887.359,33.203,50.781,30.273,9.277,22.949,0
1507344887.363,40.039,50.781,29.297,10.742,39.062,0
1507344887.367,47.363,49.316,43.457,15.625,22.461,0
1507344887.371,48.340,46.875,43.457,16.602,13.672,0
1507344887.375,53.711,44.922,41.504,17.578,42.480,0
1507344887.378,48.340,42.480,36.621,19.531,54.199,0
1507344887.382,41.016,45.898,26.855,12.695,28.320,0
1507344887.386,38.086,55.664,34.668,20.020,16.113,0
1507344887.390,35.156,57.617,24.414,22.949,6.836,0
1507344887.394,34.180,49.316,10.742,9.766,14.160,0
1507344887.398,38.086,48.828,22.949,13.672,2.441,0
1507344887.402,44.434,55.176,35.156,16.602,-11.719,0
1507344887.406,41.504,54.199,38.574,15.137,20.020,0
1507344887.410,37.109,56.152,33.691,20.996,51.270,0
1507344887.414,32.227,55.176,25.879,22.461,16.113,0
1507344887.418,29.785,52.734,23.438,19.043,-18.555,0
1507344887.421,28.320,46.875,28.320,12.207,13.672,0
1507344887.425,25.391,37.598,26.367,10.742,22.461,0
1507344887.429,29.785,40.039,20.020,12.207,2.930,0
1507344887.433,31.738,48.340,16.113,17.090,35.645,0
1507344887.437,34.180,46.387,7.812,17.090,50.293,0
1507344887.441,43.457,47.852,18.066,13.672,25.879,0
1507344887.445,44.434,54.688,29.297,12.207,33.203,0
1507344887.449,40.039,53.711,23.926,16.602,38.086,0
1507344887.453,38.574,49.805,25.391,20.508,24.414,0
1507344887.457,38.086,48.828,20.508,14.648,4.395,0
1507344887.461,40.527,48.340,18.555,17.090,-14.160,0
1507344887.464,43.457,48.828,27.832,26.367,22.949,0
1507344887.468,43.457,44.434,44.434,25.879,30.762,0
1507344887.472,36.621,36.621,3.906,21.973,15.137,0
1507344887.476,44.434,46.387,-34.180,26.855,2.441,0
1507344887.480,50.781,57.617,24.902,35.156,13.184,0
1507344887.484,44.922,59.082,62.988,36.133,20.020,0
1507344887.488,39.062,54.199,62.012,25.391,-7.324,0
1507344887.492,35.645,51.758,53.223,21.973,5.859,0
1507344887.496,40.039,50.781,43.945,29.297,47.852,0
1507344887.500,41.992,49.805,38.574,28.809,59.570,0
1507344887.503,38.086,51.758,28.320,30.273,15.137,0
1507344887.507,40.527,47.852,22.461,30.273,3.906,0
1507344887.511,52.246,51.270,25.879,30.762,61.523,0
1507344887.515,54.199,51.758,27.832,32.715,49.805,0
1507344887.519,46.875,45.410,25.879,29.785,11.719,0
1507344887.523,44.922,46.387,32.227,25.879,8.301,0
1507344887.527,41.504,48.340,33.691,19.531,18.555,0
1507344887.531,44.922,56.641,37.109,22.461,0.977,0
1507344887.535,49.316,60.059,33.691,31.250,-45.898,0
1507344887.539,50.293,53.711,25.391,31.250,-10.254,0
1507344887.543,48.340,53.223,33.691,29.785,33.203,0
1507344887.546,43.457,55.176,36.133,29.785,17.578,0
1507344887.550,46.387,56.641,31.738,26.367,21.973,0
1507344887.554,45.898,54.199,28.320,21.973,21.973,0
1507344887.558,35.156,50.293,24.902,13.672,29.785,0
1507344887.562,26.367,51.758,25.879,12.207,41.504,0
1507344887.566,30.273,55.664,16.602,14.160,51.758,0
1507344887.570,26.367,60.059,3.906,13.184,36.133,0
1507344887.574,9.766,53.223,10.254,4.395,12.207,0
1507344887.578,7.812,42.480,13.672,-1.953,-7.812,0
1507344887.582,10.254,59.082,2.441,0.488,0.000,0
1507344887.586,0.488,62.012,-30.273,-5.371,35.156,0
1507344887.589,-9.277,45.898,-52.734,-11.230,30.762,0
1507344887.593,-1.465,49.316,-5.859,-11.719,11.230,0
1507344887.597,-3.418,58.105,25.879,-13.672,17.578,0
1507344887.601,-10.742,54.688,28.809,-11.719,36.621,0
1507344887.605,-16.113,55.664,39.551,-18.066,9.277,0
1507344887.609,-20.020,67.383,32.227,-20.508,5.371,0
1507344887.613,-20.020,56.152,14.160,-20.996,27.832,0
1507344887.617,-16.113,54.199,-3.418,-17.090,27.832,0
1507344887.621,-13.672,56.641,-13.672,-18.066,20.508,0
1507344887.625,-14.160,52.734,-5.371,-17.090,14.648,0
1507344887.628,-1.465,65.918,8.301,-2.441,35.645,0
1507344887.632,2.441,65.430,29.297,-4.395,52.734,0
1507344887.636,-8.789,53.223,44.434,-13.184,26.855,0
1507344887.640,-8.301,49.316,24.902,-8.789,18.555,0
1507344887.644,-4.395,48.828,16.602,-6.836,46.387,0
1507344887.648,-0.977,50.781,39.551,-7.324,46.875,0
1507344887.652,-0.977,47.363,24.902,-6.836,38.086,0
1507344887.656,-12.695,40.527,-21.484,-5.859,23.438,0
1507344887.660,-19.043,34.180,-10.254,-5.859,54.199,0
1507344887.664,-11.719,37.598,14.648,-6.836,57.617,0
1507344887.668,-2.441,50.293,18.066,0.977,-4.395,0
1507344887.671,3.418,44.922,36.621,9.277,-25.391,0
1507344887.675,2.441,42.480,38.574,10.742,16.113,0
1507344887.679,1.465,49.805,28.809,14.160,21.973,0
1507344887.683,5.859,48.340,8.301,16.113,-5.371,0
1507344887.687,7.812,45.410,1.953,18.066,-10.742,0
1507344887.691,8.789,38.574,24.902,10.742,6.836,0
1507344887.695,8.301,41.504,37.109,7.324,25.879,0
1507344887.699,1.465,34.180,23.438,5.371,0.000,0
1507344887.703,6.348,28.809,13.184,8.789,-11.230,0
1507344887.707,20.996,38.086,-4.883,16.602,12.207,0
1507344887.711,19.531,40.527,13.672,16.113,20.020,0
1507344887.714,14.160,42.969,49.805,18.555,25.391,0
1507344887.718,15.625,40.039,44.922,18.555,20.508,0
1507344887.722,20.996,36.133,42.969,21.484,30.273,0
1507344887.726,25.879,37.109,38.574,28.809,48.828,0
1507344887.730,22.949,38.574,39.062,28.809,11.230,0
1507344887.734,23.926,42.969,23.438,30.273,-2.930,0
1507344887.738,31.738,41.016,9.277,36.621,25.391,0
1507344887.742,33.691,36.133,28.809,37.109,2.441,0
1507344887.746,33.691,36.621,25.879,32.715,17.090,0
1507344887.750,34.180,40.527,12.695,33.203,33.203,0
1507344887.753,29.785,35.645,20.508,35.156,21.484,0
1507344887.757,25.879,30.762,35.156,34.668,25.391,0
1507344887.761,33.203,37.598,46.387,36.621,8.789,0
1507344887.765,37.598,40.039,34.180,39.062,9.766,0
1507344887.769,37.109,40.527,16.602,39.551,12.207,0
1507344887.773,35.156,44.922,28.320,34.668,-2.930,0
1507344887.777,26.367,48.340,52.246,29.297,1.953,0
1507344887.781,20.020,44.434,46.387,28.320,7.324,0
1507344887.785,29.785,42.969,41.992,39.551,7.324,0
1507344887.789,30.762,40.527,41.504,39.551,14.160,0
1507344887.793,17.578,30.762,22.461,21.484,33.203,0
1507344887.796,25.879,45.898,16.113,31.738,57.129,0
1507344887.800,36.133,48.828,28.320,39.062,23.438,0
1507344887.804,36.621,39.062,36.621,30.273,-21.484,0
1507344887.808,38.574,40.527,22.461,36.133,14.648,0
1507344887.812,33.691,41.016,18.555,38.086,32.227,0
1507344887.816,27.344,46.387,20.020,32.715,20.508,0
1507344887.820,24.414,48.828,17.090,26.855,-7.812,0
1507344887.824,23.438,51.758,19.043,29.785,17.578,0
1507344887.828,25.879,46.875,18.066,29.297,76.172,0
1507344887.832,19.531,36.133,35.645,11.719,41.992,0
1507344887.836,20.020,41.016,38.086,19.043,-5.859,0
1507344887.839,18.066,43.945,49.316,25.391,15.137,0
1507344887.843,-2.930,36.621,50.781,3.906,21.973,0
1507344887.847,4.395,41.016,44.434,3.906,30.762,0
1507344887.851,18.555,44.922,35.645,20.508,3.906,0
1507344887.855,17.090,44.922,16.113,20.020,-29.297,0
1507344887.859,23.438,36.133,22.949,20.508,-21.484,0
1507344887.863,19.531,22.949,14.648,10.742,5.371,0
1507344887.867,20.020,41.992,6.836,7.324,19.531,0
1507344887.871,16.113,50.781,-0.488,7.324,1.953,0
1507344887.875,2.930,39.062,10.742,2.930,6.348,0
1507344887.878,-7.812,31.250,41.016,-2.441,7.812,0
1507344887.882,-9.766,34.180,19.531,-4.395,-15.137,0
1507344887.886,-9.277,34.180,7.812,-4.395,12.207,0
1507344887.890,-4.883,36.621,20.508,-4.395,33.203,0
1507344887.894,7.324,38.086,13.184,6.836,-0.977,0
1507344887.898,14.160,30.273,16.602,10.254,8.789,0
1507344887.902,3.418,24.902,5.859,3.418,11.719,0
1507344887.906,-2.930,39.551,-0.488,11.719,25.879,0
1507344887.910,4.395,49.805,14.648,16.113,45.898,0
1507344887.914,14.648,39.062,17.578,16.602,47.363,0
1507344887.918,10.742,28.320,28.320,14.160,33.203,0
1507344887.921,12.207,32.715,50.293,12.207,30.762,0
1507344887.925,10.742,34.668,41.016,6.348,19.043,0
1507344887.929,8.789,33.691,25.879,7.324,25.879,0
1507344887.933,9.277,31.738,13.672,11.719,24.902,0
1507344887.937,1.465,32.715,-12.207,1.953,17.090,0
1507344887.941,14.648,42.480,-11.230,9.277,29.785,0
1507344887.945,26.855,46.875,17.090,20.020,60.547,0
1507344887.949,21.484,41.992,31.738,17.090,60.059,0
1507344887.953,18.555,37.109,26.367,14.648,17.090,0
1507344887.957,17.578,34.668,32.715,20.020,3.906,0
1507344887.961,25.391,33.691,38.086,23.926,43.457,0
1507344887.964,32.715,35.156,15.137,22.949,49.805,0
1507344887.968,22.949,31.250,20.996,19.531,10.742,0
1507344887.972,24.414,22.461,28.809,21.973,30.273,0
1507344887.976,30.273,24.414,0.977,20.508,62.988,0
1507344887.980,32.227,36.621,15.625,17.090,40.039,0
1507344887.984,32.715,44.434,31.738,29.297,30.762,0
1507344887.988,25.879,35.645,-0.977,29.785,29.297,0
1507344887.992,28.809,25.391,11.719,19.043,41.016,0
1507344887.996,23.926,32.227,30.273,11.230,46.387,0
1507344888.000,21.484,38.574,44.434,11.230,4.395,0
1507344888.003,30.762,39.062,45.898,11.230,-1.953,0
1507344888.007,36.621,37.109,28.809,8.301,21.484,0
1507344888.011,40.527,29.785,33.203,8.301,44.434,0
1507344888.015,41.992,33.691,41.504,8.789,20.996,0
1507344888.019,31.738,38.086,14.160,5.371,-8.301,0
1507344888.023,28.809,35.156,-8.301,2.441,-0.488,0
1507344888.027,38.574,29.297,13.672,11.719,35.156,0
1507344888.031,31.738,23.438,14.160,9.277,40.039,0
1507344888.035,25.391,27.344,13.184,5.859,41.016,0
1507344888.039,29.785,32.715,20.508,16.602,39.551,0
1507344888.043,30.273,30.273,20.020,24.414,28.809,0
1507344888.046,24.902,19.043,13.184,21.973,-12.207,0
1507344888.050,25.879,19.043,25.391,22.461,-13.184,0
1507344888.054,41.016,41.992,35.645,34.180,23.926,0
1507344888.058,41.016,42.480,26.367,38.086,23.438,0
1507344888.062,35.645,34.668,28.320,38.574,33.203,0
1507344888.066,36.133,38.574,16.602,35.156,31.250,0
1507344888.070,38.086,37.598,23.926,34.180,22.461,0
1507344888.074,31.738,18.066,33.203,31.738,29.785,0
1507344888.078,33.691,23.438,31.250,37.598,29.785,0
1507344888.082,43.945,40.527,40.039,48.340,31.250,0
1507344888.086,39.062,34.180,40.527,45.898,28.320,0
1507344888.089,33.691,30.273,30.762,37.109,-12.207,0
1507344888.093,37.598,30.762,28.320,40.039,15.137,0
1507344888.097,40.527,24.902,20.020,51.270,43.945,0
1507344888.101,35.645,25.879,16.602,47.852,7.324,0
1507344888.105,41.504,40.039,27.832,49.316,3.906,0
1507344888.109,47.852,45.410,14.648,56.152,24.414,0
1507344888.113,37.109,30.762,14.648,49.805,22.949,0
1507344888.117,30.273,21.484,48.828,49.805,-12.695,0
1507344888.121,28.809,29.785,53.711,51.270,-20.508,0
1507344888.125,27.344,26.855,32.715,45.898,28.809,0
1507344888.128,37.109,24.902,-4.883,53.223,74.707,0
1507344888.132,47.852,37.598,-1.953,65.918,39.062,0
1507344888.136,43.457,41.016,50.293,60.547,-5.371,0
1507344888.140,43.457,45.410,40.527,57.617,18.066,0
1507344888.144,49.316,50.781,20.020,60.059,26.367,0
1507344888.148,47.852,37.598,46.875,53.711,22.949,0
1507344888.152,48.340,32.715,55.176,56.641,15.137,0
1507344888.156,48.340,32.715,50.293,56.641,20.020,0
1507344888.160,48.828,35.645,24.902,54.199,35.156,0
1507344888.164,50.781,37.598,7.324,55.664,0.488,0
1507344888.168,55.176,38.086,26.367,56.641,-24.414,0
1507344888.171,51.758,39.551,32.715,47.363,5.371,0
1507344888.175,55.664,41.992,34.668,46.875,19.531,0
1507344888.179,49.805,38.574,34.668,48.340,-8.789,0
1507344888.183,45.898,34.668,25.391,47.363,-38.574,0
1507344888.187,62.012,32.715,27.832,47.363,-32.715,0
1507344888.191,69.336,38.086,41.504,48.828,4.395,0
1507344888.195,65.430,44.434,50.293,49.805,-21.484,0
1507344888.199,60.547,41.504,49.316,50.293,-36.133,0
1507344888.203,57.617,39.062,40.527,49.805,5.859,0
1507344888.207,57.129,36.621,15.137,44.922,9.766,0
1507344888.211,57.129,39.551,22.949,46.875,11.719,0
1507344888.214,52.734,33.691,37.109,49.316,19.043,0
1507344888.218,58.105,31.738,17.578,57.617,30.762,0
1507344888.222,64.453,38.574,9.766,53.223,19.043,0
1507344888.226,63.965,40.527,20.996,46.387,13.672,0
1507344888.230,70.801,43.457,33.691,55.176,20.020,0
1507344888.234,64.941,39.551,35.156,54.199,9.766,0
1507344888.238,56.641,40.527,40.039,55.176,1.953,0
1507344888.242,58.105,43.945,45.898,61.035,13.184,0
1507344888.246,61.035,38.086,46.387,64.941,39.062,0
1507344888.250,56.641,29.297,36.133,57.129,34.180,0
1507344888.253,55.664,19.531,31.250,53.223,-18.066,0
1507344888.257,59.570,29.297,33.203,58.105,-28.809,0
1507344888.261,45.410,34.668,17.578,50.293,33.203,0
1507344888.265,49.805,43.457,8.301,53.223,33.691,0
1507344888.269,52.734,44.922,26.855,51.758,-1.953,0
1507344888.273,41.016,35.645,32.227,41.992,0.000,0
1507344888.277,51.758,44.922,28.809,47.852,22.461,0
1507344888.281,62.012,47.852,38.574,54.199,29.785,0
1507344888.285,53.223,31.738,37.109,43.457,-21.973,0
1507344888.289,50.781,28.809,14.648,41.992,-20.020,0
1507344888.293,52.246,37.109,-2.441,53.223,15.137,0
1507344888.296,51.270,41.992,34.180,48.828,9.277,0
1507344888.300,52.734,44.922,65.430,45.410,9.277,0
1507344888.304,48.340,37.598,50.293,44.434,1.953,0
1507344888.308,53.711,38.574,42.969,48.828,11.719,0
1507344888.312,58.105,46.387,24.414,53.711,0.977,0
1507344888.316,52.246,40.527,-3.418,47.363,-24.414,0
1507344888.320,58.105,37.598,7.324,46.875,-12.695,0
1507344888.324,59.082,43.457,37.598,50.293,-2.441,0
1507344888.328,47.363,38.574,38.574,41.016,-3.906,0
1507344888.332,47.852,41.504,38.574,37.598,-30.762,0
1507344888.336,51.758,44.922,39.062,43.457,-10.254,0
1507344888.339,46.387,32.715,29.297,40.039,20.996,0
1507344888.343,50.781,31.738,43.457,40.039,28.809,0
1507344888.347,49.316,36.133,46.875,39.551,30.762,0
1507344888.351,48.340,41.992,31.250,42.480,38.086,0
1507344888.355,50.293,45.410,18.555,43.945,32.227,0
1507344888.359,49.805,48.340,10.742,46.875,2.930,0
1507344888.363,49.805,44.434,21.484,50.781,6.348,0
1507344888.367,55.176,39.551,43.457,60.059,-14.160,0
1507344888.371,60.547,46.387,35.645,61.035,-16.602,0
1507344888.375,54.199,51.270,36.621,46.387,-10.742,0
1507344888.378,53.711,48.828,56.152,46.387,0.488,0
1507344888.382,59.570,48.828,46.387,52.246,16.113,0
1507344888.386,57.129,40.527,18.066,47.852,9.277,0
1507344888.390,52.246,35.645,22.949,43.457,11.719,0
1507344888.394,55.664,51.270,45.410,47.363,30.762,0
1507344888.398,51.758,46.875,27.344,44.922,36.621,0
1507344888.402,44.434,36.133,-0.488,42.480,26.367,0
1507344888.406,41.504,39.551,21.973,39.062,2.441,0
1507344888.410,46.387,53.223,40.039,38.086,17.578,0
1507344888.414,55.664,55.176,40.039,45.898,21.484,0
1507344888.418,53.711,45.410,47.363,48.340,-12.207,0
1507344888.421,42.480,40.039,24.902,38.574,11.230,0
1507344888.425,45.410,42.969,13.672,41.992,21.973,0
1507344888.429,62.988,49.805,28.809,54.199,33.203,0
1507344888.433,57.129,46.387,43.457,48.340,2.441,0
1507344888.437,52.246,37.109,46.387,44.922,-25.879,0
1507344888.441,58.594,35.156,49.316,52.734,23.438,0
1507344888.445,42.480,45.410,36.133,43.457,27.832,0
1507344888.449,35.645,45.898,22.461,35.645,-7.812,0
1507344888.453,34.668,35.645,16.602,35.645,-3.906,0
1507344888.457,36.133,34.668,20.020,35.645,26.855,0
1507344888.461,52.246,51.270,47.852,41.992,24.902,0
1507344888.464,50.781,54.688,36.133,42.480,-1.465,0
1507344888.468,48.340,47.852,34.180,42.969,-32.227,0
1507344888.472,42.969,45.410,21.973,36.133,-25.879,0
1507344888.476,39.551,40.527,32.227,35.645,18.066,0
1507344888.480,40.527,45.410,44.434,41.992,0.488,0
1507344888.484,46.875,46.387,24.902,47.363,-5.371,0
1507344888.488,44.922,31.738,26.855,41.504,30.762,0
1507344888.492,37.598,33.203,38.086,27.832,40.527,0
1507344888.496,37.598,45.410,19.043,29.785,22.949,0
1507344888.500,33.203,45.898,5.371,27.832,17.090,0
1507344888.503,41.992,42.969,26.855,28.320,34.180,0
1507344888.507,38.086,25.391,29.785,25.879,31.738,0
1507344888.511,31.250,18.066,38.086,24.414,10.742,0
1507344888.515,35.645,35.156,31.250,35.156,19.043,0
1507344888.519,34.180,41.504,16.113,31.250,16.113,0
1507344888.523,47.852,40.039,30.273,35.156,-4.395,0
1507344888.527,51.270,41.016,36.133,35.156,-23.438,0
1507344888.531,44.434,39.062,39.551,23.926,-11.719,0
1507344888.535,43.457,29.785,31.738,27.344,6.348,0
1507344888.539,51.758,30.762,17.578,43.457,17.578,0
1507344888.543,57.129,48.340,38.574,45.410,48.828,0
1507344888.546,46.875,45.410,49.316,38.086,75.684,0
1507344888.550,38.574,31.738,30.762,33.691,89.355,0
1507344888.554,38.574,32.227,8.789,32.715,17.578,0
1507344888.558,39.551,40.039,20.996,37.109,-9.766,0
1507344888.562,38.574,38.574,27.832,30.762,37.109,0
1507344888.566,35.645,39.062,6.348,23.926,29.785,0
1507344888.570,37.598,39.551,18.555,27.344,2.930,0
1507344888.574,29.785,32.715,36.621,29.297,29.785,0
1507344888.578,30.273,36.621,29.785,29.785,69.336,0
1507344888.582,39.551,40.527,27.832,27.832,25.879,0
1507344888.586,35.156,39.062,35.156,23.438,-23.438,0
1507344888.589,40.039,41.992,21.484,25.879,4.395,0
1507344888.593,48.340,40.527,21.484,25.391,39.062,0
1507344888.597,40.527,35.645,18.066,30.762,38.086,0
1507344888.601,37.598,46.387,-9.766,38.086,14.648,0
1507344888.605,41.504,52.734,8.301,35.156,11.230,0
1507344888.609,47.363,45.898,45.898,31.738,35.645,0
1507344888.613,46.875,32.227,25.391,24.414,37.109,0
1507344888.617,52.246,39.062,39.062,28.320,8.301,0
1507344888.621,55.176,40.039,59.082,39.551,23.438,0
1507344888.625,49.316,40.527,54.199,45.410,53.223,0
1507344888.628,46.875,59.570,47.363,46.387,30.762,0
1507344888.632,44.434,59.570,24.414,40.039,0.977,0
1507344888.636,37.598,42.480,14.648,30.762,29.785,0
1507344888.640,35.645,37.109,-8.789,28.320,33.203,0
1507344888.644,35.645,44.922,0.488,29.785,22.461,0
1507344888.648,34.180,43.945,39.551,35.156,39.551,0
1507344888.652,36.621,40.527,42.969,37.109,27.832,0
1507344888.656,35.645,36.133,26.367,32.715,12.207,0
1507344888.660,30.762,31.738,12.207,26.367,7.324,0
1507344888.664,45.898,35.645,35.156,33.203,1.465,0
1507344888.668,57.129,46.387,48.828,40.527,17.090,0
1507344888.671,52.734,49.805,42.969,36.621,14.648,0
1507344888.675,51.758,48.828,38.086,33.691,23.926,0
1507344888.679,35.156,43.457,17.578,27.344,31.738,0
1507344888.683,23.438,28.320,-8.301,22.949,23.926,0
1507344888.687,38.574,37.598,-20.508,35.156,23.438,0
1507344888.691,48.828,46.875,31.250,43.945,36.133,0
1507344888.695,42.969,42.480,68.848,35.645,47.363,0
1507344888.699,37.109,35.156,47.852,32.227,17.090,0
1507344888.703,40.039,33.203,28.809,39.062,-13.184,0
1507344888.707,45.410,45.898,19.043,39.062,-9.766,0
1507344888.711,48.340,48.828,36.133,37.598,17.578,0
1507344888.714,48.340,45.410,53.223,41.992,29.785,0
1507344888.718,41.504,40.527,31.738,44.434,-0.488,0
1507344888.722,42.480,41.016,19.043,46.387,8.301,0
1507344888.726,42.480,43.945,41.016,46.875,48.828,0
1507344888.730,41.992,32.715,32.715,47.852,43.457,0
1507344888.734,47.363,35.645,8.789,47.852,25.879,0
1507344888.738,45.898,41.992,8.789,42.969,21.484,0
1507344888.742,50.781,37.109,25.879,42.480,40.527,0
1507344888.746,53.223,42.969,41.016,45.898,20.996,0
1507344888.750,46.875,43.457,35.645,41.504,-39.551,0
1507344888.753,42.969,38.086,15.137,32.227,-18.066,0
1507344888.757,36.621,40.527,9.766,30.273,20.508,0
1507344888.761,33.203,45.410,24.414,36.621,22.949,0
1507344888.765,34.668,46.387,38.086,31.250,20.508,0
1507344888.769,49.316,53.223,46.387,41.016,23.926,0
1507344888.773,53.223,53.223,25.879,41.504,42.480,0
1507344888.777,46.387,45.410,2.441,33.203,63.965,0
1507344888.781,45.410,33.691,12.695,33.691,50.293,0
1507344888.785,47.852,40.039,44.922,40.039,15.137,0
1507344888.789,45.410,48.828,50.781,45.410,8.789,0
1507344888.793,33.203,40.527,31.738,36.621,32.227,0
1507344888.796,35.156,39.062,20.996,40.039,23.926,0
1507344888.800,46.387,39.551,37.598,45.898,14.648,0
1507344888.804,55.664,38.574,26.855,51.758,12.695,0
1507344888.808,48.828,37.109,16.602,51.758,8.301,0
1507344888.812,42.969,38.086,43.457,48.340,48.340,0
1507344888.816,45.410,41.504,48.828,44.434,47.363,0
1507344888.820,38.086,33.691,36.621,33.203,-3.418,0
1507344888.824,38.086,27.344,28.320,36.133,-18.066,0
1507344888.828,46.875,35.156,24.414,43.457,16.602,0
1507344888.832,47.363,38.574,28.809,36.621,39.062,0
1507344888.836,47.852,42.480,29.785,37.598,24.902,0
1507344888.839,51.758,48.828,13.672,35.645,-22.949,0
1507344888.843,44.434,46.387,-0.977,30.273,6.348,0
1507344888.847,31.250,44.922,23.926,30.273,33.691,0
1507344888.851,26.855,42.480,36.621,25.391,-12.695,0
1507344888.855,33.691,45.410,17.578,27.832,3.418,0
1507344888.859,44.434,52.734,3.418,36.621,33.203,0
1507344888.863,41.504,46.387,14.160,27.344,39.062,0
1507344888.867,42.480,40.527,42.969,30.273,5.859,0
1507344888.871,47.852,30.273,48.828,36.133,10.742,0
1507344888.875,38.574,22.949,33.691,24.414,37.598,0
1507344888.878,41.504,39.551,22.949,31.738,17.578,0
1507344888.882,57.617,42.969,29.785,49.316,10.742,0
1507344888.886,47.852,31.250,34.668,33.203,21.973,0
1507344888.890,40.527,41.992,21.973,27.832,42.480,0
1507344888.894,55.176,53.223,8.789,39.551,42.480,0
1507344888.898,62.500,57.617,26.367,44.434,23.926,0
1507344888.902,54.199,56.152,37.598,45.898,0.000,0
1507344888.906,44.922,47.852,20.508,40.039,32.715,0
1507344888.910,47.363,38.574,26.367,40.039,40.039,0
1507344888.914,50.293,37.109,35.645,37.109,5.371,0
1507344888.918,41.992,45.410,26.855,24.902,-1.953,0
1507344888.921,42.969,52.246,32.715,25.391,27.832,0
1507344888.925,49.316,42.480,28.320,18.555,62.500,0
1507344888.929,49.316,37.109,35.156,14.160,49.316,0
1507344888.933,48.828,49.316,46.387,17.090,-8.301,0
1507344888.937,51.758,45.410,24.414,17.578,-24.414,0
1507344888.941,60.547,39.062,10.742,21.484,14.160,0
1507344888.945,59.570,39.551,10.254,20.996,-9.277,0
1507344888.949,49.316,50.293,1.465,25.879,-10.254,0
1507344888.953,42.480,51.758,20.996,21.973,7.812,0
1507344888.957,41.992,44.922,59.570,16.113,10.254,0
1507344888.961,45.410,45.410,50.781,20.996,13.672,0
1507344888.964,41.992,48.340,19.043,29.297,19.043,0
1507344888.968,38.086,49.316,36.621,34.668,20.996,0
1507344888.972,36.621,37.109,34.180,27.832,18.066,0
1507344888.976,36.621,35.156,21.484,22.949,26.367,0
1507344888.980,46.387,41.992,42.480,21.973,30.762,0
1507344888.984,61.035,43.457,41.504,37.598,18.066,0
1507344888.988,51.270,36.133,20.508,33.691,-2.930,0
1507344888.992,42.969,37.598,19.531,22.949,-3.418,0
1507344888.996,49.805,40.039,27.832,29.785,8.301,0
1507344889.000,39.062,35.645,32.227,26.855,-0.488,0
1507344889.003,26.855,41.992,31.250,22.949,-10.254,0
1507344889.007,27.344,49.805,41.992,26.367,19.531,0
1507344889.011,25.391,45.898,37.109,22.461,42.480,0
1507344889.015,18.066,34.668,6.348,17.578,2.441,0
1507344889.019,17.578,43.945,14.160,20.508,-24.414,0
1507344889.023,26.855,46.387,24.414,27.344,15.137,0
1507344889.027,29.297,25.879,21.973,27.344,13.184,0
1507344889.031,32.715,33.691,27.832,34.180,3.418,0
1507344889.035,33.203,48.340,20.020,34.668,13.184,0
1507344889.039,33.203,44.922,14.160,30.762,-9.766,0
1507344889.043,40.527,44.922,34.668,35.645,-7.812,0
1507344889.046,34.180,37.109,51.758,30.762,-24.902,0
1507344889.050,26.855,28.809,47.363,23.926,-43.457,0
1507344889.054,35.156,32.227,21.484,28.809,-15.625,0
1507344889.058,42.480,45.898,30.762,39.551,30.762,0
1507344889.062,34.180,48.828,45.410,33.691,21.484,0
1507344889.066,33.691,48.340,30.273,30.762,-33.203,0
1507344889.070,33.691,46.387,21.973,30.273,-42.969,0
1507344889.074,28.809,38.574,19.043,19.531,26.855,0
1507344889.078,33.203,42.969,8.301,19.531,26.855,0
1507344889.082,35.156,46.875,7.324,27.344,-28.809,0
1507344889.086,23.926,40.039,34.180,20.508,15.137,0
1507344889.089,25.391,37.598,51.270,16.113,71.289,0
1507344889.093,33.691,42.480,24.902,24.902,40.527,0
1507344889.097,24.902,40.527,1.953,22.461,-3.906,0
1507344889.101,18.066,36.621,20.996,20.996,30.762,0
1507344889.105,27.344,41.504,39.551,27.832,63.477,0
1507344889.109,34.180,39.551,19.043,30.273,41.016,0
1507344889.113,31.250,38.086,6.348,25.391,26.855,0
1507344889.117,19.531,35.645,12.207,20.508,12.695,0
1507344889.121,25.879,39.551,23.438,27.832,1.953,0
1507344889.125,51.270,52.246,33.691,42.480,-2.441,0
1507344889.128,58.594,54.688,27.832,47.363,12.207,0
1507344889.132,40.527,40.527,20.996,34.180,17.578,0
1507344889.136,38.574,37.109,28.809,27.344,0.000,0
1507344889.140,46.387,51.270,56.641,41.016,-7.812,0
1507344889.144,34.668,56.152,56.152,35.645,8.789,0
1507344889.148,34.180,52.734,38.574,30.273,33.691,0
1507344889.152,36.133,44.922,21.973,27.344,46.387,0
1507344889.156,28.809,40.527,23.926,27.344,20.996,0
1507344889.160,30.762,41.504,27.832,29.785,12.695,0
1507344889.164,30.762,38.086,4.883,20.996,20.996,0
1507344889.168,29.297,41.992,13.184,31.250,29.297,0
1507344889.171,30.273,47.363,34.180,33.203,16.602,0
1507344889.175,34.668,43.945,39.062,28.809,-14.648,0
1507344889.179,39.551,38.086,49.805,30.273,-14.160,0
1507344889.183,43.945,34.668,46.387,31.738,-16.113,0
1507344889.187,44.922,35.645,37.109,30.762,-31.250,0
1507344889.191,55.176,44.922,32.715,45.898,11.719,0
1507344889.195,68.848,50.781,23.926,50.293,43.945,0
1507344889.199,68.848,51.758,26.855,46.387,-9.277,0
1507344889.203,57.617,50.781,29.297,47.852,-26.855,0
1507344889.207,47.363,48.340,32.227,46.875,20.020,0
1507344889.211,48.828,44.434,36.133,47.363,11.719,0
1507344889.214,58.594,47.363,38.086,48.340,-36.133,0
1507344889.218,65.430,50.781,38.086,56.152,-44.434,0
1507344889.222,60.059,45.898,31.738,61.035,15.137,0
1507344889.226,65.430,45.898,28.809,60.547,25.879,0
1507344889.230,85.449,56.152,21.484,62.500,-14.160,0
1507344889.234,90.820,54.199,19.531,66.895,-26.367,0
1507344889.238,87.891,44.922,34.668,70.801,-23.926,0
1507344889.242,89.355,48.828,42.480,69.824,2.930,0
1507344889.246,88.867,56.641,41.016,67.383,-2.441,0
1507344889.250,74.219,50.293,26.855,64.941,-28.809,0
1507344889.253,66.895,43.457,0.488,62.500,-20.508,0
1507344889.257,62.012,48.340,-11.719,57.617,6.348,0
1507344889.261,65.430,60.059,16.602,63.965,19.531,0
1507344889.265,65.430,55.664,48.340,59.570,13.184,0
1507344889.269,58.105,46.875,58.105,44.922,10.254,0
1507344889.273,60.059,49.805,52.246,42.969,19.043,0
1507344889.277,60.059,45.898,47.363,44.922,29.785,0
1507344889.281,66.406,50.781,39.062,48.828,26.855,0
1507344889.285,68.359,48.340,26.855,48.828,12.207,0
1507344889.289,54.199,35.156,34.668,46.387,6.348,0
1507344889.293,45.898,35.156,33.203,46.387,26.367,0
1507344889.296,53.223,50.293,37.598,54.688,39.062,0
1507344889.300,54.199,49.805,27.344,57.617,12.207,0
1507344889.304,56.152,46.387,8.789,57.129,-12.207,0
1507344889.308,58.594,54.199,24.902,55.176,4.883,0
1507344889.312,50.293,48.340,35.156,47.852,41.992,0
1507344889.316,47.852,41.016,34.180,45.898,41.504,0
1507344889.320,61.035,50.781,36.133,53.711,1.465,0
1507344889.324,63.965,55.176,35.156,55.664,7.324,0
1507344889.328,51.270,49.805,43.945,48.340,24.414,0
1507344889.332,42.969,42.969,45.410,38.574,20.996,0
1507344889.336,39.551,36.621,19.531,34.668,-1.953,0
1507344889.339,45.898,37.109,15.137,41.992,27.344,0
1507344889.343,46.875,44.922,40.527,42.480,54.199,0
1507344889.347,39.551,49.316,41.016,34.180,1.465,0
1507344889.351,41.992,52.734,17.578,36.621,-24.902,0
1507344889.355,50.293,58.105,11.230,46.387,-12.695,0
1507344889.359,52.246,54.688,30.762,49.316,15.137,0
1507344889.363,49.805,56.641,20.996,45.898,12.207,0
1507344889.367,49.805,56.641,12.695,40.039,-16.113,0
1507344889.371,52.734,50.293,49.805,41.504,10.742,0
1507344889.375,53.711,43.457,63.965,44.434,8.789,0
1507344889.378,45.410,48.340,40.039,34.668,-31.738,0
1507344889.382,45.410,58.105,27.344,34.668,-25.879,0
1507344889.386,49.316,54.199,41.016,45.898,-15.137,0
1507344889.390,42.480,47.852,42.480,39.551,1.465,0
1507344889.394,42.480,53.711,34.180,34.180,0.488,0
1507344889.398,39.062,53.223,23.926,28.320,-21.973,0
1507344889.402,35.645,46.387,26.367,23.438,-8.301,0
1507344889.406,41.016,49.316,34.180,32.715,17.090,0
1507344889.410,46.875,53.223,23.926,33.691,13.184,0
1507344889.414,38.086,48.340,30.762,27.344,-0.977,0
1507344889.418,37.598,41.992,23.926,28.320,3.418,0
1507344889.421,40.039,36.621,-21.973,31.738,-6.836,0
1507344889.425,30.762,33.691,0.977,28.320,9.766,0
1507344889.429,37.598,41.016,52.734,29.297,25.391,0
1507344889.433,46.387,35.156,61.523,38.086,21.484,0
1507344889.437,39.062,35.156,58.594,38.086,30.273,0
1507344889.441,35.645,48.340,45.410,38.574,5.371,0
1507344889.445,40.039,47.363,18.555,36.621,25.391,0
1507344889.449,44.434,57.617,27.832,36.133,33.691,0
1507344889.453,44.922,62.012,20.996,34.180,-5.371,0
1507344889.457,50.293,52.734,2.441,34.668,3.418,0
1507344889.461,47.852,46.387,28.320,37.109,70.312,0
1507344889.464,42.480,43.945,42.969,32.227,72.266,0
1507344889.468,44.434,47.363,12.207,33.691,31.738,0
1507344889.472,42.480,41.504,-9.766,32.227,21.484,0
1507344889.476,46.875,40.039,36.133,36.621,41.504,0
1507344889.480,45.410,41.504,56.641,33.203,56.152,0
1507344889.484,36.621,41.992,60.059,24.902,-11.719,0
1507344889.488,33.203,47.852,54.688,28.809,-19.531,0
1507344889.492,27.832,42.480,13.672,29.785,48.340,0
1507344889.496,24.414,40.527,10.254,27.344,38.574,0
1507344889.500,24.902,45.410,27.832,26.367,-13.184,0
1507344889.503,21.973,41.504,28.320,23.438,17.090,0
1507344889.507,24.414,41.504,34.180,25.879,68.848,0
1507344889.511,26.367,47.363,28.809,26.855,54.688,0
1507344889.515,23.926,39.062,8.301,22.949,-11.719,0
1507344889.519,35.645,39.551,4.395,31.250,7.324,0
1507344889.523,45.410,50.781,19.531,41.504,24.414,0
1507344889.527,41.016,44.922,19.531,39.551,12.207,0
1507344889.531,47.363,51.758,22.949,47.852,11.230,0
1507344889.535,51.758,62.988,54.199,51.270,7.812,0
1507344889.539,49.316,55.176,48.340,43.945,39.062,0
1507344889.543,48.340,45.410,33.203,35.645,43.945,0
1507344889.546,37.598,43.457,44.922,29.785,20.508,0
1507344889.550,27.832,44.922,47.363,33.691,16.113,0
1507344889.554,32.227,41.504,31.250,37.109,29.785,0
1507344889.558,33.691,41.992,20.020,35.645,2.930,0
1507344889.562,35.645,46.875,22.949,31.738,-10.254,0
1507344889.566,43.457,48.340,22.461,33.203,22.949,0
1507344889.570,44.922,44.922,25.391,33.203,22.949,0
1507344889.574,44.434,45.898,27.344,31.738,20.020,0
1507344889.578,42.969,53.223,25.879,37.598,29.297,0
1507344889.582,35.645,48.828,29.297,36.621,56.641,0
1507344889.586,38.086,48.828,33.203,36.621,41.016,0
1507344889.589,42.480,47.852,26.855,37.598,-1.953,0
1507344889.593,35.645,39.551,11.719,31.250,7.812,0
1507344889.597,30.273,41.504,10.742,28.809,21.484,0
1507344889.601,23.926,45.410,25.391,29.785,11.719,0
1507344889.605,20.020,43.945,25.879,19.531,-5.859,0
1507344889.609,26.855,45.410,23.438,19.531,-2.930,0
1507344889.613,29.297,47.363,29.785,20.508,39.551,0
1507344889.617,25.391,45.898,25.391,15.137,8.301,0
1507344889.621,22.461,48.340,14.648,18.066,-23.438,0
1507344889.625,27.344,48.340,24.902,21.973,18.555,0
1507344889.628,29.297,45.898,40.039,21.484,31.250,0
1507344889.632,25.391,45.410,39.062,18.555,1.465,0
1507344889.636,26.855,41.504,31.738,18.555,-17.578,0
1507344889.640,23.926,41.504,20.508,19.531,34.180,0
1507344889.644,23.926,45.898,23.438,19.043,72.266,0
1507344889.648,26.367,47.363,21.484,15.625,15.625,0
1507344889.652,31.250,46.875,12.207,20.020,-20.996,0
1507344889.656,48.828,51.270,10.742,30.762,18.555,0
1507344889.660,42.969,43.945,9.277,23.438,43.945,0
1507344889.664,26.367,38.574,9.766,15.625,6.348,0
1507344889.668,27.832,49.805,17.578,20.508,4.883,0
1507344889.671,28.320,54.688,31.250,21.484,41.992,0
1507344889.675,32.227,52.246,41.504,27.344,24.902,0
1507344889.679,39.062,47.363,52.246,27.832,12.695,0
1507344889.683,41.504,46.387,49.316,28.320,-10.742,0
1507344889.687,41.016,49.316,20.020,29.785,0.488,0
1507344889.691,35.645,46.875,-5.859,23.926,31.250,0
1507344889.695,29.785,39.062,19.531,22.461,5.371,0
1507344889.699,31.738,38.574,26.367,24.902,16.113,0
1507344889.703,37.598,38.086,4.883,26.367,20.020,0
1507344889.707,31.738,31.738,25.879,22.949,6.836,0
1507344889.711,23.438,34.668,32.715,23.438,26.855,0
1507344889.714,27.832,42.480,21.484,31.250,35.156,0
1507344889.718,35.645,50.293,26.855,28.320,18.555,0
1507344889.722,37.109,48.828,35.645,17.578,33.691,0
1507344889.726,35.156,49.316,28.320,20.996,40.039,0
1507344889.730,31.250,49.805,16.602,23.438,14.648,0
1507344889.734,27.344,50.781,31.738,13.184,12.695,0
1507344889.738,23.926,45.410,43.457,14.160,-6.836,0
1507344889.742,30.762,43.457,28.320,22.949,-0.977,0
1507344889.746,37.598,44.922,21.484,20.020,36.621,0
1507344889.750,27.344,38.574,19.531,8.301,34.180,0
1507344889.753,24.414,42.480,19.043,8.301,-8.789,0
1507344889.757,36.133,48.340,17.578,12.695,-6.348,0
1507344889.761,48.340,52.734,23.438,15.625,24.902,0
1507344889.765,54.688,50.781,31.250,13.672,30.762,0
1507344889.769,60.547,44.922,35.645,10.254,21.973,0
1507344889.773,55.176,48.828,33.203,4.395,-5.371,0
1507344889.777,49.316,50.293,20.020,1.953,18.555,0
1507344889.781,44.434,45.898,15.137,3.906,8.789,0
1507344889.785,35.645,45.898,19.043,7.324,-27.832,0
1507344889.789,23.926,41.992,16.113,3.418,-0.977,0
1507344889.793,5.371,40.039,3.418,-0.977,25.391,0
1507344889.796,-11.719,50.293,0.977,-1.953,2.930,0
1507344889.800,-10.742,56.152,12.695,-6.836,-45.410,0
1507344889.804,-26.367,48.828,-4.883,-31.738,-6.348,0
1507344889.808,-30.762,41.016,-8.789,-36.621,41.016,0
1507344889.812,-18.555,38.086,12.695,-24.414,25.879,0
1507344889.816,-21.973,46.875,24.414,-36.133,9.766,0
1507344889.820,-20.020,57.617,22.949,-40.039,-7.324,0
1507344889.824,-20.996,62.500,-12.207,-38.086,14.160,0
1507344889.828,-29.297,47.363,-21.484,-43.457,31.738,0
1507344889.832,-24.902,30.762,-3.906,-35.645,5.859,0
1507344889.836,-18.555,42.480,5.371,-29.785,-5.859,0
1507344889.839,-26.367,53.223,8.789,-35.645,21.973,0
1507344889.843,-33.691,62.012,20.020,-29.785,5.859,0
1507344889.847,-40.527,62.500,27.344,-30.762,-32.227,0
1507344889.851,-46.387,44.922,11.230,-36.133,-1.465,0
1507344889.855,-45.898,30.273,-15.625,-37.598,0.977,0
1507344889.859,-33.203,36.621,12.695,-30.273,-4.395,0
1507344889.863,-18.555,54.688,33.203,-16.113,19.043,0
1507344889.867,-22.461,60.059,29.297,-16.113,40.527,0
1507344889.871,-28.320,48.828,31.738,-18.066,41.992,0
1507344889.875,-23.926,41.504,30.273,-5.859,10.742,0
1507344889.878,-28.809,42.969,28.809,-8.301,37.598,0
1507344889.882,-34.180,38.574,30.762,-14.160,39.062,0
1507344889.886,-23.926,36.621,32.715,-3.418,-14.160,0
1507344889.890,-11.230,39.551,17.090,8.301,4.883,0
1507344889.894,-18.066,32.227,0.000,3.906,57.617,0
1507344889.898,-23.438,24.414,-6.348,-6.348,64.941,0
1507344889.902,-5.371,40.527,23.926,8.789,4.883,0
1507344889.906,-1.953,48.828,36.133,21.973,-10.254,0
1507344889.910,-13.672,38.086,41.992,17.090,26.367,0
1507344889.914,-8.301,41.504,48.828,20.508,30.273,0
1507344889.918,11.719,45.898,40.039,23.926,2.930,0
1507344889.921,23.926,46.387,38.574,26.367,-13.672,0
1507344889.925,21.973,46.387,44.434,29.785,15.137,0
1507344889.929,18.555,35.156,33.203,30.762,35.156,0
1507344889.933,15.625,21.484,18.066,15.625,26.367,0
1507344889.937,19.531,33.691,32.715,17.090,6.836,0
1507344889.941,22.949,34.668,55.664,28.809,21.484,0
1507344889.945,23.438,39.062,44.434,33.203,36.621,0
1507344889.949,21.973,48.828,0.977,35.645,14.160,0
1507344889.953,21.973,39.062,-1.465,26.367,14.648,0
1507344889.957,33.203,40.527,25.391,25.391,38.574,0
1507344889.961,41.504,44.434,56.641,38.574,46.875,0
1507344889.964,36.621,31.250,51.270,42.480,26.855,0
1507344889.968,21.973,7.812,28.809,39.551,2.441,0
1507344889.972,10.742,19.531,29.785,37.109,36.133,0
1507344889.976,18.555,42.969,34.668,40.039,27.832,0
1507344889.980,31.250,43.945,53.711,43.945,-6.348,0
1507344889.984,24.902,33.203,56.641,37.109,16.113,0
1507344889.988,28.809,30.273,46.875,39.062,18.066,0
1507344889.992,25.391,28.809,36.621,34.180,4.395,0
1507344889.996,17.090,26.855,45.898,29.297,4.395,0
1507344890.000,22.461,31.250,49.316,33.691,2.930,0
1507344890.003,23.438,29.785,47.852,37.109,8.789,0
1507344890.007,23.438,30.273,49.316,40.039,10.742,0
1507344890.011,20.508,27.344,33.203,40.039,0.977,0
1507344890.015,26.855,13.184,23.438,38.574,-3.418,0
1507344890.019,36.621,25.391,41.016,40.039,-9.277,0
1507344890.023,43.945,48.828,55.664,54.199,-2.930,0
1507344890.027,38.574,41.504,45.898,45.410,13.672,0
1507344890.031,48.340,41.016,47.363,47.852,40.527,0
1507344890.035,53.223,44.434,49.805,63.477,55.176,0
1507344890.039,40.039,36.133,48.340,53.711,12.695,0
1507344890.043,47.852,31.738,66.406,49.805,3.418,0
1507344890.046,58.105,26.367,71.777,52.246,42.969,0
1507344890.050,58.105,31.738,50.781,50.293,44.922,0
1507344890.054,54.199,37.109,27.832,53.711,13.184,0
1507344890.058,52.734,29.785,36.621,57.617,-7.324,0
1507344890.062,46.387,22.949,43.945,59.570,14.160,0
1507344890.066,44.434,26.855,40.527,61.035,16.602,0
1507344890.070,45.410,32.715,57.617,54.688,-18.555,0
1507344890.074,46.387,40.527,76.660,53.223,7.324,0
1507344890.078,41.504,40.039,58.105,52.246,35.156,0
1507344890.082,38.086,40.039,25.879,49.805,-6.836,0
1507344890.086,41.504,44.922,20.020,48.340,-34.668,0
1507344890.089,39.551,41.504,41.504,51.270,21.973,0
1507344890.093,34.180,35.156,37.598,50.781,65.430,0
1507344890.097,41.016,40.039,48.340,53.223,21.973,0
1507344890.101,42.969,41.992,72.266,60.059,-3.906,0
1507344890.105,36.621,28.809,51.270,53.711,33.691,0
1507344890.109,39.062,26.855,57.129,45.898,58.594,0
1507344890.113,41.992,32.715,56.152,44.922,-1.465,0
1507344890.117,41.016,35.645,54.199,45.410,-43.945,0
1507344890.121,43.457,30.762,62.988,48.340,13.672,0
1507344890.125,40.527,22.949,48.340,52.246,27.832,0
1507344890.128,36.133,33.691,41.016,54.199,17.578,0
1507344890.132,43.945,44.434,41.016,54.199,36.621,0
1507344890.136,41.992,40.527,43.945,49.805,45.410,0
1507344890.140,36.133,35.645,20.996,45.898,24.902,0
1507344890.144,43.945,42.969,13.672,53.223,6.836,0
1507344890.148,50.293,50.293,61.035,59.082,33.691,0
1507344890.152,43.457,38.574,63.965,51.758,31.738,0
1507344890.156,42.969,25.391,41.992,48.828,21.973,0
1507344890.160,49.805,30.762,56.152,52.734,-6.836,0
1507344890.164,45.898,40.039,62.012,52.246,-3.906,0
1507344890.168,45.898,35.645,38.574,53.711,29.297,0
1507344890.171,40.039,31.250,10.742,47.852,19.043,0
1507344890.175,41.016,37.598,37.598,47.363,21.484,0
1507344890.179,53.711,38.086,61.035,57.617,21.973,0
1507344890.183,46.875,36.133,36.621,53.711,41.504,0
1507344890.187,43.945,44.434,50.781,49.316,26.855,0
1507344890.191,45.410,38.574,53.711,48.340,10.742,0
1507344890.195,48.828,32.715,34.180,50.781,48.828,0
1507344890.199,54.688,41.016,39.062,55.176,35.645,0
1507344890.203,49.316,37.109,39.062,44.922,-20.020,0
1507344890.207,43.945,37.598,54.688,42.969,-3.418,0
1507344890.211,44.434,31.738,32.227,47.363,59.570,0
1507344890.214,47.852,31.250,1.953,46.387,62.500,0
1507344890.218,44.434,45.410,45.898,43.945,21.973,0
1507344890.222,35.645,47.363,58.105,39.551,5.371,0
1507344890.226,29.785,38.574,34.668,36.133,17.578,0
1507344890.230,32.227,38.574,38.574,34.668,26.367,0
1507344890.234,37.598,38.574,43.945,30.762,-16.113,0
1507344890.238,38.086,36.621,14.160,31.250,-34.668,0
1507344890.242,50.781,45.410,29.785,42.480,23.438,0
1507344890.246,40.039,44.434,56.152,33.691,48.340,0
1507344890.250,31.250,38.086,43.457,29.297,19.531,0
1507344890.253,41.016,37.109,39.062,37.109,0.488,0
1507344890.257,43.945,37.598,20.508,41.992,29.297,0
1507344890.261,42.480,39.062,22.461,44.434,44.434,0
1507344890.265,41.992,39.062,30.273,44.434,36.133,0
1507344890.269,41.016,36.621,19.531,41.504,34.180,0
1507344890.273,37.598,38.574,42.969,42.480,24.414,0
1507344890.277,48.340,32.715,35.156,53.223,22.949,0
1507344890.281,55.176,27.832,20.508,51.270,-3.906,0
1507344890.285,51.758,49.316,61.523,50.293,-13.672,0
1507344890.289,51.758,56.641,66.406,48.340,27.344,0
1507344890.293,55.664,49.316,54.199,45.410,6.348,0
1507344890.296,56.152,53.223,58.594,48.340,-13.184,0
1507344890.300,46.387,47.852,43.457,48.340,33.691,0
1507344890.304,41.504,43.945,21.973,49.805,39.551,0
1507344890.308,48.340,50.293,0.000,51.270,15.137,0
1507344890.312,45.410,40.039,11.719,41.992,15.625,0
1507344890.316,43.457,38.574,49.316,35.645,37.598,0
1507344890.320,52.246,53.223,34.180,50.293,35.156,0
1507344890.324,49.316,45.898,8.301,47.852,41.016,0
1507344890.328,49.805,40.039,22.461,41.016,43.457,0
1507344890.332,50.293,49.805,41.016,40.527,13.672,0
1507344890.336,45.410,53.223,57.617,39.062,10.254,0
1507344890.339,36.133,41.016,50.293,43.945,25.391,0
1507344890.343,40.039,41.992,35.156,45.898,22.461,0
1507344890.347,50.781,48.340,29.785,41.992,46.387,0
1507344890.351,56.641,44.434,29.785,40.039,37.598,0
1507344890.355,64.941,45.898,22.461,50.781,0.000,0
1507344890.359,59.082,50.781,0.977,51.758,30.273,0
1507344890.363,47.852,50.781,6.348,51.270,41.992,0
1507344890.367,45.898,41.504,21.973,48.340,20.020,0
1507344890.371,49.805,37.598,29.297,41.504,4.395,0
1507344890.375,50.293,38.086,26.367,44.434,52.246,0
1507344890.378,52.734,42.969,27.344,45.898,49.316,0
1507344890.382,52.734,51.270,40.527,46.387,-19.043,0
1507344890.386,45.410,54.688,57.129,43.457,-29.297,0
1507344890.390,38.086,46.387,55.664,40.039,3.418,0
1507344890.394,31.250,41.992,38.574,36.621,48.828,0
1507344890.398,30.273,46.387,28.809,32.715,11.230,0
1507344890.402,27.832,41.016,32.715,25.391,-9.277,0
1507344890.406,28.809,35.156,33.203,22.461,81.055,0
1507344890.410,39.062,41.016,21.484,29.785,78.125,0
1507344890.414,47.363,44.922,12.695,37.109,32.227,0
1507344890.418,43.945,45.898,9.277,40.039,18.555,0
1507344890.421,38.086,42.969,8.301,36.621,1.465,0
1507344890.425,42.969,43.945,25.879,41.504,45.410,0
1507344890.429,34.668,39.062,36.621,36.133,39.551,0
1507344890.433,29.297,32.715,14.160,16.602,-4.883,0
1507344890.437,43.945,40.527,13.672,28.809,-20.508,0
1507344890.441,51.758,50.781,40.527,39.062,-3.906,0
1507344890.445,41.504,44.922,56.641,31.738,33.691,0
1507344890.449,36.621,32.715,51.270,32.227,48.828,0
1507344890.453,36.621,40.039,29.785,32.715,43.457,0
1507344890.457,33.691,53.711,5.859,34.180,46.875,0
1507344890.461,42.480,42.480,-3.906,37.109,61.523,0
1507344890.464,43.457,36.621,26.367,33.203,45.898,0
1507344890.468,40.039,40.039,54.688,31.738,38.086,0
1507344890.472,48.828,41.016,48.828,36.621,21.973,0
1507344890.476,44.922,45.410,43.945,43.457,-2.441,0
1507344890.480,28.320,39.062,25.391,32.715,36.621,0
1507344890.484,30.762,45.898,10.742,31.738,54.199,0
1507344890.488,37.598,47.852,18.066,38.086,32.227,0
1507344890.492,35.645,45.410,19.043,32.227,37.598,0
1507344890.496,38.574,53.223,14.648,29.297,16.113,0
1507344890.500,42.969,57.129,39.062,34.668,-4.395,0
1507344890.503,31.250,50.781,41.504,34.668,3.906,0
1507344890.507,25.879,44.922,13.184,30.273,15.625,0
1507344890.511,32.227,47.363,39.062,30.273,45.410,0
1507344890.515,31.250,36.133,33.203,32.715,61.035,0
1507344890.519,29.785,31.250,20.020,31.738,6.836,0
1507344890.523,41.504,51.270,37.109,31.738,-20.508,0
1507344890.527,53.223,61.035,35.156,36.621,23.926,0
1507344890.531,46.387,52.734,33.203,35.156,3.906,0
1507344890.535,41.504,52.246,16.602,37.109,-32.227,0
1507344890.539,42.969,52.246,24.902,37.598,11.230,0
1507344890.543,34.180,43.457,26.367,32.715,55.664,0
1507344890.546,33.203,36.621,20.508,32.227,57.617,0
1507344890.550,43.945,38.086,38.574,38.086,5.371,0
1507344890.554,43.945,45.410,41.992,36.621,28.809,0
1507344890.558,43.457,54.199,44.922,32.715,63.965,0
1507344890.562,38.086,50.293,30.762,30.762,34.180,0
1507344890.566,34.180,45.410,20.508,28.809,26.367,0
1507344890.570,41.992,52.734,16.602,33.203,46.387,0
1507344890.574,50.293,45.410,18.066,27.344,36.133,0
1507344890.578,62.012,33.691,35.156,25.879,24.414,0
1507344890.582,70.801,52.734,33.691,35.156,20.996,0
1507344890.586,69.824,66.406,17.090,35.156,20.996,0
1507344890.589,61.035,49.805,25.391,28.320,38.086,0
1507344890.593,62.012,46.387,40.527,29.297,15.137,0
1507344890.597,58.594,52.734,34.668,27.832,-39.062,0
1507344890.601,44.434,47.363,11.230,20.996,-13.672,0
1507344890.605,45.410,46.875,20.996,26.367,45.898,0
1507344890.609,50.781,53.711,49.805,41.016,29.785,0
1507344890.613,43.457,52.734,58.105,40.039,7.812,0
1507344890.617,40.039,48.828,39.551,33.203,9.766,0
1507344890.621,42.969,46.387,18.066,39.551,-1.465,0
1507344890.625,37.598,44.922,20.996,34.180,-3.418,0
1507344890.628,30.762,42.480,18.066,22.461,2.441,0
1507344890.632,45.898,48.340,32.227,36.621,-0.977,0
1507344890.636,55.664,54.199,26.367,43.945,-25.391,0
1507344890.640,50.781,54.199,24.414,33.691,-39.551,0
1507344890.644,41.504,47.852,33.203,26.855,25.879,0
1507344890.648,35.645,43.457,28.320,32.227,24.414,0
1507344890.652,41.016,51.270,33.691,40.039,-17.090,0
1507344890.656,38.574,51.270,42.969,38.086,-0.977,0
1507344890.660,34.180,39.551,17.578,34.180,14.648,0
1507344890.664,42.969,36.621,-7.812,41.992,35.156,0
1507344890.668,45.898,51.270,31.250,47.852,21.484,0
1507344890.671,31.250,58.105,55.664,38.086,-32.227,0
1507344890.675,21.973,48.340,46.875,33.203,1.465,0
1507344890.679,25.879,44.434,27.832,41.016,29.785,0
1507344890.683,38.574,45.410,4.395,48.340,-2.930,0
1507344890.687,29.297,37.109,11.719,38.086,-2.441,0
1507344890.691,20.508,44.922,24.902,29.785,6.836,0
1507344890.695,25.879,47.852,41.504,38.574,6.836,0
1507344890.699,24.902,35.156,42.969,37.598,13.672,0
1507344890.703,26.367,29.785,20.020,37.598,30.273,0
1507344890.707,20.996,35.645,16.602,44.434,40.039,0
1507344890.711,27.832,43.457,32.227,54.688,11.230,0
1507344890.714,40.527,51.758,47.363,52.246,-28.809,0
1507344890.718,36.621,49.316,40.039,37.598,-35.156,0
1507344890.722,39.551,42.969,30.273,40.527,24.414,0
1507344890.726,38.086,42.480,35.156,43.457,44.922,0
1507344890.730,31.250,39.551,25.391,38.574,2.930,0
1507344890.734,23.926,38.574,17.578,35.645,8.301,0
1507344890.738,29.297,41.016,41.504,44.434,34.180,0
1507344890.742,36.621,38.086,21.973,41.016,45.410,0
1507344890.746,32.227,28.320,-12.207,23.926,31.250,0
1507344890.750,33.203,33.203,20.508,31.250,14.160,0
1507344890.753,29.785,47.363,50.781,39.062,0.488,0
1507344890.757,21.973,48.828,31.250,25.879,3.418,0
1507344890.761,26.855,46.875,16.602,22.461,25.879,0
1507344890.765,33.691,50.781,18.066,26.855,10.742,0
1507344890.769,31.738,53.223,16.113,24.414,-18.066,0
1507344890.773,34.668,47.852,14.160,27.832,-11.230,0
1507344890.777,36.133,40.527,25.391,30.273,8.789,0
1507344890.781,36.133,32.715,50.781,27.832,31.738,0
1507344890.785,38.086,30.273,55.664,29.297,16.602,0
1507344890.789,29.785,33.203,38.086,29.297,-11.719,0
1507344890.793,29.785,39.062,32.227,30.273,18.066,0
1507344890.796,32.715,35.156,12.695,29.297,39.551,0
1507344890.800,40.527,34.668,9.766,37.598,26.367,0
1507344890.804,50.781,45.898,20.996,41.992,13.184,0
1507344890.808,44.922,48.340,20.996,37.109,18.555,0
1507344890.812,34.668,41.016,34.180,32.715,31.738,0
1507344890.816,30.762,39.551,36.621,27.832,17.578,0
1507344890.820,35.156,48.828,26.367,33.691,9.766,0
1507344890.824,40.039,48.340,19.043,38.086,19.043,0
1507344890.828,43.945,42.480,7.812,33.203,27.344,0
1507344890.832,39.062,38.574,0.000,23.438,26.855,0
1507344890.836,43.457,45.898,21.973,27.344,-14.160,0
1507344890.839,53.223,48.340,32.227,32.227,-6.348,0
1507344890.843,46.387,41.504,38.086,28.809,22.949,0
1507344890.847,41.992,51.758,50.781,31.738,-19.043,0
1507344890.851,39.062,57.129,45.898,28.320,-39.551,0
1507344890.855,36.133,46.875,29.785,30.273,11.230,0
1507344890.859,44.434,41.504,37.109,38.086,25.879,0
1507344890.863,43.457,42.480,34.668,31.738,10.254,0
1507344890.867,44.434,45.410,17.578,35.645,-8.301,0
1507344890.871,43.457,47.363,5.859,39.551,-4.395,0
1507344890.875,43.945,43.457,18.066,34.668,40.527,0
1507344890.878,50.293,42.480,36.621,33.691,11.230,0
1507344890.882,56.152,54.688,33.691,31.738,-13.184,0
1507344890.886,61.523,58.105,22.461,33.203,11.719,0
1507344890.890,53.711,51.270,21.973,34.668,29.297,0
1507344890.894,44.434,47.852,32.715,30.762,10.254,0
1507344890.898,42.969,46.875,42.480,27.832,-12.695,0
1507344890.902,41.504,47.852,35.645,32.715,6.836,0
1507344890.906,48.340,51.758,29.297,41.016,16.602,0
1507344890.910,57.129,53.223,25.391,47.363,-24.414,0
1507344890.914,46.387,46.875,21.484,34.668,-25.391,0
1507344890.918,37.109,42.969,28.809,25.879,29.785,0
1507344890.921,51.270,45.410,39.062,35.156,25.391,0
1507344890.925,57.617,39.551,50.293,45.898,14.648,0
1507344890.929,46.875,37.109,21.484,47.363,19.043,0
1507344890.933,47.852,39.551,-6.836,44.922,-10.742,0
1507344890.937,39.062,36.621,9.766,37.598,4.395,0
1507344890.941,37.109,38.574,26.855,35.645,38.086,0
1507344890.945,48.340,37.598,47.852,41.992,21.484,0
1507344890.949,43.457,45.898,52.734,38.574,-9.766,0
1507344890.953,46.387,44.434,26.367,42.969,-23.926,0
1507344890.957,51.758,46.387,13.672,50.293,-0.977,0
1507344890.961,54.199,52.734,36.621,47.852,42.480,0
1507344890.964,52.246,41.504,30.762,38.086,42.969,0
1507344890.968,52.246,42.969,16.602,30.762,-16.602,0
1507344890.972,59.570,51.758,26.855,42.480,-34.180,0
1507344890.976,55.664,53.711,49.316,41.016,26.367,0
1507344890.980,43.457,41.504,50.293,29.785,36.133,0
1507344890.984,33.691,37.109,44.434,30.273,8.789,0
1507344890.988,32.715,50.293,39.062,27.832,19.043,0
1507344890.992,36.621,48.340,34.180,28.320,47.363,0
1507344890.996,39.062,45.410,22.949,27.832,33.203,0
1507344891.000,36.133,49.316,6.836,25.879,-15.137,0
1507344891.003,33.203,40.527,8.789,29.297,-11.230,0
1507344891.007,35.645,40.039,7.812,30.762,51.270,0
1507344891.011,41.016,44.922,13.672,30.273,25.391,0
1507344891.015,50.781,44.434,30.762,32.715,-2.930,0
1507344891.019,47.852,49.316,32.715,38.086,38.086,0
1507344891.023,36.133,40.527,40.527,34.668,40.039,0
1507344891.027,35.156,36.133,59.082,25.879,14.160,0
1507344891.031,41.992,52.734,59.570,28.320,6.836,0
1507344891.035,48.828,54.688,49.805,31.250,24.414,0
1507344891.039,46.387,43.457,44.922,32.227,25.391,0
1507344891.043,42.480,39.551,30.762,32.715,14.648,0
1507344891.046,38.086,41.992,19.043,25.391,-12.207,0
1507344891.050,33.203,44.434,5.859,22.949,-12.695,0
1507344891.054,43.945,44.922,20.996,34.180,16.602,0
1507344891.058,44.922,31.738,32.227,31.250,46.875,0
1507344891.062,30.762,31.738,18.555,19.531,41.992,0
1507344891.066,33.691,49.805,24.414,24.414,24.902,0
1507344891.070,43.457,49.805,36.133,32.227,20.020,0
1507344891.074,32.227,36.133,41.504,25.879,6.836,0
1507344891.078,26.855,41.016,43.457,20.996,29.297,0
1507344891.082,35.645,55.664,41.016,30.762,49.316,0
1507344891.086,38.086,50.781,34.668,33.203,21.484,0
1507344891.089,39.062,38.574,46.387,34.668,24.414,0
1507344891.093,39.062,34.668,36.621,31.250,55.664,0
1507344891.097,45.410,44.434,5.859,31.738,49.316,0
1507344891.101,55.664,52.246,16.113,39.062,2.441,0
1507344891.105,55.664,46.875,23.926,39.062,-15.625,0
1507344891.109,48.828,43.457,27.832,35.645,30.762,0
1507344891.113,36.133,41.992,41.016,28.320,35.645,0
1507344891.117,26.367,42.480,25.391,25.879,2.441,0
1507344891.121,25.391,45.410,38.574,26.367,5.371,0
1507344891.125,27.344,49.316,55.664,25.879,34.668,0
1507344891.128,27.344,50.781,38.086,25.391,58.105,0
1507344891.132,28.809,45.410,31.250,22.461,23.926,0
1507344891.136,27.832,40.527,20.508,18.066,8.301,0
1507344891.140,26.855,45.410,13.672,21.484,34.668,0
1507344891.144,38.574,50.293,13.672,34.180,20.996,0
1507344891.148,42.480,48.340,11.719,36.621,-6.836,0
1507344891.152,34.668,44.922,23.438,29.785,-22.949,0
1507344891.156,36.133,39.062,29.785,29.297,23.438,0
1507344891.160,34.180,37.598,37.109,30.273,41.504,0
1507344891.164,28.320,36.621,39.551,24.414,9.277,0
1507344891.168,35.156,41.504,35.645,25.879,13.184,0
1507344891.171,41.016,44.922,43.945,27.832,8.301,0
1507344891.175,41.016,40.039,39.062,24.414,1.953,0
1507344891.179,40.527,43.945,28.809,29.297,3.418,0
1507344891.183,36.621,47.363,22.949,34.180,-8.789,0
1507344891.187,41.504,51.758,21.484,41.016,-27.344,0
1507344891.191,41.504,54.199,35.645,36.621,-18.066,0
1507344891.195,38.574,45.410,26.855,32.227,-21.973,0
1507344891.199,44.922,40.039,4.395,37.598,-20.996,0
1507344891.203,42.480,43.945,0.977,33.203,10.254,0
1507344891.207,42.480,45.898,38.574,30.273,19.043,0
1507344891.211,49.316,36.621,63.965,32.227,12.207,0
1507344891.214,39.062,34.668,49.805,24.902,6.348,0
1507344891.218,28.320,39.551,24.902,22.949,-3.418,0
1507344891.222,28.809,38.574,20.996,25.879,39.551,0
1507344891.226,33.691,37.109,23.926,20.020,50.293,0
1507344891.230,37.598,39.062,28.809,19.531,9.766,0
1507344891.234,38.574,39.551,35.645,18.555,23.438,0
1507344891.238,39.551,43.945,40.527,22.949,41.016,0
1507344891.242,32.715,42.480,1.953,19.531,1.465,0
1507344891.246,37.598,46.387,-28.809,21.973,17.090,0
1507344891.250,41.504,45.898,21.973,29.297,25.391,0
1507344891.253,33.203,37.109,28.809,25.391,-13.184,0
1507344891.257,35.156,39.551,18.555,26.855,1.953,0
1507344891.261,34.180,32.227,40.527,22.461,19.531,0
1507344891.265,32.227,33.691,35.156,25.879,9.277,0
1507344891.269,30.273,37.598,30.762,21.973,-4.883,0
1507344891.273,34.180,39.062,43.457,18.555,7.324,0
1507344891.277,33.691,41.992,33.691,23.926,2.930,0
1507344891.281,25.879,45.410,30.273,21.484,-1.953,0
1507344891.285,32.227,49.805,20.020,27.832,-41.504,0
1507344891.289,41.016,50.293,11.230,33.203,-17.578,0
1507344891.293,48.828,54.199,34.668,36.621,48.828,0
1507344891.296,49.316,52.246,38.574,38.574,35.156,0
1507344891.300,38.574,45.410,24.902,31.738,17.578,0
1507344891.304,41.016,47.852,32.227,31.250,12.695,0
1507344891.308,44.922,51.270,23.926,28.809,34.668,0
1507344891.312,40.039,43.457,1.953,21.484,45.410,0
1507344891.316,37.598,44.434,19.531,23.438,9.766,0
1507344891.320,45.410,48.828,46.387,29.297,-12.207,0
1507344891.324,50.781,46.387,31.250,34.180,-23.438,0
1507344891.328,49.805,47.852,17.090,38.574,-4.395,0
1507344891.332,49.805,49.805,35.156,40.527,0.977,0
1507344891.336,40.039,42.969,22.949,34.180,39.062,0
1507344891.339,34.180,42.480,12.695,34.180,55.664,0
1507344891.343,36.133,49.316,51.758,40.527,11.719,0
1507344891.347,28.809,39.551,50.781,34.668,3.418,0
1507344891.351,25.391,36.133,26.367,31.250,24.414,0
1507344891.355,27.344,36.621,16.113,27.344,51.270,0
1507344891.359,31.738,33.203,31.738,28.809,51.758,0
1507344891.363,32.715,38.086,55.176,36.133,46.875,0
1507344891.367,37.598,49.805,34.180,39.062,18.555,0
1507344891.371,34.180,44.434,17.578,29.785,16.602,0
1507344891.375,34.180,34.668,3.418,32.227,33.203,0
1507344891.378,39.062,44.922,-1.465,32.227,37.109,0
1507344891.382,36.621,51.758,32.715,25.391,36.621,0
1507344891.386,30.273,45.410,24.414,28.320,26.367,0
1507344891.390,30.273,42.969,26.367,25.879,4.395,0
1507344891.394,38.086,41.504,42.480,22.949,15.625,0
1507344891.398,45.898,49.316,31.250,22.461,21.973,0
1507344891.402,48.340,51.270,21.973,22.461,-0.977,0
1507344891.406,44.434,46.387,22.461,19.043,4.883,0
1507344891.410,49.316,55.176,27.832,27.832,30.273,0
1507344891.414,39.551,52.734,16.113,25.391,23.438,0
1507344891.418,31.250,46.875,-0.488,19.531,-15.625,0
1507344891.421,36.621,43.457,3.418,27.832,-49.805,0
1507344891.425,33.691,39.062,12.207,23.438,-21.484,0
1507344891.429,40.039,48.828,13.672,25.391,37.598,0
1507344891.433,36.621,45.898,27.832,21.973,18.555,0
1507344891.437,38.086,38.574,31.250,17.578,-12.695,0
1507344891.441,49.316,47.363,21.973,22.461,24.902,0
1507344891.445,50.293,54.688,30.273,31.738,30.762,0
1507344891.449,48.340,47.363,33.691,27.832,7.812,0
1507344891.453,50.293,41.504,7.812,16.602,12.695,0
1507344891.457,55.176,49.316,-0.488,14.160,32.227,0
1507344891.461,51.270,45.410,18.555,10.742,29.785,0
1507344891.464,48.828,41.016,30.762,12.695,-4.883,0
1507344891.468,46.875,49.316,30.273,13.184,-19.043,0
1507344891.472,54.199,48.340,21.484,20.996,13.184,0
1507344891.476,58.105,36.621,10.254,23.926,25.879,0
1507344891.480,54.688,41.016,24.414,20.996,-18.066,0
1507344891.484,47.852,48.340,27.832,25.879,-20.508,0
1507344891.488,50.293,50.293,31.250,35.156,33.203,0
1507344891.492,50.781,45.410,50.781,31.250,24.414,0
1507344891.496,45.898,44.922,38.574,31.250,12.207,0
1507344891.500,47.363,49.805,29.297,36.133,25.879,0
1507344891.503,45.898,49.316,10.254,32.227,15.137,0
1507344891.507,43.945,41.992,-13.184,28.809,32.227,0
1507344891.511,53.223,42.969,27.344,38.574,-0.977,0
1507344891.515,54.199,49.316,53.223,35.645,-20.996,0
1507344891.519,40.527,48.340,49.316,26.855,14.648,0
1507344891.523,30.273,46.875,35.645,32.227,16.113,0
1507344891.527,21.973,34.180,12.695,24.902,28.809,0
1507344891.531,32.227,25.879,16.602,31.250,53.711,0
1507344891.535,43.457,39.551,21.484,41.504,46.875,0
1507344891.539,39.551,54.199,30.273,33.203,0.977,0
1507344891.543,37.109,55.176,44.434,31.738,-4.395,0
