timestamps,TP9,AF7,AF8,TP10,Right AUX,Marker0
1507427530.003,51.270,47.363,59.570,48.340,17.090,0
1507427530.007,54.199,55.176,52.246,52.734,0.977,0
1507427530.011,48.340,52.246,51.758,46.387,-5.859,0
1507427530.015,43.945,50.293,49.316,43.457,7.324,0
1507427530.019,53.223,51.270,57.617,54.199,22.949,0
1507427530.023,48.828,43.457,62.012,46.387,16.602,0
1507427530.027,40.039,46.387,56.641,33.203,-2.930,0
1507427530.031,43.945,42.480,46.875,38.086,13.672,0
1507427530.035,41.504,32.715,45.898,44.434,52.734,0
1507427530.038,36.621,32.227,40.527,36.621,10.254,0
1507427530.042,44.922,37.598,42.969,37.109,3.418,0
1507427530.046,50.781,42.969,34.668,42.969,46.387,0
1507427530.050,46.875,41.016,40.039,40.039,13.672,0
1507427530.054,38.574,44.434,64.941,37.109,7.812,0
1507427530.058,38.086,50.781,57.617,45.410,26.855,0
1507427530.062,37.109,46.387,42.969,39.062,25.879,0
1507427530.066,38.574,43.457,36.621,30.762,38.086,0
1507427530.070,47.363,47.852,35.645,39.062,17.578,0
1507427530.074,45.898,45.410,46.875,41.992,8.789,0
1507427530.078,34.668,44.434,61.035,35.156,39.551,0
1507427530.081,26.367,39.551,52.734,27.344,45.410,0
1507427530.085,20.508,20.020,41.992,23.438,9.766,0
1507427530.089,25.391,20.508,54.199,32.227,20.508,0
1507427530.093,37.598,31.738,41.504,36.133,46.875,0
1507427530.097,36.133,39.062,20.020,28.809,25.391,0
1507427530.101,19.043,44.434,34.668,20.020,-3.906,0
1507427530.105,11.719,45.898,41.504,19.531,5.859,0
1507427530.109,19.043,53.711,30.273,18.555,9.277,0
1507427530.113,23.926,51.270,47.852,15.625,-5.371,0
1507427530.117,20.508,38.086,63.965,16.602,6.348,0
1507427530.120,20.508,39.062,48.828,20.020,-14.648,0
1507427530.124,25.879,42.480,54.199,23.438,-7.812,0
1507427530.128,35.645,49.316,41.504,26.367,2.930,0
1507427530.132,48.828,54.199,36.133,33.691,-4.395,0
1507427530.136,52.246,55.664,58.594,40.527,23.438,0
1507427530.140,51.758,57.617,53.711,42.969,8.789,0
1507427530.144,46.387,52.246,63.965,48.340,-13.672,0
1507427530.148,44.922,52.246,73.730,45.410,15.137,0
1507427530.152,48.340,47.363,64.941,47.363,33.203,0
1507427530.156,46.875,36.621,42.969,51.270,8.789,0
1507427530.160,45.410,45.898,35.645,52.734,13.672,0
1507427530.163,46.387,56.641,59.082,55.176,18.555,0
1507427530.167,46.875,56.641,54.688,46.875,1.465,0
1507427530.171,43.457,55.664,41.016,45.410,-13.672,0
1507427530.175,41.016,46.875,57.617,44.922,-6.836,0
1507427530.179,42.969,45.898,67.871,42.480,14.648,0
1507427530.183,41.504,57.617,63.477,37.598,22.949,0
1507427530.187,33.691,55.664,62.988,31.250,27.344,0
1507427530.191,38.574,48.828,63.965,31.738,24.414,0
1507427530.195,39.062,48.340,70.801,27.344,29.785,0
1507427530.199,38.086,46.387,57.617,32.715,33.203,0
1507427530.203,41.992,47.852,38.574,40.039,34.180,0
1507427530.206,41.504,53.711,34.180,35.645,21.484,0
1507427530.210,39.551,57.617,45.898,32.227,2.441,0
1507427530.214,34.180,52.246,51.758,29.785,26.367,0
1507427530.218,42.969,47.363,43.457,38.086,17.090,0
1507427530.222,56.641,50.293,49.805,46.387,-23.926,0
1507427530.226,58.105,48.340,54.199,44.922,16.602,0
1507427530.230,52.246,47.852,53.223,46.875,38.086,0
1507427530.234,52.734,49.316,46.875,51.758,22.461,0
1507427530.238,58.105,46.875,31.250,57.617,3.418,0
1507427530.242,55.176,47.852,36.133,56.641,6.836,0
1507427530.245,56.152,54.688,59.082,56.641,56.152,0
1507427530.249,57.617,54.199,72.754,54.199,33.691,0
1507427530.253,49.316,54.199,64.941,51.270,5.371,0
1507427530.257,45.898,52.734,53.223,51.758,31.738,0
1507427530.261,45.898,52.246,47.852,50.781,28.320,0
1507427530.265,48.828,56.641,54.199,55.664,3.418,0
1507427530.269,47.363,48.828,62.500,51.758,16.113,0
1507427530.273,43.945,45.898,65.918,42.480,57.129,0
1507427530.277,57.129,57.617,78.125,51.758,58.105,0
1507427530.281,61.035,59.570,58.105,49.316,44.922,0
1507427530.285,54.688,57.617,28.809,36.621,43.457,0
1507427530.288,60.547,53.711,39.062,38.086,50.781,0
1507427530.292,60.059,42.480,35.156,33.203,43.457,0
1507427530.296,55.664,47.852,41.504,28.320,37.598,0
1507427530.300,61.523,52.734,62.988,28.809,20.996,0
1507427530.304,64.453,48.828,53.223,33.203,16.602,0
1507427530.308,51.270,36.133,53.223,30.273,7.812,0
1507427530.312,47.852,32.227,62.988,28.320,-20.020,0
1507427530.316,59.082,41.504,69.824,40.039,11.719,0
1507427530.320,58.105,44.434,64.941,44.434,33.691,0
1507427530.324,56.641,47.363,48.340,51.758,20.020,0
1507427530.328,58.105,45.898,56.641,56.641,12.695,0
1507427530.331,53.711,39.551,58.105,59.082,25.879,0
1507427530.335,52.734,45.410,38.086,61.523,50.781,0
1507427530.339,58.105,55.176,39.062,60.547,37.598,0
1507427530.343,62.988,51.758,58.105,59.082,31.250,0
1507427530.347,62.500,42.969,43.457,64.941,36.133,0
1507427530.351,61.035,40.527,48.340,72.754,25.879,0
1507427530.355,56.641,37.598,68.848,60.059,0.977,0
1507427530.359,58.105,42.480,58.594,52.734,-10.254,0
1507427530.363,56.641,58.105,74.707,52.246,24.414,0
1507427530.367,45.898,58.594,74.707,46.875,34.668,0
1507427530.370,47.363,56.152,64.453,50.781,18.066,0
1507427530.374,45.410,57.129,45.410,48.340,10.742,0
1507427530.378,35.156,49.805,27.832,40.039,27.832,0
1507427530.382,40.039,41.992,41.016,39.062,30.762,0
1507427530.386,43.457,41.504,53.711,39.551,0.977,0
1507427530.390,38.574,41.504,55.664,40.039,9.277,0
1507427530.394,37.598,39.551,50.781,41.992,46.875,0
1507427530.398,37.109,41.992,48.828,44.434,11.719,0
1507427530.402,37.598,48.340,58.105,46.875,-39.551,0
1507427530.406,41.016,43.945,52.734,47.363,-1.465,0
1507427530.410,42.969,39.551,41.016,44.922,25.391,0
1507427530.413,49.316,41.992,48.340,49.316,7.812,0
1507427530.417,48.828,41.504,60.059,53.223,11.230,0
1507427530.421,38.574,44.922,58.105,53.223,14.648,0
1507427530.425,43.457,50.293,50.781,58.594,9.277,0
1507427530.429,55.664,43.457,20.020,63.477,5.371,0
1507427530.433,53.711,37.109,27.344,58.594,17.090,0
1507427530.437,55.664,49.316,83.496,63.477,22.949,0
1507427530.441,52.734,61.035,72.266,63.477,22.949,0
1507427530.445,45.410,61.035,56.152,57.617,29.785,0
1507427530.449,42.480,53.223,64.941,55.664,4.883,0
1507427530.453,42.480,49.316,42.969,50.781,-9.277,0
1507427530.456,52.734,43.945,37.598,52.246,22.461,0
1507427530.460,57.617,40.527,43.945,57.129,3.418,0
1507427530.464,48.828,46.875,50.781,50.781,-29.297,0
1507427530.468,49.805,52.734,60.059,49.316,41.504,0
1507427530.472,58.105,55.664,68.359,54.688,40.039,0
1507427530.476,60.059,50.781,52.246,58.105,12.207,0
1507427530.480,63.965,50.293,35.645,63.965,29.297,0
1507427530.484,69.824,54.199,43.457,69.336,28.809,0
1507427530.488,63.965,55.176,41.504,62.012,19.531,0
1507427530.492,56.641,54.688,38.574,61.035,7.812,0
1507427530.495,58.594,55.664,48.340,66.895,1.953,0
1507427530.499,60.547,45.410,57.617,67.383,18.066,0
1507427530.503,59.082,40.527,66.406,72.754,1.465,0
1507427530.507,52.734,46.387,49.316,68.848,-20.020,0
1507427530.511,53.223,49.316,49.805,60.547,16.113,0
1507427530.515,64.453,55.176,46.875,65.430,21.484,0
1507427530.519,65.430,54.688,45.410,66.406,-7.324,0
1507427530.523,61.035,53.223,75.684,60.547,6.348,0
1507427530.527,61.523,63.477,53.711,64.453,29.297,0
1507427530.531,65.918,57.617,38.086,65.918,10.742,0
1507427530.535,64.941,52.246,54.199,62.988,10.254,0
1507427530.538,66.406,65.918,56.152,60.059,4.395,0
1507427530.542,65.430,63.965,66.406,52.246,6.348,0
1507427530.546,52.734,48.340,66.895,44.434,48.340,0
1507427530.550,44.434,40.039,53.711,43.945,12.207,0
1507427530.554,47.363,50.293,49.805,42.480,-15.137,0
1507427530.558,57.617,59.082,44.922,48.340,22.949,0
1507427530.562,63.965,54.688,54.199,60.547,9.766,0
1507427530.566,55.664,54.199,76.172,54.199,-13.184,0
1507427530.570,54.688,57.129,88.867,51.270,30.762,0
1507427530.574,62.500,58.105,78.125,63.965,45.898,0
1507427530.578,59.570,50.781,56.152,65.430,12.207,0
1507427530.581,55.176,52.734,56.152,62.012,30.762,0
1507427530.585,57.617,51.270,54.688,60.059,20.996,0
1507427530.589,58.105,34.668,59.570,53.711,32.227,0
1507427530.593,54.688,32.227,57.129,60.547,28.320,0
1507427530.597,49.316,49.805,35.156,56.152,0.977,0
1507427530.601,51.270,62.988,51.758,51.758,42.480,0
1507427530.605,57.129,54.688,84.473,54.688,61.523,0
1507427530.609,60.547,54.199,56.152,57.129,30.762,0
1507427530.613,71.289,50.781,33.203,62.012,15.137,0
1507427530.617,81.543,36.621,58.594,72.754,29.297,0
1507427530.620,76.660,48.340,72.266,77.148,38.086,0
1507427530.624,70.801,62.012,73.730,69.824,60.059,0
1507427530.628,70.312,71.777,82.031,68.848,68.359,0
1507427530.632,61.523,66.895,73.242,69.336,35.645,0
1507427530.636,59.082,56.152,60.547,59.082,27.344,0
1507427530.640,66.406,59.570,59.570,54.199,21.484,0
1507427530.644,65.430,62.012,54.199,58.105,-7.324,0
1507427530.648,60.547,55.664,48.828,53.711,14.648,0
1507427530.652,59.570,53.223,52.246,49.805,29.297,0
1507427530.656,56.641,50.293,48.340,52.246,12.207,0
1507427530.660,53.711,39.551,45.898,57.617,23.438,0
1507427530.663,47.852,32.227,32.227,52.246,29.785,0
1507427530.667,52.734,41.016,37.109,50.781,11.719,0
1507427530.671,56.641,49.316,44.434,51.758,5.371,0
1507427530.675,52.734,46.875,55.176,49.805,3.906,0
1507427530.679,56.641,49.805,62.500,50.293,4.883,0
1507427530.683,60.547,54.199,54.199,48.340,-16.602,0
1507427530.687,62.012,54.199,49.316,47.363,-36.133,0
1507427530.691,61.035,50.781,36.133,45.410,-8.789,0
1507427530.695,56.152,44.922,45.410,43.457,7.324,0
1507427530.699,49.805,45.898,44.922,38.574,7.324,0
1507427530.703,52.734,46.875,49.805,41.504,-0.977,0
1507427530.706,49.316,43.945,52.246,45.410,11.230,0
1507427530.710,44.922,41.992,32.715,42.969,-2.930,0
1507427530.714,48.340,36.133,39.062,41.504,0.977,0
1507427530.718,60.547,39.551,48.828,57.129,26.855,0
1507427530.722,57.617,40.039,62.988,60.059,26.855,0
1507427530.726,48.828,35.645,71.289,41.016,27.832,0
1507427530.730,48.340,47.852,47.363,41.504,-38.086,0
1507427530.734,53.223,54.199,37.109,51.270,-34.668,0
1507427530.738,55.176,54.199,34.668,47.363,30.273,0
1507427530.742,47.363,54.688,56.641,41.992,18.066,0
1507427530.745,48.828,40.527,65.430,41.504,-14.160,0
1507427530.749,52.246,34.668,53.223,40.527,12.695,0
1507427530.753,48.340,48.828,52.246,44.434,36.133,0
1507427530.757,51.758,54.688,41.992,52.246,22.461,0
1507427530.761,58.105,46.387,39.551,53.711,28.809,0
1507427530.765,61.035,40.527,55.176,52.734,52.734,0
1507427530.769,61.523,48.828,74.219,51.758,39.551,0
1507427530.773,60.059,58.594,80.566,49.805,55.176,0
1507427530.777,65.430,64.941,64.453,49.316,76.172,0
1507427530.781,62.988,61.035,57.129,54.688,47.363,0
1507427530.785,51.758,58.105,62.988,51.758,40.039,0
1507427530.788,55.664,60.059,48.340,52.246,24.414,0
1507427530.792,56.641,58.594,42.969,56.641,-1.465,0
1507427530.796,51.758,54.199,57.129,51.758,18.555,0
1507427530.800,60.059,53.223,58.105,50.781,44.922,0
1507427530.804,61.523,44.922,63.477,48.340,23.438,0
1507427530.808,54.688,41.992,60.059,41.016,2.930,0
1507427530.812,44.922,49.805,48.340,34.180,34.180,0
1507427530.816,39.551,52.734,58.594,30.762,41.992,0
1507427530.820,37.598,49.316,62.500,32.715,26.855,0
1507427530.824,37.109,35.156,41.016,34.180,22.461,0
1507427530.828,39.062,31.250,30.762,34.668,42.969,0
1507427530.831,38.086,47.363,22.461,33.203,31.738,0
1507427530.835,45.410,51.270,17.578,39.551,28.809,0
1507427530.839,53.223,50.781,43.945,46.875,7.812,0
1507427530.843,62.012,56.152,48.828,55.664,3.418,0
1507427530.847,62.500,54.688,27.832,60.059,23.926,0
1507427530.851,57.129,45.410,57.617,50.781,-9.277,0
1507427530.855,55.176,43.457,54.199,49.316,-11.230,0
1507427530.859,49.805,46.387,36.133,56.152,29.785,0
1507427530.863,51.758,47.852,76.660,58.105,41.016,0
1507427530.867,53.711,50.293,85.449,52.734,23.926,0
1507427530.870,48.340,48.828,73.242,49.805,16.602,0
1507427530.874,48.828,42.480,54.688,49.805,23.926,0
1507427530.878,44.922,37.109,46.875,49.316,16.602,0
1507427530.882,41.016,42.480,46.875,43.945,1.465,0
1507427530.886,44.922,44.922,42.480,37.598,23.926,0
1507427530.890,48.340,36.621,58.105,36.621,31.250,0
1507427530.894,52.734,38.086,59.570,43.457,9.766,0
1507427530.898,53.711,41.016,28.320,47.852,8.301,0
1507427530.902,55.176,45.410,26.855,44.434,37.109,0
1507427530.906,56.152,49.316,50.781,38.574,58.105,0
1507427530.910,62.012,44.922,62.988,45.410,43.945,0
1507427530.913,53.711,56.152,39.551,41.504,25.391,0
1507427530.917,41.504,62.012,43.457,40.039,49.805,0
1507427530.921,40.527,61.523,62.988,43.945,43.457,0
1507427530.925,45.898,62.012,59.570,41.016,5.371,0
1507427530.929,58.594,56.641,62.500,42.969,-17.578,0
1507427530.933,63.477,48.828,72.754,51.270,13.672,0
1507427530.937,62.988,54.688,68.848,52.734,24.414,0
1507427530.941,60.547,57.129,48.340,52.734,27.832,0
1507427530.945,55.176,51.758,53.711,54.688,62.500,0
1507427530.949,53.711,49.316,55.176,52.734,46.875,0
1507427530.953,54.688,46.387,55.176,54.199,20.020,0
1507427530.956,55.176,51.270,54.688,59.082,13.672,0
1507427530.960,64.941,57.617,42.480,68.359,29.297,0
1507427530.964,65.918,44.922,51.270,62.012,24.902,0
1507427530.968,60.059,26.367,66.895,51.758,1.465,0
1507427530.972,62.988,23.926,59.570,51.270,-11.719,0
1507427530.976,68.359,43.457,34.668,52.246,12.207,0
1507427530.980,59.570,63.477,53.223,52.734,24.902,0
1507427530.984,42.969,62.988,84.473,44.434,14.648,0
1507427530.988,43.945,60.547,78.125,41.504,19.531,0
1507427530.992,50.781,65.430,56.641,45.898,25.879,0
1507427530.995,58.594,65.918,45.410,52.734,30.273,0
1507427530.999,48.340,55.664,50.293,52.734,12.207,0
1507427531.003,33.691,45.898,60.547,49.805,19.531,0
1507427531.007,43.945,47.852,82.520,55.664,18.066,0
1507427531.011,56.641,43.945,75.195,57.129,5.371,0
1507427531.015,61.035,34.180,46.387,58.105,-3.418,0
1507427531.019,62.012,36.133,43.457,62.012,-2.930,0
1507427531.023,59.570,42.480,47.852,58.594,47.363,0
1507427531.027,62.012,49.316,27.344,63.477,20.020,0
1507427531.031,65.918,46.875,19.531,66.406,-11.719,0
1507427531.035,65.430,41.504,39.062,57.617,19.043,0
1507427531.038,60.059,41.504,40.527,52.734,55.664,0
1507427531.042,60.059,40.039,32.715,60.059,60.547,0
1507427531.046,54.688,35.645,51.270,61.035,51.758,0
1507427531.050,57.617,39.062,47.363,59.082,30.762,0
1507427531.054,69.336,44.434,24.902,62.500,24.902,0
1507427531.058,64.453,41.016,38.574,61.035,14.648,0
1507427531.062,65.918,43.945,60.059,65.430,-32.227,0
1507427531.066,67.871,46.387,41.504,72.266,-0.977,0
1507427531.070,57.129,31.738,24.414,64.941,47.852,0
1507427531.074,60.547,29.785,41.016,64.453,24.414,0
1507427531.078,58.105,51.270,40.527,64.453,-1.465,0
1507427531.081,49.316,54.199,51.270,64.453,21.484,0
1507427531.085,54.199,47.363,46.875,56.641,20.020,0
1507427531.089,54.688,45.410,20.508,48.340,5.371,0
1507427531.093,51.270,39.551,7.324,49.805,22.461,0
1507427531.097,60.547,41.016,30.762,54.199,18.066,0
1507427531.101,64.453,42.480,71.289,54.199,0.000,0
1507427531.105,65.918,43.457,70.801,49.316,-12.695,0
1507427531.109,68.848,46.387,63.477,46.875,-3.906,0
1507427531.113,65.430,48.340,62.012,46.387,2.930,0
1507427531.117,74.219,51.270,49.805,53.711,-5.859,0
1507427531.120,76.660,51.758,46.875,54.199,5.859,0
1507427531.124,66.895,51.758,58.105,45.410,19.043,0
1507427531.128,65.918,50.781,58.594,48.340,38.086,0
1507427531.132,61.035,46.875,56.152,44.922,23.438,0
1507427531.136,46.875,37.109,53.711,39.062,1.465,0
1507427531.140,42.969,38.574,39.551,39.551,9.277,0
1507427531.144,51.758,50.781,30.762,44.434,36.621,0
1507427531.148,57.129,52.246,29.785,46.387,13.672,0
1507427531.152,53.711,48.828,35.645,45.410,-26.855,0
1507427531.156,50.293,46.387,53.711,50.781,8.301,0
1507427531.160,55.664,53.223,55.664,51.270,30.762,0
1507427531.163,56.641,50.293,53.711,43.457,20.020,0
1507427531.167,47.363,45.410,62.012,43.457,26.367,0
1507427531.171,58.105,46.387,52.734,52.734,22.461,0
1507427531.175,55.176,43.945,59.570,50.293,24.902,0
1507427531.179,48.828,44.434,71.289,42.480,44.434,0
1507427531.183,59.082,49.316,74.707,45.410,26.367,0
1507427531.187,49.805,49.805,59.570,54.199,10.254,0
1507427531.191,35.156,47.363,50.293,53.223,43.945,0
1507427531.195,40.039,47.363,36.133,45.898,17.090,0
1507427531.199,42.969,43.945,25.879,44.922,8.789,0
1507427531.203,37.109,27.344,47.363,41.504,24.414,0
1507427531.206,40.527,27.832,59.570,41.992,16.602,0
1507427531.210,53.223,33.203,59.082,54.199,30.273,0
1507427531.214,47.363,30.273,38.574,53.223,17.578,0
1507427531.218,40.039,43.457,56.641,51.758,32.715,0
1507427531.222,42.969,52.734,62.012,49.805,58.105,0
1507427531.226,41.016,51.270,39.062,42.480,44.922,0
1507427531.230,39.062,49.316,60.547,49.316,29.297,0
1507427531.234,41.504,46.387,83.008,54.688,23.926,1
1507427531.238,43.945,54.688,62.012,46.387,19.531,0
1507427531.242,46.387,58.594,49.805,42.969,7.324,0
1507427531.245,49.316,51.270,60.547,47.363,-2.441,0
1507427531.249,45.898,48.340,64.453,54.688,26.367,0
1507427531.253,48.340,47.363,37.598,56.641,29.297,0
1507427531.257,51.758,44.434,17.090,56.152,3.906,0
1507427531.261,43.945,38.574,62.012,52.734,35.156,0
1507427531.265,36.133,37.109,78.613,48.828,43.457,0
1507427531.269,40.039,39.551,70.801,60.547,4.395,0
1507427531.273,42.480,41.016,76.660,63.965,25.391,0
1507427531.277,41.504,41.016,71.777,52.246,59.570,0
1507427531.281,42.969,42.969,58.105,52.246,62.012,0
1507427531.285,47.852,45.410,55.664,56.641,36.133,0
1507427531.288,49.805,40.039,49.316,55.176,31.250,0
1507427531.292,54.688,39.062,52.734,56.152,38.086,0
1507427531.296,52.734,44.922,68.359,60.059,11.230,0
1507427531.300,57.617,42.969,62.012,61.035,-24.414,0
1507427531.304,71.289,44.434,63.965,64.941,-27.832,0
1507427531.308,66.895,47.852,69.336,68.848,-7.324,0
1507427531.312,61.523,54.688,51.270,73.242,-6.348,0
1507427531.316,57.129,55.664,43.457,70.312,2.930,0
1507427531.320,50.293,44.434,58.105,61.523,31.738,0
1507427531.324,51.758,41.504,71.289,55.664,7.324,0
1507427531.328,57.129,42.969,69.336,53.223,7.812,0
1507427531.331,60.059,45.898,42.969,57.617,28.320,0
1507427531.335,61.523,48.828,31.250,61.523,24.414,0
1507427531.339,56.641,49.316,34.180,52.246,33.691,0
1507427531.343,52.734,47.852,47.363,51.758,-2.930,0
1507427531.347,56.152,45.410,62.500,58.105,-7.324,0
1507427531.351,52.246,43.457,66.895,53.223,32.715,0
1507427531.355,43.457,43.945,60.547,45.410,24.414,0
1507427531.359,50.781,43.945,62.988,51.758,26.367,0
1507427531.363,54.688,41.504,60.547,58.594,43.457,0
1507427531.367,53.711,41.992,52.734,54.199,38.574,0
1507427531.370,54.688,45.898,49.805,51.758,39.551,0
1507427531.374,56.641,48.340,50.293,50.293,15.137,0
1507427531.378,57.129,46.387,49.805,47.363,17.090,0
1507427531.382,51.270,46.875,41.992,52.734,50.293,0
1507427531.386,54.199,50.293,27.832,56.152,34.668,0
1507427531.390,57.617,48.828,48.340,56.641,8.789,0
1507427531.394,59.570,51.270,68.848,62.012,14.160,0
1507427531.398,65.430,54.688,75.684,66.895,43.945,0
1507427531.402,63.965,56.152,75.684,70.312,39.551,0
1507427531.406,61.035,45.410,66.406,66.895,22.461,0
1507427531.410,62.500,34.180,49.316,59.082,39.551,0
1507427531.413,61.523,44.434,40.039,59.570,37.109,0
1507427531.417,61.523,56.152,30.762,58.105,30.762,0
1507427531.421,60.547,55.176,37.598,55.664,17.578,0
1507427531.425,52.734,50.293,56.641,47.852,16.113,0
1507427531.429,53.711,40.039,56.152,43.457,19.531,0
1507427531.433,51.758,33.691,62.988,46.387,2.441,0
1507427531.437,45.410,38.086,58.105,50.293,-9.766,0
1507427531.441,40.039,39.551,41.504,52.734,-27.344,0
1507427531.445,34.668,28.809,30.273,44.922,-2.930,0
1507427531.449,39.062,20.508,69.336,44.922,11.719,0
1507427531.453,41.992,29.297,88.379,48.828,11.230,0
1507427531.456,42.969,32.227,67.871,50.293,37.109,0
1507427531.460,39.062,33.691,44.922,52.734,34.668,0
1507427531.464,31.250,40.527,37.598,43.457,15.625,0
1507427531.468,33.203,42.969,64.453,40.527,6.836,0
1507427531.472,40.039,21.973,74.707,52.734,26.855,0
1507427531.476,41.992,6.348,65.918,57.129,38.574,0
1507427531.480,55.176,18.066,63.477,65.430,15.625,0
1507427531.484,69.824,26.855,33.203,74.219,2.930,0
1507427531.488,66.895,22.461,26.367,73.242,26.855,0
1507427531.492,65.430,42.480,97.656,75.684,13.672,0
1507427531.495,72.754,54.199,64.941,76.660,-47.852,0
1507427531.499,69.336,43.945,25.391,74.707,-16.113,0
1507427531.503,64.941,53.223,98.145,78.613,29.297,0
1507427531.507,62.500,49.316,94.238,78.125,-5.859,0
1507427531.511,67.383,30.762,56.641,81.055,-18.066,0
1507427531.515,72.754,35.645,43.945,84.961,10.254,0
1507427531.519,78.125,48.340,8.789,85.449,44.434,0
1507427531.523,76.660,60.547,29.785,83.008,16.113,0
1507427531.527,62.012,52.734,55.176,75.684,10.742,0
1507427531.531,62.500,24.414,96.191,74.707,53.223,0
1507427531.535,62.012,38.086,98.145,70.801,47.852,0
1507427531.538,54.688,60.059,64.453,66.895,31.738,0
1507427531.542,58.105,67.871,67.871,67.383,45.898,0
1507427531.546,57.617,59.082,65.430,68.848,33.691,0
1507427531.550,68.359,51.758,59.082,68.848,44.434,0
1507427531.554,69.824,49.805,61.523,56.641,11.230,0
1507427531.558,61.035,37.598,52.734,47.363,-16.602,0
1507427531.562,65.430,39.551,29.297,53.711,9.277,0
1507427531.566,63.477,52.734,50.781,59.082,2.441,0
1507427531.570,57.617,56.641,82.031,58.594,27.344,0
1507427531.574,60.059,46.875,48.828,59.082,28.320,0
1507427531.578,65.430,38.574,31.250,57.129,25.391,0
1507427531.581,62.988,36.133,50.293,57.129,44.922,0
1507427531.585,65.918,37.109,32.227,60.059,20.996,0
1507427531.589,72.266,42.969,56.641,69.824,15.625,0
1507427531.593,76.172,54.199,71.777,76.172,25.391,0
1507427531.597,66.406,50.293,46.387,68.359,9.277,0
1507427531.601,57.617,36.621,30.762,63.965,16.602,0
1507427531.605,65.918,40.039,40.527,64.453,16.602,0
1507427531.609,60.547,47.852,57.129,60.059,14.160,0
1507427531.613,61.523,50.293,58.594,59.570,20.996,0
1507427531.617,71.289,47.363,65.918,67.383,17.090,0
1507427531.620,57.617,46.875,58.594,60.547,5.371,0
1507427531.624,48.828,48.340,47.363,54.688,39.062,0
1507427531.628,57.129,49.316,34.668,59.082,37.109,0
1507427531.632,60.547,44.434,22.949,57.129,-10.742,0
1507427531.636,63.965,54.688,28.320,55.664,12.207,0
1507427531.640,70.801,62.988,39.062,58.105,39.062,0
1507427531.644,65.918,58.594,45.898,58.594,33.691,0
1507427531.648,62.500,49.805,48.828,65.430,16.113,0
1507427531.652,63.477,36.621,73.730,62.012,40.039,0
1507427531.656,62.500,47.852,74.707,53.711,40.527,0
1507427531.660,59.082,57.617,60.059,56.152,19.531,0
1507427531.663,55.176,51.758,44.434,56.641,-2.441,0
1507427531.667,51.758,56.152,64.941,59.570,11.719,0
1507427531.671,61.035,62.988,66.895,70.312,36.621,0
1507427531.675,62.500,54.688,30.762,66.406,8.301,0
1507427531.679,55.664,46.875,20.996,60.059,22.461,0
1507427531.683,64.941,47.363,57.617,72.266,45.898,0
1507427531.687,69.336,46.387,87.891,73.730,25.391,0
1507427531.691,71.289,41.016,80.078,71.289,23.926,0
1507427531.695,64.453,34.180,73.242,62.500,35.156,0
1507427531.699,70.801,34.180,59.570,64.941,26.855,0
1507427531.703,66.895,49.316,46.387,68.359,16.113,0
1507427531.706,44.434,64.941,49.316,55.664,1.953,0
1507427531.710,51.270,64.941,65.430,57.129,-12.695,0
1507427531.714,61.035,65.918,47.852,59.082,2.930,0
1507427531.718,58.594,53.711,40.527,57.129,19.531,0
1507427531.722,64.941,43.945,36.133,56.152,13.184,0
1507427531.726,61.523,48.340,46.875,54.688,13.672,0
1507427531.730,56.641,34.668,53.711,59.082,36.621,0
1507427531.734,58.105,36.621,48.340,59.570,31.738,0
1507427531.738,52.734,54.688,53.711,56.152,10.742,0
1507427531.742,55.176,59.570,67.383,55.664,42.480,0
1507427531.745,58.105,63.965,78.613,54.199,53.223,0
1507427531.749,57.129,71.289,60.547,54.688,-16.113,0
1507427531.753,56.641,53.711,35.645,56.152,3.906,0
1507427531.757,52.734,35.156,39.062,56.641,52.246,0
1507427531.761,52.246,46.875,58.594,56.152,24.902,0
1507427531.765,54.688,55.176,49.805,53.711,-4.395,0
1507427531.769,52.734,51.270,37.109,52.246,-2.441,0
1507427531.773,52.246,51.270,36.621,53.223,28.809,0
1507427531.777,60.059,56.152,55.664,60.059,14.160,0
1507427531.781,58.594,54.688,72.754,60.059,-15.625,0
1507427531.785,56.152,52.246,57.129,56.641,-3.906,0
1507427531.788,57.617,53.223,44.922,61.035,21.484,0
1507427531.792,54.199,42.480,59.570,58.594,13.672,0
1507427531.796,62.500,38.086,48.828,57.617,20.020,0
1507427531.800,70.801,42.969,37.109,60.059,15.625,0
1507427531.804,59.570,34.668,18.066,50.781,32.715,0
1507427531.808,41.992,43.457,5.859,46.387,10.742,0
1507427531.812,41.992,46.387,57.617,44.922,-40.527,0
1507427531.816,48.340,34.668,83.496,48.828,19.043,0
1507427531.820,52.246,43.457,48.828,53.223,26.367,0
1507427531.824,52.734,58.594,21.973,53.223,0.000,0
1507427531.828,43.945,59.570,58.105,52.734,16.113,0
1507427531.831,49.316,53.223,84.961,52.246,49.316,0
1507427531.835,60.059,51.758,68.848,56.641,68.848,0
1507427531.839,62.012,54.199,60.059,58.105,11.230,0
1507427531.843,57.129,47.363,45.898,52.246,8.789,0
1507427531.847,45.898,47.852,29.297,47.852,23.438,0
1507427531.851,40.527,60.059,52.246,43.945,20.020,0
1507427531.855,45.410,58.105,75.684,41.016,-21.484,0
1507427531.859,48.340,56.152,78.125,45.410,-26.855,0
1507427531.863,46.875,57.129,58.105,48.340,30.762,0
1507427531.867,51.758,54.199,44.922,53.223,4.883,0
1507427531.870,51.758,47.852,51.270,54.199,1.953,0
1507427531.874,46.875,41.016,55.664,46.387,45.898,0
1507427531.878,55.664,45.410,40.039,54.688,52.734,0
1507427531.882,66.406,60.059,34.668,65.918,18.555,0
1507427531.886,65.430,61.035,39.062,62.988,32.715,0
1507427531.890,61.035,50.781,41.016,55.664,48.340,0
1507427531.894,57.129,41.504,80.078,48.828,25.391,0
1507427531.898,47.363,34.180,76.172,48.340,24.902,0
1507427531.902,40.039,37.598,46.387,47.852,8.789,0
1507427531.906,39.551,39.062,61.035,40.527,24.902,0
1507427531.910,40.039,44.434,59.570,39.551,67.871,0
1507427531.913,39.062,46.875,46.875,43.945,31.738,0
1507427531.917,39.062,47.852,45.898,44.434,12.695,0
1507427531.921,50.293,47.852,41.992,49.316,66.895,0
1507427531.925,55.664,41.016,44.434,53.223,82.031,0
1507427531.929,43.945,27.344,47.363,49.316,40.039,0
1507427531.933,40.527,33.691,44.922,52.734,47.852,0
1507427531.937,51.758,53.223,44.434,59.082,45.410,0
1507427531.941,48.828,53.711,59.082,54.688,15.625,0
1507427531.945,43.945,50.781,68.848,53.223,49.316,0
1507427531.949,41.504,41.016,72.266,46.387,34.668,0
1507427531.953,35.645,39.551,46.875,38.086,13.672,0
1507427531.956,40.527,47.852,31.250,42.969,16.602,0
1507427531.960,33.203,41.992,63.477,34.668,20.996,0
1507427531.964,27.832,26.855,51.758,33.691,27.832,0
1507427531.968,35.156,39.062,31.738,36.133,26.367,0
1507427531.972,39.551,44.434,20.996,38.574,4.395,0
1507427531.976,36.133,16.113,61.523,39.551,-8.789,0
1507427531.980,36.133,21.973,39.062,36.133,24.414,0
1507427531.984,40.527,38.574,-1.953,40.039,46.387,0
1507427531.988,36.133,36.133,72.266,34.180,51.270,0
1507427531.992,41.016,42.969,102.051,40.527,57.617,0
1507427531.995,58.105,41.504,94.727,60.547,33.691,0
1507427531.999,71.289,49.316,78.613,68.359,48.828,0
1507427532.003,72.754,71.289,62.012,65.918,21.484,0
1507427532.007,62.012,61.523,62.500,57.617,-13.184,0
1507427532.011,68.848,53.223,58.105,51.758,21.973,0
1507427532.015,82.520,38.086,20.020,56.152,25.879,0
1507427532.019,90.332,36.621,9.766,64.453,-9.766,0
1507427532.023,78.613,56.152,42.480,58.105,-3.906,0
1507427532.027,72.754,70.312,71.289,62.012,42.480,0
1507427532.031,79.590,60.059,84.961,71.289,14.648,0
1507427532.035,68.359,39.062,82.031,59.082,6.836,0
1507427532.038,72.754,47.852,60.059,63.965,21.484,0
1507427532.042,64.941,59.082,42.969,70.312,16.113,0
1507427532.046,55.176,56.152,41.992,73.242,2.930,0
1507427532.050,59.082,39.551,51.758,75.195,-9.277,0
1507427532.054,65.430,31.738,36.621,74.219,25.391,0
1507427532.058,66.895,31.738,10.254,71.289,53.711,0
1507427532.062,68.359,38.574,51.270,68.848,32.715,0
1507427532.066,63.965,58.594,90.820,62.012,16.602,0
1507427532.070,62.500,58.594,75.195,60.059,10.742,0
1507427532.074,66.895,49.316,72.266,64.941,14.648,0
1507427532.078,69.336,41.504,74.707,61.035,17.578,0
1507427532.081,71.777,44.922,51.758,63.965,2.930,0
1507427532.085,61.035,37.598,43.457,61.523,15.625,0
1507427532.089,52.734,21.973,44.922,61.523,22.461,0
1507427532.093,57.617,34.180,25.391,67.871,25.391,0
1507427532.097,58.594,48.828,45.898,69.824,31.250,0
1507427532.101,60.059,42.480,78.613,68.359,42.480,0
1507427532.105,57.617,46.875,47.852,64.453,49.316,0
1507427532.109,51.758,46.387,46.875,65.918,50.293,0
1507427532.113,53.223,31.738,37.109,65.918,48.828,0
1507427532.117,46.387,30.762,36.621,59.082,38.574,0
1507427532.120,42.480,24.902,73.730,59.082,28.809,0
1507427532.124,44.922,40.527,52.246,63.477,10.742,0
1507427532.128,45.898,58.105,57.617,61.035,-10.254,0
1507427532.132,46.875,46.387,73.730,57.129,2.930,0
1507427532.136,44.922,43.945,45.898,57.617,19.531,0
1507427532.140,43.945,50.293,62.012,64.453,-15.137,0
1507427532.144,41.016,43.457,75.195,58.594,-21.484,0
1507427532.148,46.387,47.363,39.062,54.688,39.062,0
1507427532.152,52.246,52.246,-8.301,61.523,32.715,0
1507427532.156,49.316,34.180,13.672,59.082,4.883,0
1507427532.160,50.781,36.133,62.988,55.176,14.648,0
1507427532.163,39.551,47.852,78.125,46.387,18.555,0
1507427532.167,41.504,44.434,54.688,47.852,31.738,0
1507427532.171,49.805,41.016,46.387,49.316,24.414,0
1507427532.175,47.363,43.945,65.918,49.805,12.207,0
1507427532.179,51.270,47.852,34.668,64.941,44.434,0
1507427532.183,51.758,46.387,48.340,59.570,25.879,0
1507427532.187,48.340,53.711,56.152,53.223,-20.996,0
1507427532.191,42.969,55.664,44.434,52.734,0.000,0
1507427532.195,37.598,45.898,71.289,49.805,26.367,0
1507427532.199,39.551,39.062,60.547,51.758,19.043,0
1507427532.203,44.434,44.434,51.270,49.805,15.137,0
1507427532.206,43.945,44.434,41.992,50.293,23.438,0
1507427532.210,46.875,41.016,45.898,51.758,24.902,0
1507427532.214,45.410,38.086,45.410,47.852,13.672,0
1507427532.218,49.805,32.227,36.621,53.223,11.230,0
1507427532.222,47.852,52.734,40.039,50.781,13.184,0
1507427532.226,36.621,64.453,31.738,38.574,20.996,0
1507427532.230,43.945,63.477,66.406,40.527,10.254,0
1507427532.234,38.574,60.059,84.961,39.062,13.184,0
1507427532.238,22.949,54.688,66.406,27.344,22.461,0
1507427532.242,25.879,49.805,55.664,22.949,33.203,0
1507427532.245,25.391,47.363,31.250,19.531,16.602,0
1507427532.249,17.578,42.480,35.156,18.066,5.859,0
1507427532.253,16.602,42.969,52.246,16.113,31.250,0
1507427532.257,13.184,44.434,50.781,13.184,22.461,0
1507427532.261,16.113,46.875,33.691,14.648,9.277,0
1507427532.265,18.555,47.363,17.090,15.625,33.203,0
1507427532.269,12.207,39.551,32.715,12.695,43.457,0
1507427532.273,-2.930,36.133,20.020,4.883,13.184,0
1507427532.277,-9.277,34.668,37.598,1.465,-0.488,0
1507427532.281,-9.277,21.973,30.273,-11.230,31.738,0
1507427532.285,-3.906,7.324,38.086,-16.113,39.062,0
1507427532.288,-2.930,35.645,84.473,-13.184,2.441,0
1507427532.292,-4.395,41.992,61.523,-11.230,0.000,0
1507427532.296,-11.230,36.133,55.664,-18.066,29.785,0
1507427532.300,-13.184,64.453,54.688,-22.461,19.531,0
1507427532.304,-6.836,68.359,55.664,-13.672,21.484,0
1507427532.308,-2.441,57.129,80.566,0.000,15.625,0
1507427532.312,6.348,44.434,67.383,2.930,24.902,0
1507427532.316,5.859,35.645,30.762,-4.883,48.828,0
1507427532.320,8.789,46.875,25.879,-3.906,20.508,0
1507427532.324,4.883,47.852,63.965,-5.859,-12.207,0
1507427532.328,0.488,32.227,76.660,-3.906,11.719,0
1507427532.331,8.301,50.781,51.758,2.930,21.973,0
1507427532.335,13.672,67.383,38.574,-1.953,-8.301,0
1507427532.339,16.113,58.594,58.594,0.977,-0.977,0
1507427532.343,16.602,54.688,66.406,11.719,22.461,0
1507427532.347,8.789,45.898,76.172,11.719,-5.371,0
1507427532.351,4.395,39.062,77.148,2.930,-26.855,0
1507427532.355,18.066,37.598,44.922,7.812,-15.625,0
1507427532.359,19.043,37.109,-0.488,15.625,-20.996,0
1507427532.363,10.254,49.316,38.574,14.648,-28.809,0
1507427532.367,12.695,53.711,77.148,18.555,7.812,0
1507427532.370,20.020,52.734,22.461,11.719,14.648,0
1507427532.374,20.508,48.828,31.738,9.277,-4.395,0
1507427532.378,19.531,38.574,81.543,19.043,5.371,0
1507427532.382,26.367,40.039,74.219,19.043,-23.438,0
1507427532.386,30.273,46.875,51.270,22.949,-33.691,0
1507427532.390,33.691,54.199,39.062,28.809,-2.930,0
1507427532.394,41.504,48.340,45.410,26.855,-17.090,0
1507427532.398,45.898,40.039,49.805,29.297,-12.207,0
1507427532.402,47.363,54.199,41.016,30.762,36.133,0
1507427532.406,42.480,62.988,36.621,34.180,38.086,0
1507427532.410,41.016,50.293,37.109,34.668,7.324,0
1507427532.413,50.781,46.875,48.340,36.133,8.789,0
1507427532.417,51.270,54.688,56.152,37.598,28.320,0
1507427532.421,51.270,55.664,55.664,38.086,23.926,0
1507427532.425,56.152,55.664,53.711,40.039,-13.672,0
1507427532.429,43.945,49.805,36.621,27.344,5.859,0
1507427532.433,40.039,51.758,41.504,33.203,36.621,0
1507427532.437,50.293,55.176,56.152,46.387,-8.789,0
1507427532.441,48.828,50.781,36.621,39.062,1.953,0
1507427532.445,42.969,49.316,39.062,31.250,50.293,0
1507427532.449,43.457,43.457,46.875,36.621,33.691,0
1507427532.453,45.410,46.387,27.344,43.457,17.090,0
1507427532.456,41.992,55.176,41.016,37.109,20.508,0
1507427532.460,35.156,50.781,47.363,28.809,11.719,0
1507427532.464,33.691,47.852,43.945,24.902,-0.977,0
1507427532.468,42.480,50.293,41.504,35.156,-12.207,0
1507427532.472,47.363,53.711,38.086,39.551,-15.625,0
1507427532.476,45.410,53.223,42.480,37.598,16.113,0
1507427532.480,42.480,47.852,25.879,40.039,46.387,0
1507427532.484,37.598,48.340,24.902,26.367,20.020,0
1507427532.488,36.133,45.898,57.617,23.926,33.203,0
1507427532.492,33.691,45.410,45.898,28.320,36.621,0
1507427532.495,25.879,46.387,27.344,16.602,14.160,0
1507427532.499,24.902,44.922,45.898,17.578,23.438,0
1507427532.503,27.832,47.363,62.012,19.531,30.273,2
1507427532.507,20.020,44.434,75.195,13.672,10.742,0
1507427532.511,19.531,43.945,59.570,18.555,18.555,0
1507427532.515,28.320,54.199,23.438,24.414,-3.906,0
1507427532.519,35.156,56.641,20.996,30.273,-19.531,0
1507427532.523,36.133,52.734,51.758,20.020,33.691,0
1507427532.527,31.250,57.617,64.453,17.578,38.574,0
1507427532.531,32.715,61.523,53.711,27.344,24.902,0
1507427532.535,35.645,60.059,60.547,24.414,36.621,0
1507427532.538,27.832,55.664,65.918,21.973,56.152,0
1507427532.542,24.902,61.035,62.988,22.949,32.715,0
1507427532.546,21.973,55.664,68.359,20.020,-3.418,0
1507427532.550,23.926,35.156,54.199,18.555,30.273,0
1507427532.554,27.344,49.805,39.062,22.461,24.902,0
1507427532.558,28.809,54.688,32.715,15.625,-9.766,0
1507427532.562,34.180,50.781,36.621,11.719,-12.695,0
1507427532.566,31.738,65.918,50.781,17.578,28.320,0
1507427532.570,25.391,58.105,31.738,19.531,36.133,0
1507427532.574,22.949,61.523,35.645,21.484,5.371,0
1507427532.578,31.250,67.383,72.266,23.438,-10.254,0
1507427532.581,35.156,63.965,74.707,24.902,14.160,0
1507427532.585,39.551,68.848,84.961,31.250,20.508,0
1507427532.589,51.270,84.473,74.707,41.504,9.277,0
1507427532.593,53.711,83.008,69.336,39.551,25.879,0
1507427532.597,52.246,70.801,79.102,35.156,12.695,0
1507427532.601,47.363,68.359,69.336,44.922,9.766,0
1507427532.605,35.645,53.223,68.848,39.062,4.883,0
1507427532.609,35.156,45.898,82.031,32.227,-5.859,0
1507427532.613,40.039,63.965,58.105,36.133,19.043,0
1507427532.617,40.527,73.242,42.969,34.180,6.348,0
1507427532.620,32.227,60.547,58.594,26.367,-3.906,0
1507427532.624,29.297,59.082,61.035,27.344,16.602,0
1507427532.628,39.062,65.430,53.223,35.645,18.066,0
1507427532.632,38.086,61.035,55.664,33.691,23.926,0
1507427532.636,39.062,61.523,48.828,36.133,15.137,0
1507427532.640,39.551,53.711,48.828,38.086,26.367,0
1507427532.644,35.645,46.387,62.500,34.668,45.898,0
1507427532.648,41.016,56.641,55.664,36.621,17.578,0
1507427532.652,38.574,59.570,58.594,29.297,-6.348,0
1507427532.656,38.574,62.500,60.547,23.438,38.574,0
1507427532.660,43.945,55.176,58.594,24.414,45.410,0
1507427532.663,43.945,39.062,47.852,27.344,4.883,0
1507427532.667,36.621,42.480,38.086,31.738,19.043,0
1507427532.671,31.738,47.363,56.641,32.715,20.508,0
1507427532.675,45.898,52.246,39.062,44.434,33.203,0
1507427532.679,46.387,55.664,11.719,41.504,37.598,0
1507427532.683,36.621,42.480,18.066,30.273,13.184,0
1507427532.687,36.133,48.828,52.246,32.227,29.297,0
1507427532.691,40.527,58.105,77.637,30.762,41.992,0
1507427532.695,42.480,50.293,63.965,31.250,19.043,0
1507427532.699,37.109,50.293,54.199,34.180,17.090,0
1507427532.703,45.410,53.711,56.152,41.016,41.992,0
1507427532.706,52.734,59.570,59.082,53.223,35.645,0
1507427532.710,48.340,58.105,58.594,47.852,-6.348,0
1507427532.714,52.734,56.641,41.504,43.457,-4.395,0
1507427532.718,55.664,60.059,41.504,51.758,45.898,0
1507427532.722,54.688,58.105,60.059,49.805,20.996,0
1507427532.726,51.270,59.082,55.664,46.387,17.090,0
1507427532.730,60.547,60.059,44.434,57.129,18.555,0
1507427532.734,57.617,51.758,44.434,45.410,26.855,0
1507427532.738,40.527,43.457,46.875,33.203,33.203,0
1507427532.742,37.598,42.969,33.691,31.738,0.488,0
1507427532.745,38.086,32.227,42.480,30.273,4.395,0
1507427532.749,43.945,27.344,56.641,36.133,13.184,0
1507427532.753,43.945,50.781,31.250,37.109,-2.441,0
1507427532.757,40.527,55.664,12.695,33.203,-0.488,0
1507427532.761,44.922,41.504,30.273,33.691,23.438,0
1507427532.765,41.992,48.828,50.293,39.062,20.020,0
1507427532.769,33.691,56.152,67.383,32.715,18.555,0
1507427532.773,39.062,50.293,52.734,33.691,26.367,0
1507427532.777,41.016,47.852,40.527,34.180,26.855,0
1507427532.781,35.645,47.363,29.297,27.344,22.461,0
1507427532.785,31.250,44.434,26.855,29.785,5.371,0
1507427532.788,35.645,46.875,49.316,36.621,-22.461,0
1507427532.792,44.434,47.852,42.480,35.645,-13.672,0
1507427532.796,49.805,45.410,30.762,34.668,36.133,0
1507427532.800,51.758,44.434,54.688,41.992,22.461,0
1507427532.804,46.387,38.086,61.523,39.551,-16.602,0
1507427532.808,45.410,39.551,35.156,36.133,-7.324,0
1507427532.812,43.945,48.340,34.668,37.598,26.367,0
1507427532.816,45.410,48.828,37.109,36.133,32.715,0
1507427532.820,45.410,47.363,36.621,39.551,36.133,0
1507427532.824,35.645,41.992,44.922,41.504,18.066,0
1507427532.828,42.480,37.109,61.035,44.922,-5.859,0
1507427532.831,48.828,39.551,34.180,46.387,13.672,0
1507427532.835,41.016,50.293,13.672,41.016,31.738,0
1507427532.839,41.992,43.945,31.250,40.039,39.062,0
1507427532.843,47.852,43.945,39.551,42.969,21.973,0
1507427532.847,49.316,43.457,65.918,42.480,-13.672,0
1507427532.851,50.781,29.297,56.152,42.480,-9.277,0
1507427532.855,48.828,39.062,41.992,39.551,26.855,0
1507427532.859,45.410,55.664,54.199,39.062,10.742,0
1507427532.863,48.340,51.758,58.105,41.016,17.090,0
1507427532.867,44.922,40.527,62.988,36.133,60.547,0
1507427532.870,45.898,45.898,46.875,36.133,54.688,0
1507427532.874,58.594,56.152,15.137,39.062,45.410,0
1507427532.878,69.336,50.781,26.367,38.086,42.969,0
1507427532.882,69.336,49.805,52.734,38.086,49.316,0
1507427532.886,62.500,48.340,56.152,34.668,41.992,0
1507427532.890,58.594,49.316,51.270,32.227,20.996,0
1507427532.894,57.129,44.922,48.828,32.227,40.039,0
1507427532.898,59.082,39.062,33.691,40.527,44.922,0
1507427532.902,58.105,44.922,44.922,39.062,31.250,0
1507427532.906,59.570,46.387,70.801,39.062,13.672,0
1507427532.910,54.688,43.945,55.176,41.016,21.484,0
1507427532.913,45.410,45.898,54.199,39.551,35.156,0
1507427532.917,61.035,50.293,62.012,53.223,3.418,0
1507427532.921,52.734,41.016,52.734,44.922,2.441,0
1507427532.925,38.574,38.574,35.156,32.227,26.367,0
1507427532.929,52.734,56.641,37.598,41.504,27.832,0
1507427532.933,59.082,59.570,56.152,49.805,9.277,0
1507427532.937,52.246,48.828,58.105,48.828,-13.672,0
1507427532.941,49.805,38.086,35.645,40.527,5.859,0
1507427532.945,53.223,46.875,37.598,41.016,37.109,0
1507427532.949,56.641,58.594,52.734,44.434,28.320,0
1507427532.953,59.570,52.246,34.180,45.410,15.625,0
1507427532.956,58.594,47.363,37.598,44.922,5.859,0
1507427532.960,44.922,44.434,29.785,39.551,3.906,0
1507427532.964,34.668,41.992,34.180,38.574,9.277,0
1507427532.968,36.621,42.969,66.895,43.457,2.930,0
1507427532.972,37.109,40.039,59.570,41.992,28.320,0
1507427532.976,36.621,40.039,47.363,36.621,49.316,0
1507427532.980,41.504,51.758,58.105,41.504,8.789,0
1507427532.984,43.457,48.828,47.363,42.969,9.277,0
1507427532.988,42.969,43.457,37.109,42.969,36.133,0
1507427532.992,46.387,46.875,49.805,56.152,27.832,0
1507427532.995,37.109,34.668,40.527,47.852,5.371,0
1507427532.999,35.645,32.715,47.852,42.480,13.184,0
1507427533.003,49.316,49.316,62.988,58.594,37.109,3
1507427533.007,54.199,55.176,62.500,66.895,30.762,0
1507427533.011,56.152,53.223,61.035,61.523,14.160,0
1507427533.015,58.105,50.293,42.480,53.711,19.531,0
1507427533.019,56.152,51.758,37.109,51.758,20.996,0
1507427533.023,52.734,52.246,47.363,51.270,0.977,0
1507427533.027,57.617,53.711,56.641,53.711,-13.672,0
1507427533.031,49.316,51.758,45.898,47.363,10.254,0
1507427533.035,38.086,50.293,19.043,44.922,52.246,0
1507427533.038,37.109,47.363,38.086,43.457,25.391,0
1507427533.042,32.227,37.598,48.828,40.527,19.043,0
1507427533.046,29.785,38.086,56.152,37.598,64.941,0
1507427533.050,37.109,41.992,73.242,37.109,43.945,0
1507427533.054,46.875,53.711,59.082,46.387,26.855,0
1507427533.058,48.340,57.617,45.898,45.410,39.062,0
1507427533.062,49.316,49.805,56.641,45.898,41.992,0
1507427533.066,47.363,50.781,61.523,54.688,37.109,0
1507427533.070,52.734,60.059,57.617,62.500,30.762,0
1507427533.074,58.105,59.082,57.617,63.477,27.344,0
1507427533.078,52.734,52.246,50.781,56.641,27.344,0
1507427533.081,49.805,51.270,55.664,54.199,0.488,0
1507427533.085,45.898,50.781,54.199,52.246,-29.297,0
1507427533.089,43.945,54.199,25.879,45.410,-7.324,0
1507427533.093,46.387,56.152,42.480,45.898,38.086,0
1507427533.097,44.922,53.223,74.219,45.410,12.207,0
1507427533.101,46.387,53.223,75.195,38.086,-5.371,0
1507427533.105,44.922,51.758,69.336,40.527,26.367,0
1507427533.109,40.039,50.781,54.688,44.922,34.668,0
1507427533.113,41.016,50.781,42.969,42.480,56.152,0
1507427533.117,40.527,47.363,43.457,44.434,42.480,0
1507427533.120,46.387,42.969,41.016,51.758,21.973,0
1507427533.124,47.363,40.527,54.199,49.805,20.020,0
1507427533.128,43.945,45.898,56.641,46.875,0.000,0
1507427533.132,45.898,45.898,33.203,48.340,-4.395,0
1507427533.136,48.828,46.387,35.645,49.316,-3.906,0
1507427533.140,48.828,46.387,50.781,50.293,22.949,0
1507427533.144,49.316,47.852,58.105,46.387,10.742,0
1507427533.148,44.434,50.293,54.199,35.645,0.000,0
1507427533.152,36.133,45.898,49.805,32.227,28.809,0
1507427533.156,37.598,43.457,49.316,38.086,20.996,0
1507427533.160,39.551,45.898,48.340,38.574,18.555,0
1507427533.163,46.875,42.480,46.875,36.621,16.602,0
1507427533.167,55.176,36.133,32.715,39.551,14.160,0
1507427533.171,49.805,42.480,43.945,44.434,8.789,0
1507427533.175,43.457,53.711,47.363,46.875,-11.230,0
1507427533.179,45.898,57.129,36.621,48.340,18.555,0
1507427533.183,45.898,51.758,48.828,46.387,74.707,0
1507427533.187,44.434,51.758,49.316,42.969,35.645,0
1507427533.191,46.875,49.805,52.734,45.410,4.395,0
1507427533.195,48.828,49.316,62.500,43.945,23.438,0
1507427533.199,49.316,51.758,41.504,45.898,29.785,0
1507427533.203,47.363,51.270,33.691,51.270,21.484,0
1507427533.206,45.410,48.828,58.594,45.898,19.531,0
1507427533.210,48.828,44.922,68.848,40.527,11.719,0
1507427533.214,47.852,41.504,50.781,38.574,-1.953,0
1507427533.218,55.176,42.969,48.828,53.711,10.254,0
1507427533.222,61.035,53.711,41.992,60.547,20.020,0
1507427533.226,60.547,59.570,44.922,58.594,44.922,0
1507427533.230,63.965,44.922,70.801,61.035,36.621,0
1507427533.234,58.105,40.039,62.500,53.223,-13.184,0
1507427533.238,53.223,54.199,41.992,52.734,-36.621,0
1507427533.242,50.293,47.852,37.109,53.711,17.090,0
1507427533.245,43.945,34.180,39.062,49.316,62.012,0
1507427533.249,43.457,41.504,43.457,47.852,41.504,0
1507427533.253,50.293,53.711,60.547,49.805,31.738,0
1507427533.257,49.805,44.434,62.988,46.875,31.738,0
1507427533.261,41.992,42.480,53.711,39.551,39.551,0
1507427533.265,40.527,50.781,43.945,43.945,5.859,0
1507427533.269,41.016,54.199,62.500,45.898,2.441,0
1507427533.273,42.480,45.898,75.195,42.480,46.387,0
1507427533.277,46.875,37.598,57.617,46.387,18.066,0
1507427533.281,39.551,44.922,41.992,43.457,-15.137,0
1507427533.285,37.109,44.922,45.410,34.668,22.461,0
1507427533.288,44.434,46.387,47.363,36.621,53.223,0
1507427533.292,44.922,54.199,49.805,48.828,20.996,0
1507427533.296,50.781,53.223,67.383,54.199,13.184,0
1507427533.300,51.758,45.410,65.918,52.734,30.762,0
1507427533.304,46.875,35.645,61.035,50.293,13.672,0
1507427533.308,42.969,33.203,49.805,45.898,-10.742,0
1507427533.312,47.852,48.340,56.152,50.293,-13.672,0
1507427533.316,52.246,58.105,67.383,55.176,9.766,0
1507427533.320,44.434,55.664,60.059,49.805,37.109,0
1507427533.324,49.805,53.711,57.617,43.457,23.926,0
1507427533.328,57.129,47.363,50.781,46.387,24.414,0
1507427533.331,59.570,54.688,41.992,51.758,15.137,0
1507427533.335,54.199,60.059,43.945,52.246,11.230,0
1507427533.339,48.828,53.711,48.340,55.176,5.371,0
1507427533.343,46.875,52.734,46.875,48.828,2.441,0
1507427533.347,45.898,53.711,52.246,44.922,9.766,0
1507427533.351,49.805,49.805,38.574,52.246,-4.395,0
1507427533.355,43.457,33.203,48.340,42.969,-0.977,0
1507427533.359,36.621,41.016,64.453,38.574,-10.254,0
1507427533.363,45.410,63.477,65.430,49.805,24.414,0
1507427533.367,52.246,62.988,65.430,46.875,57.617,0
1507427533.370,50.293,58.594,58.105,39.551,18.066,0
1507427533.374,51.270,57.617,65.430,52.246,25.391,0
1507427533.378,55.176,63.965,69.824,63.477,49.805,0
1507427533.382,53.223,58.105,47.852,59.082,17.090,0
1507427533.386,46.387,49.805,59.570,57.617,16.602,0
1507427533.390,48.340,60.059,58.594,61.035,35.156,0
1507427533.394,55.664,66.406,43.457,64.453,30.273,0
1507427533.398,60.059,62.988,74.707,61.035,11.719,0
1507427533.402,56.641,59.082,62.988,52.246,8.301,0
1507427533.406,52.246,57.617,45.410,43.945,41.504,0
1507427533.410,61.035,54.688,72.754,48.828,51.758,0
1507427533.413,67.383,54.688,81.543,55.664,34.668,0
1507427533.417,55.664,56.152,74.219,47.363,37.109,0
1507427533.421,50.781,52.246,64.453,41.992,47.363,0
1507427533.425,48.828,47.363,32.227,42.480,51.270,0
1507427533.429,53.223,51.758,17.578,52.246,32.227,0
1507427533.433,50.293,47.852,51.270,49.805,43.457,0
1507427533.437,44.434,48.340,75.684,48.340,54.688,0
1507427533.441,45.410,52.734,50.781,45.898,24.414,0
1507427533.445,45.410,45.410,44.434,41.992,20.508,0
1507427533.449,46.875,44.922,56.641,49.805,8.301,0
1507427533.453,46.875,46.387,58.594,44.922,31.738,0
1507427533.456,43.457,47.852,64.453,44.922,38.574,0
1507427533.460,41.016,38.574,60.059,41.504,26.855,0
1507427533.464,42.480,32.715,44.434,32.715,31.250,0
1507427533.468,47.363,46.387,44.922,28.809,31.250,0
1507427533.472,46.387,48.828,46.875,33.691,25.879,0
1507427533.476,37.598,52.246,33.203,38.574,23.438,0
1507427533.480,33.203,56.152,47.363,35.156,39.551,0
1507427533.484,41.992,50.781,44.434,38.574,23.926,0
1507427533.488,45.898,52.734,33.203,43.945,11.230,0
1507427533.492,36.621,51.758,47.852,38.574,40.039,0
1507427533.495,39.551,51.758,53.711,40.039,44.434,0
1507427533.499,37.109,46.875,32.227,39.062,20.508,0
1507427533.503,37.598,49.316,52.246,40.527,13.672,0
1507427533.507,36.133,47.852,60.547,37.109,9.766,4
1507427533.511,27.344,39.062,48.828,29.297,24.414,0
1507427533.515,35.645,45.898,57.129,34.180,20.020,0
1507427533.519,40.039,50.781,57.617,40.527,18.066,0
1507427533.523,43.457,51.270,48.340,42.969,40.527,0
1507427533.527,44.922,45.410,31.250,37.598,57.617,0
1507427533.531,41.992,43.945,47.852,31.250,40.527,0
1507427533.535,38.086,55.664,45.898,36.621,13.184,0
1507427533.538,36.133,58.105,29.297,36.133,10.742,0
1507427533.542,43.945,54.688,18.555,32.227,11.719,0
1507427533.546,41.992,51.758,24.414,20.996,8.301,0
1507427533.550,37.598,50.293,56.152,20.020,12.207,0
1507427533.554,34.668,49.805,62.988,27.832,-0.977,0
1507427533.558,33.691,43.457,51.758,29.297,6.836,0
1507427533.562,34.180,47.363,41.504,31.250,30.762,0
1507427533.566,31.250,48.340,31.250,30.273,-6.836,0
1507427533.570,26.855,33.203,42.969,25.391,-8.789,0
1507427533.574,28.809,44.922,70.801,31.250,27.344,0
1507427533.578,33.203,47.363,48.340,30.273,27.832,0
1507427533.581,38.086,34.180,20.020,21.484,24.414,0
1507427533.585,40.039,47.852,48.340,29.785,25.391,0
1507427533.589,30.273,51.270,41.016,29.785,31.250,0
1507427533.593,21.973,46.387,31.250,20.020,15.625,0
1507427533.597,29.297,48.340,43.457,23.926,-14.160,0
1507427533.601,38.086,44.434,36.133,33.691,13.672,0
1507427533.605,39.062,43.457,39.062,38.086,31.738,0
1507427533.609,44.922,45.898,51.270,43.457,21.484,0
1507427533.613,47.363,43.945,54.199,48.340,16.113,0
1507427533.617,49.316,41.016,32.715,47.363,23.438,0
1507427533.620,51.270,45.898,19.531,42.480,22.461,0
1507427533.624,52.734,52.246,21.973,41.992,28.809,0
1507427533.628,49.316,47.363,20.020,36.133,24.414,0
1507427533.632,47.363,43.457,40.039,33.203,-14.648,0
1507427533.636,50.781,47.363,47.363,39.062,-7.324,0
1507427533.640,41.992,51.270,43.945,44.922,-14.160,0
1507427533.644,32.715,44.434,45.410,40.527,-14.160,0
1507427533.648,34.668,37.109,41.016,36.133,34.668,0
1507427533.652,40.527,41.016,22.949,39.062,36.133,0
1507427533.656,39.551,41.992,21.973,32.227,24.902,0
1507427533.660,34.180,38.086,34.180,24.414,18.066,0
1507427533.663,35.156,35.156,27.832,23.926,28.809,0
1507427533.667,29.785,36.133,39.062,26.855,20.020,0
1507427533.671,25.879,38.574,24.414,27.344,-4.883,0
1507427533.675,31.250,35.156,14.648,26.367,27.344,0
1507427533.679,29.297,37.598,45.410,29.785,36.621,0
1507427533.683,28.809,45.898,46.387,25.391,21.973,0
1507427533.687,35.156,43.457,41.992,26.855,-4.395,0
1507427533.691,41.016,42.480,45.898,34.180,0.977,0
1507427533.695,40.039,44.922,40.039,32.715,47.852,0
1507427533.699,31.738,43.945,39.551,26.367,41.992,0
1507427533.703,31.250,43.457,42.969,28.809,6.836,0
1507427533.706,34.180,40.527,49.805,35.156,39.062,0
1507427533.710,39.062,47.852,41.992,39.062,62.012,0
1507427533.714,39.062,49.805,43.945,36.133,28.320,0
1507427533.718,33.691,44.922,46.875,30.273,6.836,0
1507427533.722,37.109,48.828,24.414,29.297,19.043,0
1507427533.726,44.434,45.898,37.598,36.621,25.391,0
1507427533.730,43.457,41.016,61.035,37.598,23.926,0
1507427533.734,48.828,41.992,50.781,42.480,24.414,0
1507427533.738,51.270,41.992,46.387,40.039,35.645,0
1507427533.742,56.152,47.852,52.246,38.574,45.410,0
1507427533.745,66.406,57.129,60.547,48.340,-0.977,0
1507427533.749,58.594,53.711,59.082,42.969,-25.391,0
1507427533.753,47.363,40.527,33.203,33.203,6.348,0
1507427533.757,54.199,41.504,37.598,44.922,20.996,0
1507427533.761,54.688,56.152,46.387,54.199,31.250,0
1507427533.765,43.945,54.199,30.762,44.922,29.297,0
1507427533.769,43.457,53.711,47.852,41.016,30.762,0
1507427533.773,52.246,60.547,71.289,43.457,55.664,0
1507427533.777,54.688,56.641,44.434,45.410,10.742,0
1507427533.781,45.898,52.246,39.062,42.969,25.879,0
1507427533.785,36.133,49.316,62.012,34.668,60.547,0
1507427533.788,47.852,48.340,49.805,39.551,15.137,0
1507427533.792,45.898,45.410,46.875,38.086,7.324,0
1507427533.796,38.086,32.227,60.547,35.156,43.457,0
1507427533.800,40.527,29.297,55.664,35.156,53.223,0
1507427533.804,39.062,44.434,40.039,34.180,13.672,0
1507427533.808,40.527,48.340,45.898,39.551,19.531,0
1507427533.812,50.293,50.293,31.738,45.898,31.738,0
1507427533.816,49.805,48.828,13.184,44.922,3.418,0
1507427533.820,40.039,41.992,41.504,39.062,8.301,0
1507427533.824,41.504,45.898,49.316,40.039,24.414,0
1507427533.828,45.898,47.363,44.434,38.086,32.715,0
1507427533.831,46.875,51.270,50.781,40.527,20.508,0
1507427533.835,44.434,47.852,40.527,48.828,17.090,0
1507427533.839,35.156,40.527,58.105,33.203,41.992,0
1507427533.843,36.133,38.574,69.824,26.855,59.082,0
1507427533.847,43.945,32.715,52.246,43.945,37.598,0
1507427533.851,52.246,31.738,55.176,52.246,1.465,0
1507427533.855,54.199,46.387,43.945,44.922,17.578,0
1507427533.859,38.086,45.898,37.598,33.691,41.016,0
1507427533.863,32.715,34.668,46.387,36.133,28.320,0
1507427533.867,41.992,42.480,15.137,43.457,14.648,0
1507427533.870,42.480,42.480,27.344,41.016,47.852,0
1507427533.874,34.668,34.668,64.941,34.668,40.039,0
1507427533.878,33.203,37.598,77.637,39.062,12.207,0
1507427533.882,38.086,36.621,77.148,39.551,50.293,0
1507427533.886,42.480,41.016,64.453,39.551,38.574,0
1507427533.890,42.969,41.016,62.500,37.598,13.672,0
1507427533.894,41.504,38.086,50.293,33.203,43.945,0
1507427533.898,46.875,32.715,34.668,41.992,-6.836,0
1507427533.902,47.852,38.086,44.922,46.387,8.789,0
1507427533.906,45.898,46.875,56.152,46.387,62.500,0
1507427533.910,44.434,44.922,55.176,41.992,17.578,0
1507427533.913,46.875,47.852,52.734,41.016,3.906,0
1507427533.917,53.711,52.246,48.340,48.828,43.457,0
1507427533.921,56.152,51.270,55.176,49.805,31.250,0
1507427533.925,56.152,54.199,55.664,51.758,7.812,0
1507427533.929,56.641,56.152,55.176,55.664,11.719,0
1507427533.933,55.664,55.176,71.289,59.570,32.715,0
1507427533.937,53.223,52.734,68.359,61.523,25.391,0
1507427533.941,60.547,62.988,64.453,65.918,17.578,0
1507427533.945,67.871,67.871,65.918,68.848,30.762,0
1507427533.949,64.941,63.477,60.059,71.777,44.434,0
1507427533.953,66.406,65.918,54.199,72.754,28.809,0
1507427533.956,58.105,61.035,53.711,62.012,10.742,0
1507427533.960,47.363,55.664,60.059,60.059,46.875,0
1507427533.964,48.340,53.711,50.293,54.199,54.199,0
1507427533.968,53.711,48.340,47.852,49.805,21.484,0
1507427533.972,60.059,51.758,58.594,56.152,-26.855,0
1507427533.976,57.617,54.688,50.293,57.129,-16.602,0
1507427533.980,59.570,54.199,57.617,65.430,37.109,0
1507427533.984,60.547,50.293,82.031,66.406,8.789,0
1507427533.988,63.965,37.109,78.125,66.895,-6.836,0
1507427533.992,64.941,34.180,65.430,68.359,48.340,0
1507427533.995,57.617,49.316,43.945,59.082,62.500,0
1507427533.999,51.270,54.688,37.598,53.223,27.344,0
1507427534.003,43.945,49.316,61.035,48.828,27.832,0
1507427534.007,45.898,48.828,55.664,47.363,21.484,5
1507427534.011,58.105,49.316,39.551,48.340,7.324,0
1507427534.015,48.340,49.805,41.992,42.969,-8.301,0
1507427534.019,44.922,42.969,56.641,38.574,-9.766,0
1507427534.023,52.734,41.016,62.500,44.922,27.344,0
1507427534.027,44.922,46.387,40.039,46.387,50.293,0
1507427534.031,48.340,50.293,49.805,52.246,36.621,0
1507427534.035,43.457,51.758,73.242,51.758,25.391,0
1507427534.038,39.062,45.898,56.641,51.758,57.617,0
1507427534.042,42.969,48.828,44.922,50.293,49.316,0
1507427534.046,45.898,39.551,62.012,45.898,20.508,0
1507427534.050,46.875,34.180,63.965,51.758,23.926,0
1507427534.054,52.246,44.434,33.203,45.410,35.645,0
1507427534.058,56.152,53.711,43.945,47.852,48.340,0
1507427534.062,56.641,50.293,69.336,45.898,40.527,0
1507427534.066,55.176,41.992,55.176,35.156,27.344,0
1507427534.070,59.082,46.387,51.758,40.039,17.090,0
1507427534.074,61.523,45.410,57.617,40.527,6.836,0
1507427534.078,60.547,43.945,57.617,41.504,29.785,0
1507427534.081,62.012,47.363,43.945,43.457,20.020,0
1507427534.085,52.246,45.898,48.828,35.156,-0.488,0
1507427534.089,47.852,44.434,41.504,31.250,11.230,0
1507427534.093,55.664,51.270,27.344,39.062,25.391,0
1507427534.097,57.129,41.016,52.246,46.387,39.062,0
1507427534.101,47.363,41.016,71.777,47.852,27.832,0
1507427534.105,36.133,47.363,72.266,43.457,13.672,0
1507427534.109,31.250,46.387,45.898,36.621,13.184,0
1507427534.113,37.598,47.363,47.363,41.504,27.832,0
1507427534.117,39.551,44.434,47.363,45.898,18.555,0
1507427534.120,40.527,43.457,44.434,48.340,4.395,0
1507427534.124,42.969,46.875,63.477,53.223,25.879,0
1507427534.128,56.641,47.852,44.434,52.734,24.414,0
1507427534.132,62.012,42.480,38.086,48.828,-16.602,0
1507427534.136,57.617,42.480,55.176,52.246,10.742,0
1507427534.140,53.711,36.133,41.504,45.410,30.762,0
1507427534.144,40.039,25.879,23.926,35.156,44.922,0
1507427534.148,40.039,23.926,32.715,41.992,35.156,0
1507427534.152,32.715,28.320,32.227,29.297,-8.789,0
1507427534.156,25.879,37.109,38.574,20.996,22.461,0
1507427534.160,44.922,48.828,51.758,39.551,18.555,0
1507427534.163,52.246,49.805,46.875,45.410,-9.277,0
1507427534.167,40.039,41.504,61.523,34.180,-13.184,0
1507427534.171,33.691,43.945,73.242,41.992,11.230,0
1507427534.175,38.574,51.758,63.477,52.734,46.387,0
1507427534.179,34.668,51.270,59.570,46.387,14.160,0
1507427534.183,37.109,43.945,48.340,45.898,18.066,0
1507427534.187,39.551,38.574,48.828,51.270,50.293,0
1507427534.191,31.250,34.668,38.086,39.551,52.734,0
1507427534.195,29.297,31.738,20.508,34.668,48.828,0
1507427534.199,17.578,32.227,18.555,29.297,28.320,0
1507427534.203,10.254,27.344,33.203,17.090,40.527,0
1507427534.206,23.926,21.484,45.410,21.973,12.695,0
1507427534.210,24.902,23.438,36.133,23.926,-12.695,0
1507427534.214,26.367,20.996,30.762,25.879,10.742,0
1507427534.218,31.738,21.484,31.250,30.762,18.066,0
1507427534.222,23.926,22.949,27.832,27.832,18.555,0
1507427534.226,21.973,25.391,25.391,30.273,3.418,0
1507427534.230,18.555,28.809,20.020,29.785,0.488,0
1507427534.234,21.973,30.762,27.344,30.762,24.902,0
1507427534.238,26.855,28.320,37.598,27.344,12.207,0
1507427534.242,30.273,30.762,39.551,31.250,-13.672,0
1507427534.245,34.668,33.691,33.203,42.480,-13.672,0
1507427534.249,33.203,26.367,18.066,34.668,2.441,0
1507427534.253,29.297,29.297,32.227,24.414,13.184,0
1507427534.257,31.738,43.457,66.406,38.574,-1.465,0
1507427534.261,37.598,45.898,63.965,44.922,28.320,0
1507427534.265,32.227,39.551,42.969,27.832,58.594,0
1507427534.269,104.004,116.699,129.395,105.469,27.832,0
1507427534.273,152.344,172.363,189.941,164.062,21.484,0
1507427534.277,114.258,123.535,137.695,120.605,41.016,0
1507427534.281,78.613,79.102,98.145,81.543,16.602,0
1507427534.285,46.875,48.828,63.965,50.781,16.602,0
1507427534.288,33.203,35.645,51.758,43.457,0.488,0
1507427534.292,40.039,23.926,21.484,43.457,10.742,0
1507427534.296,42.480,24.902,11.719,41.016,36.133,0
1507427534.300,35.645,27.344,42.480,37.109,-10.742,0
1507427534.304,40.527,25.879,46.387,35.156,-9.277,0
1507427534.308,40.039,36.621,32.715,38.086,39.062,0
1507427534.312,33.691,45.410,26.367,37.109,28.320,0
1507427534.316,27.344,39.551,37.109,35.645,43.457,0
1507427534.320,28.809,27.344,49.316,32.715,65.918,0
1507427534.324,34.180,28.320,45.898,26.367,45.898,0
1507427534.328,32.715,29.785,33.691,24.414,48.340,0
1507427534.331,36.621,32.227,25.391,34.180,27.832,0
1507427534.335,41.016,34.180,29.297,44.922,34.180,0
1507427534.339,41.504,37.598,34.668,44.922,39.062,0
1507427534.343,41.992,39.062,42.969,39.062,0.488,0
1507427534.347,41.016,38.086,52.734,37.598,9.766,0
1507427534.351,41.016,40.039,51.758,38.574,48.340,0
1507427534.355,33.203,38.086,46.387,33.691,49.805,0
1507427534.359,32.715,41.504,51.270,34.668,18.066,0
1507427534.363,33.203,36.621,34.180,32.227,8.301,0
1507427534.367,27.344,25.879,28.320,21.973,17.090,0
1507427534.370,31.738,37.598,43.457,28.809,26.855,0
1507427534.374,30.762,41.504,36.621,34.180,19.531,0
1507427534.378,20.020,38.086,39.551,29.297,-3.418,0
1507427534.382,29.297,39.551,45.410,35.156,11.719,0
1507427534.386,43.457,41.992,41.016,49.805,10.254,0
1507427534.390,45.898,43.945,51.270,51.270,-14.648,0
1507427534.394,55.176,39.551,46.875,44.434,-2.930,0
1507427534.398,65.918,37.598,51.758,48.828,10.742,0
1507427534.402,60.059,38.086,41.992,49.316,3.906,0
1507427534.406,47.363,46.387,45.898,50.293,11.719,0
1507427534.410,50.781,45.898,60.547,50.781,11.719,0
1507427534.413,55.664,40.527,38.574,46.875,14.648,0
1507427534.417,46.387,41.504,44.434,42.969,15.625,0
1507427534.421,44.922,47.363,66.895,43.457,-4.395,0
1507427534.425,50.293,39.551,59.570,45.410,32.227,0
1507427534.429,43.457,31.738,40.039,41.016,31.738,0
1507427534.433,36.621,49.316,49.805,36.133,0.000,0
1507427534.437,37.598,53.711,46.387,35.645,-4.883,0
1507427534.441,41.992,46.387,48.340,39.551,2.930,0
1507427534.445,48.828,49.805,67.383,42.969,45.898,0
1507427534.449,46.875,50.293,58.105,35.156,22.461,0
1507427534.453,28.320,44.434,55.176,21.973,19.531,0
1507427534.456,29.297,32.715,35.645,22.461,56.152,0
1507427534.460,37.598,28.809,28.809,25.879,29.297,0
1507427534.464,29.297,37.109,40.039,16.602,20.996,0
1507427534.468,38.574,35.156,30.762,25.879,31.738,0
1507427534.472,40.527,32.227,32.227,31.738,38.574,0
1507427534.476,41.992,32.715,44.922,33.691,19.043,0
1507427534.480,48.828,39.062,19.531,40.527,-1.953,0
1507427534.484,51.758,45.898,34.180,45.410,3.906,0
1507427534.488,53.711,48.340,62.500,41.992,34.180,0
1507427534.492,63.965,53.711,61.523,46.875,39.062,0
1507427534.495,59.570,50.781,75.195,46.875,10.742,0
1507427534.499,58.105,49.805,73.730,45.410,-1.953,0
1507427534.503,68.848,62.012,82.520,58.594,23.438,0
1507427534.507,66.895,64.941,78.613,52.734,20.508,0
1507427534.511,68.848,64.453,63.965,52.246,-0.977,0
1507427534.515,54.199,61.523,56.641,53.223,21.973,0
1507427534.519,47.852,58.105,41.504,50.781,39.062,0
1507427534.523,55.176,51.758,44.434,53.711,26.855,0
1507427534.527,53.711,49.316,54.688,47.852,19.531,0
1507427534.531,54.688,51.270,56.152,42.480,40.039,0
1507427534.535,42.480,33.691,28.320,41.504,52.734,0
1507427534.538,42.969,32.715,10.742,50.293,27.344,0
1507427534.542,50.293,53.223,55.176,52.246,18.066,0
1507427534.546,45.898,54.199,67.871,44.434,39.551,0
1507427534.550,54.199,50.781,68.848,50.781,39.062,0
1507427534.554,57.129,54.688,63.965,49.805,4.883,0
1507427534.558,63.477,65.430,73.242,54.688,-3.906,0
1507427534.562,59.082,64.453,77.148,59.082,29.785,0
1507427534.566,56.152,50.293,47.852,50.781,45.898,0
1507427534.570,57.617,50.293,32.227,45.410,15.137,0
1507427534.574,51.270,59.570,45.410,42.969,-7.324,0
1507427534.578,51.758,56.641,62.988,50.293,20.020,0
1507427534.581,49.316,52.246,67.383,48.340,31.250,0
1507427534.585,51.270,47.852,61.523,46.387,16.113,0
1507427534.589,52.246,42.969,46.387,51.270,30.762,0
1507427534.593,52.734,38.574,54.688,49.316,13.184,0
1507427534.597,51.758,35.156,65.430,56.641,5.859,0
1507427534.601,43.945,33.203,64.453,54.199,22.461,0
1507427534.605,39.062,31.738,32.715,46.875,31.738,0
1507427534.609,44.434,34.668,41.992,56.152,34.180,0
1507427534.613,53.223,38.086,74.707,54.199,31.738,0
1507427534.617,49.805,37.598,68.359,43.945,28.809,0
1507427534.620,48.340,35.645,53.223,46.387,21.973,0
1507427534.624,61.035,41.016,50.293,58.594,46.387,0
1507427534.628,56.641,47.363,65.918,54.688,19.531,0
1507427534.632,55.176,46.387,74.219,55.664,-24.414,0
1507427534.636,59.082,38.086,63.477,53.223,22.461,0
1507427534.640,56.641,33.691,64.453,48.340,33.203,0
1507427534.644,61.523,39.551,50.293,47.852,35.645,0
1507427534.648,60.547,45.898,42.969,49.805,35.645,0
1507427534.652,51.270,44.922,50.293,46.387,31.738,0
1507427534.656,43.945,43.945,54.199,32.227,47.363,0
1507427534.660,42.480,44.434,61.035,39.062,14.648,0
1507427534.663,42.480,46.875,68.359,42.480,3.418,0
1507427534.667,42.480,47.852,64.453,33.691,26.367,0
1507427534.671,43.457,41.992,37.109,33.203,42.480,0
1507427534.675,47.363,36.133,31.250,43.945,8.301,0
1507427534.679,41.992,40.039,58.105,51.270,-23.926,0
1507427534.683,37.598,41.992,68.848,43.945,17.090,0
1507427534.687,37.109,41.504,57.129,41.016,17.090,0
1507427534.691,39.062,40.527,64.453,41.016,-3.906,0
1507427534.695,47.852,40.527,64.941,45.898,8.301,0
1507427534.699,47.363,41.504,41.992,43.457,8.301,0
1507427534.703,42.969,37.109,30.273,42.480,13.672,0
1507427534.706,45.898,35.645,45.410,51.270,41.504,0
1507427534.710,54.199,41.992,44.922,52.246,10.254,0
1507427534.714,47.852,45.898,37.598,47.852,7.812,0
1507427534.718,44.922,41.504,38.574,40.527,11.719,0
1507427534.722,53.711,40.039,49.805,41.504,-12.207,0
1507427534.726,53.223,40.039,64.453,44.922,42.969,0
1507427534.730,45.898,18.555,53.223,49.805,59.570,0
1507427534.734,46.875,27.344,40.039,60.547,11.719,0
1507427534.738,53.223,50.781,47.363,56.152,15.137,0
1507427534.742,49.316,46.875,49.805,44.434,30.273,0
1507427534.745,43.945,49.316,41.504,38.574,1.465,0
1507427534.749,44.922,45.898,51.270,24.414,9.766,0
1507427534.753,48.340,42.480,42.480,22.949,11.719,0
1507427534.757,41.504,37.598,56.152,32.227,-1.465,0
1507427534.761,36.621,32.227,57.617,34.668,-5.859,0
1507427534.765,32.227,37.109,56.152,28.809,-1.465,0
1507427534.769,36.133,30.762,63.965,33.691,0.000,0
1507427534.773,45.898,29.297,58.594,41.016,-15.137,0
1507427534.777,50.293,44.922,68.848,46.387,-2.441,0
1507427534.781,59.082,40.039,55.664,53.223,3.418,0
1507427534.785,64.941,29.297,7.324,55.176,9.277,0
1507427534.788,62.500,26.367,30.273,49.316,22.461,0
1507427534.792,48.828,16.602,81.055,43.945,14.160,0
1507427534.796,43.457,31.738,62.012,46.387,21.484,0
1507427534.800,37.109,54.688,58.105,41.016,20.020,0
1507427534.804,37.109,51.270,77.148,51.270,27.344,0
1507427534.808,48.340,35.645,46.387,60.547,27.832,0
1507427534.812,39.062,34.180,23.926,40.527,-16.113,0
1507427534.816,42.969,36.621,27.832,49.316,0.488,0
1507427534.820,62.500,33.203,20.020,71.777,41.992,0
1507427534.824,57.617,33.691,63.477,61.035,7.812,0
1507427534.828,46.875,26.855,97.656,51.758,7.324,0
1507427534.831,38.574,34.668,71.777,48.828,36.133,0
1507427534.835,42.480,41.016,51.758,49.805,34.668,0
1507427534.839,63.965,34.668,65.918,69.336,53.711,0
1507427534.843,71.777,41.992,79.590,79.102,35.645,0
1507427534.847,54.688,55.176,45.410,66.895,6.348,0
1507427534.851,54.688,31.250,35.156,59.082,27.344,0
1507427534.855,58.594,14.648,81.543,56.152,37.109,0
1507427534.859,53.223,25.391,66.406,61.035,4.395,0
1507427534.863,57.617,33.203,58.594,64.453,10.742,0
1507427534.867,68.848,34.180,62.012,69.336,52.246,0
1507427534.870,71.777,33.203,38.086,71.777,31.250,0
1507427534.874,66.406,38.086,32.715,68.848,11.719,0
1507427534.878,69.824,40.039,61.523,75.195,30.762,0
1507427534.882,68.359,43.457,79.102,74.707,46.387,0
1507427534.886,69.336,44.434,65.918,82.031,28.320,0
1507427534.890,70.801,44.434,31.738,87.891,36.133,0
1507427534.894,70.801,29.785,19.531,81.055,35.645,0
1507427534.898,76.172,34.668,65.918,74.707,16.113,0
1507427534.902,74.707,34.668,77.148,71.289,34.180,0
1507427534.906,63.477,20.996,51.758,71.289,33.691,0
1507427534.910,62.500,36.621,47.363,83.984,5.859,0
1507427534.913,75.195,51.270,70.801,89.355,-14.648,0
1507427534.917,75.684,60.547,95.703,82.031,-14.160,0
1507427534.921,79.590,39.062,53.223,91.309,30.762,0
1507427534.925,87.402,27.832,46.387,95.215,83.496,0
1507427534.929,73.242,57.129,62.500,76.660,25.391,0
1507427534.933,64.453,62.012,58.105,74.707,-5.371,0
1507427534.937,69.336,45.410,73.730,76.172,44.434,0
1507427534.941,72.266,30.762,49.316,78.125,51.758,0
1507427534.945,70.801,25.879,37.109,79.102,29.785,0
1507427534.949,68.359,39.062,58.105,76.660,10.254,0
1507427534.953,74.707,46.387,42.480,78.613,13.184,0
1507427534.956,69.824,36.133,-2.930,72.266,32.227,0
1507427534.960,67.871,26.855,19.043,68.359,10.254,0
1507427534.964,71.777,40.039,103.027,68.848,15.137,0
1507427534.968,65.918,41.016,50.781,67.871,10.742,0
1507427534.972,61.035,26.855,-6.348,67.871,-0.977,0
1507427534.976,64.453,29.785,82.520,64.453,-11.230,0
1507427534.980,70.801,22.949,74.219,66.895,-14.160,0
1507427534.984,75.195,7.812,8.789,75.684,10.254,0
1507427534.988,69.824,24.414,22.949,68.848,-0.488,0
1507427534.992,77.148,19.043,98.633,76.172,13.672,0
1507427534.995,75.195,-14.648,103.027,77.637,19.531,0
1507427534.999,66.406,5.371,-7.812,74.707,36.133,0
1507427535.003,70.801,40.039,10.742,72.266,43.457,0
1507427535.007,65.430,33.691,44.434,61.523,-18.555,0
1507427535.011,49.316,48.828,-16.113,58.105,1.465,0
1507427535.015,45.898,65.430,28.320,52.734,41.992,0
1507427535.019,52.734,57.129,99.609,60.059,2.441,0
1507427535.023,50.781,53.223,76.172,59.082,13.672,0
1507427535.027,63.477,44.434,31.250,59.082,35.645,0
1507427535.031,64.453,35.156,7.812,60.547,6.348,0
1507427535.035,53.223,51.758,33.203,52.734,18.555,0
1507427535.038,49.316,47.852,96.680,58.594,50.293,0
1507427535.042,55.176,15.137,22.461,62.500,33.691,0
1507427535.046,51.270,9.766,-3.418,57.129,16.113,0
1507427535.050,48.828,42.480,14.648,54.199,-9.277,0
1507427535.054,49.316,63.477,0.000,49.316,-12.695,0
1507427535.058,44.434,37.109,-13.672,57.129,2.441,0
1507427535.062,49.805,7.812,46.387,54.199,4.883,0
1507427535.066,60.059,25.391,68.359,58.594,14.160,0
1507427535.070,66.406,35.156,7.812,63.965,35.645,0
1507427535.074,69.824,48.340,57.129,55.664,39.062,0
1507427535.078,66.895,67.871,96.191,63.965,20.996,0
1507427535.081,54.199,47.363,70.312,61.523,10.254,0
1507427535.085,43.457,21.973,34.180,51.270,6.836,0
1507427535.089,40.039,25.879,33.691,47.363,15.625,0
1507427535.093,52.246,42.480,-24.414,61.523,1.465,0
1507427535.097,63.965,30.273,-50.293,60.547,5.371,0
1507427535.101,60.059,32.227,58.105,41.992,6.836,0
1507427535.105,55.176,54.199,75.684,46.387,13.672,0
1507427535.109,51.270,66.406,56.152,52.246,16.602,0
1507427535.113,59.570,50.781,27.832,58.594,9.277,0
1507427535.117,58.594,19.043,31.738,60.059,33.203,0
1507427535.120,50.781,18.066,43.457,49.316,27.832,0
1507427535.124,51.270,61.035,28.320,50.781,7.812,0
1507427535.128,56.152,26.855,17.090,56.152,26.367,0
1507427535.132,58.594,4.883,4.883,54.688,46.387,0
1507427535.136,41.504,56.152,32.227,41.992,22.461,0
1507427535.140,38.574,59.570,48.340,38.574,3.418,0
1507427535.144,33.203,40.527,52.734,37.598,10.742,0
1507427535.148,31.250,43.457,41.992,36.621,41.992,0
1507427535.152,42.969,54.199,49.805,49.316,45.410,0
1507427535.156,37.598,48.828,52.246,46.387,1.465,0
1507427535.160,43.457,24.414,43.945,38.086,-4.883,0
1507427535.163,57.617,27.832,54.688,48.828,42.969,0
1507427535.167,53.711,57.617,70.312,48.340,62.500,0
1507427535.171,52.246,65.918,42.480,46.387,39.062,0
1507427535.175,61.035,62.012,-10.254,56.641,49.805,0
1507427535.179,64.941,28.320,11.230,59.570,47.363,0
1507427535.183,51.758,38.086,95.215,54.688,34.668,0
1507427535.187,52.734,45.410,50.293,56.152,1.465,0
1507427535.191,66.895,6.836,10.254,63.965,-2.441,0
1507427535.195,60.547,12.695,58.105,50.293,19.043,0
1507427535.199,40.527,53.223,78.613,30.273,3.906,0
1507427535.203,21.973,77.637,54.688,27.344,5.859,0
1507427535.206,46.875,21.973,20.996,52.246,15.625,0
1507427535.210,70.801,10.254,52.246,68.359,12.207,0
1507427535.214,51.270,82.031,68.848,50.781,-22.461,0
1507427535.218,43.945,100.098,57.617,40.527,-9.766,0
1507427535.222,49.805,77.637,44.434,41.016,44.434,0
1507427535.226,44.922,61.523,32.715,38.086,40.039,0
1507427535.230,41.992,52.734,47.363,44.922,2.930,0
1507427535.234,38.574,44.434,58.105,44.922,-10.254,0
1507427535.238,45.410,45.898,51.758,44.434,22.949,0
1507427535.242,50.293,52.246,40.039,47.852,62.012,0
1507427535.245,55.176,49.316,13.184,52.734,62.500,0
1507427535.249,58.105,43.945,6.348,44.434,28.320,0
1507427535.253,62.012,30.762,15.137,47.363,27.344,0
1507427535.257,64.941,28.320,14.648,58.105,31.250,0
1507427535.261,47.363,33.203,16.602,49.805,39.551,0
1507427535.265,35.645,46.875,58.105,39.551,47.852,0
1507427535.269,34.668,52.246,95.215,39.551,38.574,0
1507427535.273,37.598,27.344,84.961,39.062,15.137,0
1507427535.277,49.805,46.387,64.453,43.945,5.371,0
1507427535.281,49.805,71.289,42.480,41.504,27.832,0
1507427535.285,47.852,59.082,49.316,39.551,32.715,0
1507427535.288,49.805,45.898,25.879,44.434,23.438,0
1507427535.292,57.129,41.016,-6.348,53.223,38.086,0
1507427535.296,71.289,40.527,54.199,50.781,32.227,0
1507427535.300,76.660,57.129,87.891,42.969,47.852,0
1507427535.304,84.473,48.828,53.711,55.664,35.645,0
1507427535.308,87.402,51.758,36.133,59.570,24.902,0
1507427535.312,82.520,59.570,62.500,53.223,41.016,0
1507427535.316,72.754,52.734,76.660,51.758,26.855,0
1507427535.320,58.105,53.223,65.430,41.504,18.066,0
1507427535.324,50.293,52.734,40.527,33.691,18.066,0
1507427535.328,50.781,33.691,45.410,40.039,20.996,0
1507427535.331,51.270,47.363,31.250,42.480,11.230,0
1507427535.335,43.457,69.336,17.578,40.039,16.113,0
1507427535.339,27.344,56.641,17.090,33.691,46.875,0
1507427535.343,20.020,35.156,61.523,30.273,50.293,0
1507427535.347,33.203,32.227,95.703,40.527,27.832,0
1507427535.351,41.016,38.086,47.363,43.945,-19.531,0
1507427535.355,91.797,78.613,26.367,83.984,-34.668,0
1507427535.359,140.625,108.398,103.516,127.441,39.062,0
1507427535.363,116.699,113.281,175.781,107.422,37.598,0
1507427535.367,94.238,117.676,134.277,96.191,-9.277,0
1507427535.370,78.125,101.074,68.359,88.867,20.020,0
1507427535.374,70.801,76.660,94.727,68.359,61.523,0
1507427535.378,76.660,76.172,106.445,72.266,22.461,0
1507427535.382,76.172,80.078,69.336,75.195,-16.113,0
1507427535.386,71.289,66.895,76.660,59.082,-5.371,0
1507427535.390,62.012,69.336,67.871,58.105,17.090,0
1507427535.394,53.223,66.406,51.270,60.547,26.367,0
1507427535.398,56.152,51.758,52.734,55.176,30.762,0
1507427535.402,68.359,44.922,57.617,66.895,48.828,0
1507427535.406,58.594,51.270,71.289,60.547,32.227,0
1507427535.410,51.758,64.453,75.195,45.898,22.949,0
1507427535.413,47.363,62.500,63.477,45.410,30.762,0
1507427535.417,42.480,50.293,69.336,43.945,24.414,0
1507427535.421,47.363,48.340,44.922,50.781,19.531,0
1507427535.425,47.852,-3.906,12.695,58.594,22.461,0
1507427535.429,55.664,-6.348,21.973,57.617,20.508,0
1507427535.433,47.852,55.176,35.156,47.363,35.156,0
1507427535.437,32.227,69.336,98.633,38.574,37.598,0
1507427535.441,44.922,67.383,69.336,51.758,-3.906,0
1507427535.445,69.336,-30.273,-41.504,83.984,17.090,0
1507427535.449,43.457,-34.668,22.949,60.547,49.805,0
1507427535.453,30.762,93.262,66.406,32.715,38.574,0
1507427535.456,42.969,128.418,72.754,43.457,10.254,0
1507427535.460,34.668,91.797,88.867,37.598,27.344,0
1507427535.464,36.621,81.055,60.059,35.156,19.043,0
1507427535.468,44.434,81.543,92.773,43.457,-5.859,0
1507427535.472,35.645,63.965,79.102,41.992,8.789,0
1507427535.476,31.250,62.012,56.641,41.504,20.996,0
1507427535.480,41.992,58.594,34.180,44.922,40.527,0
1507427535.484,45.410,53.223,33.203,45.410,11.719,0
1507427535.488,47.852,31.250,36.133,53.711,9.277,0
1507427535.492,53.223,20.996,33.691,55.664,65.918,0
1507427535.495,56.152,41.504,55.176,57.129,55.664,0
1507427535.499,53.711,41.016,67.383,56.152,19.531,0
1507427535.503,49.316,45.410,63.965,51.270,6.836,0
1507427535.507,48.340,40.527,35.156,43.945,39.551,0
1507427535.511,45.410,20.996,36.621,39.062,44.922,0
1507427535.515,42.969,38.086,108.398,45.410,-9.277,0
1507427535.519,45.898,67.871,52.734,51.758,-6.836,0
1507427535.523,42.969,60.547,-6.836,53.223,39.551,0
1507427535.527,44.922,61.035,61.035,56.152,38.574,0
1507427535.531,63.965,39.062,56.152,65.918,8.301,0
1507427535.535,49.805,-0.488,53.711,45.410,26.367,0
1507427535.538,41.504,49.316,97.168,31.250,48.340,0
1507427535.542,43.945,69.336,94.238,37.598,11.230,0
1507427535.546,36.621,53.711,43.945,35.645,43.945,0
1507427535.550,39.062,48.340,27.344,38.574,57.617,0
1507427535.554,43.457,25.391,63.965,41.504,26.855,0
1507427535.558,41.504,39.062,69.824,35.156,43.457,0
1507427535.562,43.945,65.430,16.113,37.109,18.555,0
1507427535.566,61.035,51.758,-2.930,51.758,34.180,0
1507427535.570,51.758,18.066,46.387,40.527,59.082,0
1507427535.574,41.016,12.207,73.730,31.738,35.645,0
1507427535.578,41.504,50.293,102.051,33.691,28.809,0
1507427535.581,39.551,69.336,67.383,39.551,23.926,0
1507427535.585,43.457,46.387,38.574,42.480,17.578,0
1507427535.589,32.227,43.945,43.457,38.574,30.762,0
1507427535.593,47.363,25.391,23.926,57.617,48.340,0
1507427535.597,51.758,8.301,45.898,60.547,22.461,0
1507427535.601,34.668,46.387,42.480,38.574,4.883,0
1507427535.605,40.527,36.133,34.668,35.156,0.488,0
1507427535.609,37.109,37.109,42.480,29.297,30.273,0
1507427535.613,41.016,57.617,39.551,35.645,68.848,0
1507427535.617,59.570,2.441,78.125,55.176,33.203,0
1507427535.620,53.711,22.461,70.801,54.688,27.832,0
1507427535.624,42.480,84.473,51.758,33.203,37.109,0
1507427535.628,49.316,76.172,67.871,33.203,41.992,0
1507427535.632,46.387,55.664,62.988,37.109,11.230,0
1507427535.636,42.969,63.965,64.941,38.086,-4.883,0
1507427535.640,42.480,58.105,36.621,37.109,25.391,0
1507427535.644,38.574,40.527,32.227,34.180,33.203,0
1507427535.648,34.180,50.293,59.082,32.715,40.527,0
1507427535.652,37.598,48.828,63.965,32.715,20.996,0
1507427535.656,47.363,61.523,70.801,44.434,29.297,0
1507427535.660,53.711,59.570,45.410,51.270,42.969,0
1507427535.663,53.223,30.762,-16.113,49.805,25.879,0
1507427535.667,48.340,24.414,53.223,52.246,54.688,0
1507427535.671,48.828,51.758,131.836,55.176,58.105,0
1507427535.675,51.758,63.965,100.098,58.105,43.457,0
1507427535.679,54.199,23.438,56.152,51.270,41.016,0
1507427535.683,55.664,32.715,56.152,46.387,23.926,0
1507427535.687,55.176,67.383,64.941,45.898,15.625,0
1507427535.691,51.758,66.406,31.250,47.363,8.789,0
1507427535.695,62.012,44.922,43.945,56.641,14.160,0
1507427535.699,71.289,30.273,63.477,62.500,39.551,0
1507427535.703,52.734,61.035,-4.395,45.898,28.320,0
1507427535.706,37.598,64.453,27.832,34.668,9.277,0
1507427535.710,44.434,61.523,108.398,40.527,17.578,0
1507427535.714,44.922,19.043,45.898,36.133,9.766,0
1507427535.718,37.109,-1.953,32.715,30.762,20.020,0
1507427535.722,27.344,64.941,102.539,29.297,35.156,0
1507427535.726,35.156,83.984,88.867,30.273,-15.625,0
1507427535.730,36.133,66.406,65.918,29.785,-18.555,0
1507427535.734,34.668,72.754,77.148,34.180,19.531,0
1507427535.738,41.016,73.730,45.898,41.992,24.414,0
1507427535.742,34.180,49.805,51.758,41.504,10.254,0
1507427535.745,38.574,23.926,65.918,42.480,-0.488,0
1507427535.749,48.340,37.598,26.855,47.363,-3.906,0
1507427535.753,56.152,55.664,19.531,46.875,-15.625,0
1507427535.757,54.199,56.152,49.805,45.898,-29.297,0
1507427535.761,44.434,65.918,88.379,41.016,-25.879,0
1507427535.765,54.688,34.668,64.941,48.828,14.160,0
1507427535.769,68.359,13.672,26.367,59.570,13.672,0
1507427535.773,62.500,60.059,79.590,49.316,21.973,0
1507427535.777,56.641,76.172,88.867,46.875,82.031,0
1507427535.781,53.711,68.848,19.531,50.293,72.266,0
1507427535.785,54.199,61.035,17.578,55.664,7.324,0
1507427535.788,45.410,31.738,98.633,48.340,-13.672,0
1507427535.792,42.969,9.277,111.816,48.828,29.785,0
1507427535.796,48.340,26.367,38.086,50.293,43.945,0
1507427535.800,44.922,66.406,49.316,38.574,7.812,0
1507427535.804,47.852,58.105,67.383,33.203,6.348,0
1507427535.808,43.457,29.297,61.035,27.832,31.738,0
1507427535.812,33.203,50.781,88.867,34.180,28.809,0
1507427535.816,35.156,70.801,82.031,45.898,9.766,0
1507427535.820,44.922,62.012,61.523,48.828,34.180,0
1507427535.824,45.410,21.973,47.363,45.898,88.867,0
1507427535.828,53.223,14.648,4.883,43.457,63.965,0
1507427535.831,55.664,54.199,12.207,40.039,31.738,0
1507427535.835,34.668,57.129,108.398,31.738,29.785,0
1507427535.839,25.879,59.082,140.625,34.668,27.832,0
1507427535.843,22.461,71.289,88.867,40.527,15.137,0
1507427535.847,31.250,60.547,83.984,43.945,-6.348,0
1507427535.851,38.574,41.504,83.984,42.969,9.766,0
1507427535.855,38.086,43.457,67.383,44.922,54.199,0
1507427535.859,52.734,54.688,47.363,58.105,39.062,0
1507427535.863,43.945,53.223,30.273,47.852,2.441,0
1507427535.867,36.621,52.246,46.875,38.086,22.461,0
1507427535.870,46.875,49.316,68.359,33.691,25.879,0
1507427535.874,49.805,45.410,86.426,38.086,16.602,0
1507427535.878,44.922,43.945,70.801,38.574,28.809,0
1507427535.882,39.551,46.387,64.941,37.598,22.949,0
1507427535.886,41.992,36.133,93.750,44.434,17.578,0
1507427535.890,41.504,36.133,64.453,36.621,-7.812,0
1507427535.894,42.969,51.758,48.828,41.992,-31.250,0
1507427535.898,51.270,54.199,57.129,56.641,22.949,0
1507427535.902,46.875,48.340,58.105,52.246,49.805,0
1507427535.906,47.363,53.711,83.984,46.875,8.301,0
1507427535.910,65.430,52.734,41.016,56.152,15.137,0
1507427535.913,67.383,53.223,16.602,61.523,41.504,0
1507427535.917,59.570,21.973,91.797,55.176,12.207,0
1507427535.921,42.480,4.395,73.730,40.039,17.578,0
1507427535.925,35.156,51.758,63.477,38.574,28.809,0
1507427535.929,48.340,68.359,71.777,47.363,15.625,0
1507427535.933,49.316,57.617,77.637,49.316,5.859,0
1507427535.937,47.363,49.805,88.379,48.340,-6.348,0
1507427535.941,40.039,37.109,56.641,45.898,34.668,0
1507427535.945,41.016,40.527,62.500,44.434,31.738,0
1507427535.949,48.340,19.531,24.414,47.852,1.465,0
1507427535.953,46.875,12.207,0.488,46.875,7.324,0
1507427535.956,35.156,50.781,64.941,30.273,23.926,0
1507427535.960,50.293,-10.742,60.547,44.434,40.039,0
1507427535.964,63.477,-34.180,69.824,65.430,15.625,0
1507427535.968,41.016,56.152,87.402,46.875,10.254,0
1507427535.972,44.434,108.398,16.113,41.016,23.438,0
1507427535.976,47.852,88.867,95.703,37.109,-0.488,0
1507427535.980,34.668,48.340,106.934,23.926,-6.348,0
1507427535.984,27.344,38.574,35.156,30.273,11.719,0
1507427535.988,38.574,41.504,46.387,50.781,46.387,0
1507427535.992,36.621,56.152,-11.719,43.945,63.477,0
1507427535.995,40.527,51.270,8.789,34.180,34.668,0
1507427535.999,55.176,24.902,85.449,37.598,18.555,0
1507427536.003,39.551,23.438,110.352,22.949,25.879,0
1507427536.007,39.062,51.270,100.098,25.879,58.594,0
1507427536.011,50.293,64.941,80.566,41.992,46.875,0
1507427536.015,45.898,62.012,54.688,47.363,37.598,0
1507427536.019,42.480,46.387,5.371,39.551,24.414,0
1507427536.023,46.875,14.160,23.926,40.039,0.488,0
1507427536.027,51.270,21.973,28.809,50.293,-1.465,0
1507427536.031,40.039,46.387,53.711,33.203,11.230,0
1507427536.035,32.715,66.406,90.332,18.555,5.859,0
1507427536.038,34.180,67.871,91.309,20.996,-12.207,0
1507427536.042,51.270,74.219,58.105,41.992,-13.672,0
1507427536.046,58.105,64.941,41.992,53.711,-3.418,0
1507427536.050,37.598,40.527,51.758,43.945,21.484,0
1507427536.054,36.621,41.016,50.293,46.387,29.785,0
1507427536.058,51.270,41.504,70.312,48.340,15.625,0
1507427536.062,48.340,32.227,23.438,40.039,31.738,0
1507427536.066,42.969,39.551,47.363,37.109,41.016,0
1507427536.070,56.152,41.504,79.102,47.363,4.883,0
1507427536.074,55.664,27.344,11.230,39.062,-3.906,0
1507427536.078,35.156,26.855,41.992,27.832,14.160,0
1507427536.081,44.922,52.246,85.938,51.758,8.789,0
1507427536.085,54.199,52.246,56.152,51.270,-16.602,0
1507427536.089,50.293,45.898,107.422,39.551,-5.371,0
1507427536.093,44.434,56.641,91.797,36.133,-0.977,0
1507427536.097,41.016,26.855,22.461,34.180,-1.953,0
1507427536.101,22.461,-21.973,64.941,30.273,20.508,0
1507427536.105,8.789,-15.137,62.012,27.344,24.414,0
1507427536.109,33.203,53.223,23.438,44.922,61.035,0
1507427536.113,54.199,98.145,28.809,62.500,58.594,0
1507427536.117,56.641,87.891,43.945,62.012,-14.160,0
1507427536.120,50.293,44.434,-6.836,51.758,7.324,0
1507427536.124,44.434,17.090,8.789,41.016,35.645,0
1507427536.128,20.020,51.270,89.844,16.602,40.039,0
1507427536.132,31.738,27.344,106.934,25.879,37.598,0
1507427536.136,69.336,-44.922,95.703,61.523,35.156,0
1507427536.140,67.383,27.344,82.031,63.965,16.602,0
1507427536.144,41.504,115.723,44.434,40.039,30.762,0
1507427536.148,22.461,92.773,60.059,29.297,57.617,0
1507427536.152,27.344,54.199,73.242,33.203,16.602,0
1507427536.156,33.203,55.664,9.766,33.691,6.348,0
1507427536.160,42.969,64.941,16.602,45.898,12.695,0
1507427536.163,50.781,56.641,74.707,60.059,4.395,0
1507427536.167,50.293,23.926,86.914,48.828,23.926,0
1507427536.171,54.199,30.273,94.238,41.504,35.156,0
1507427536.175,44.922,37.109,58.105,41.016,22.949,0
1507427536.179,36.621,34.180,27.344,34.180,37.109,0
1507427536.183,32.227,41.504,57.129,28.320,57.617,0
1507427536.187,40.039,23.438,87.891,41.016,68.359,0
1507427536.191,62.988,24.902,74.707,62.988,21.484,0
1507427536.195,62.500,66.406,51.270,59.570,7.324,0
1507427536.199,53.223,72.754,36.133,62.500,30.273,0
1507427536.203,48.828,59.082,27.832,62.988,23.926,0
1507427536.206,43.457,45.410,56.641,45.410,52.734,0
1507427536.210,33.691,46.387,76.660,31.738,22.949,0
1507427536.214,35.156,-22.461,62.988,30.762,-7.812,0
1507427536.218,64.453,-49.805,61.035,60.547,17.578,0
1507427536.222,72.266,89.355,52.734,71.777,15.137,0
1507427536.226,61.035,119.141,21.973,51.758,7.812,0
1507427536.230,54.199,58.105,69.336,43.945,18.066,0
1507427536.234,33.691,44.922,102.539,27.832,7.812,0
1507427536.238,27.344,50.781,84.473,31.738,-6.348,0
1507427536.242,36.133,56.641,32.227,39.551,25.879,0
1507427536.245,62.988,71.289,64.941,59.082,52.734,0
1507427536.249,80.078,58.594,88.867,75.684,26.855,0
1507427536.253,56.641,32.715,71.289,42.969,29.297,0
1507427536.257,49.805,49.316,95.215,38.086,31.250,0
1507427536.261,54.688,59.082,103.027,48.828,36.621,0
1507427536.265,47.852,48.340,63.965,47.363,27.344,0
1507427536.269,43.945,52.734,49.805,57.617,0.000,0
1507427536.273,36.133,49.805,47.363,49.316,2.930,0
1507427536.277,43.457,51.270,13.672,44.922,24.902,0
1507427536.281,62.988,73.242,63.965,59.570,0.977,0
1507427536.285,58.594,67.871,84.473,59.570,-1.953,0
1507427536.288,49.805,45.898,81.543,50.293,49.316,0
1507427536.292,51.270,-14.648,95.215,48.340,29.297,0
1507427536.296,41.504,-43.945,40.039,42.480,26.367,0
1507427536.300,35.156,24.902,57.617,32.227,57.617,0
1507427536.304,33.203,60.059,87.402,26.855,34.180,0
1507427536.308,30.273,68.359,59.082,29.297,15.625,0
1507427536.312,56.641,91.309,64.941,57.617,-1.953,0
1507427536.316,62.012,82.520,65.430,55.176,28.320,0
1507427536.320,60.547,60.547,42.969,46.387,59.082,0
1507427536.324,69.336,54.688,53.223,49.316,14.648,0
1507427536.328,65.430,43.945,80.078,42.480,-4.883,0
1507427536.331,63.477,40.039,59.082,37.598,-3.906,0
1507427536.335,65.430,48.828,53.223,31.250,4.395,0
1507427536.339,66.895,43.945,94.727,47.363,-3.906,0
1507427536.343,77.148,53.223,100.586,59.570,-11.719,0
1507427536.347,70.801,67.383,90.820,50.293,18.555,0
1507427536.351,64.941,59.570,65.918,51.270,52.734,0
1507427536.355,54.199,41.016,46.387,43.457,26.367,0
1507427536.359,36.621,39.062,88.379,31.250,-9.766,0
1507427536.363,36.133,40.527,101.562,33.691,24.902,0
1507427536.367,38.574,37.598,53.711,41.992,46.875,0
1507427536.370,42.969,42.480,41.016,41.016,52.246,0
1507427536.374,58.105,48.828,81.543,44.434,48.340,0
1507427536.378,62.012,71.777,70.801,54.688,41.992,0
1507427536.382,52.734,75.684,57.617,51.758,29.785,0
1507427536.386,53.223,49.316,62.988,41.504,-13.672,0
1507427536.390,45.898,28.320,78.125,34.668,-1.953,0
1507427536.394,32.715,23.926,56.641,26.855,14.648,0
1507427536.398,40.527,33.203,34.668,29.785,-1.953,0
1507427536.402,47.852,10.742,69.336,32.715,0.000,0
1507427536.406,54.199,18.555,96.680,47.363,6.348,0
1507427536.410,61.523,74.707,93.262,65.918,11.230,0
1507427536.413,42.480,79.590,56.641,53.223,13.184,0
1507427536.417,27.832,58.105,60.547,33.203,-14.160,0
1507427536.421,19.043,45.898,31.250,22.949,-9.277,0
1507427536.425,12.207,47.852,34.180,22.949,20.508,0
1507427536.429,12.207,48.828,91.309,25.391,1.465,0
1507427536.433,32.715,52.734,63.965,40.039,15.625,0
1507427536.437,47.363,56.152,74.707,48.340,26.855,0
1507427536.441,42.480,51.270,83.984,40.039,-0.488,0
1507427536.445,37.598,44.922,69.824,39.062,17.090,0
1507427536.449,16.113,16.113,57.129,27.344,22.461,0
1507427536.453,19.043,19.043,28.320,33.691,24.414,0
1507427536.456,32.227,47.852,70.312,45.898,19.043,0
1507427536.460,37.109,52.734,121.094,46.875,22.461,0
1507427536.464,49.805,54.199,74.707,57.129,41.016,0
1507427536.468,44.434,49.316,66.895,55.664,16.113,0
1507427536.472,31.738,45.410,80.078,48.340,7.324,0
1507427536.476,30.762,28.809,75.684,41.504,-6.348,0
1507427536.480,25.391,17.578,68.359,34.668,-9.766,0
1507427536.484,23.926,35.645,42.480,37.109,-3.418,0
1507427536.488,31.250,44.922,69.336,37.598,-8.789,0
1507427536.492,53.711,59.570,79.590,49.805,18.066,0
1507427536.495,64.941,71.777,87.891,62.988,13.184,0
1507427536.499,52.246,61.035,84.961,56.641,5.859,0
1507427536.503,42.480,50.293,81.055,46.387,30.762,0
1507427536.507,34.668,43.457,61.523,33.691,25.391,0
1507427536.511,30.273,35.156,58.594,28.320,13.672,0
1507427536.515,29.297,34.180,71.777,25.879,29.297,0
1507427536.519,35.156,38.574,42.480,28.320,30.273,0
1507427536.523,45.898,48.340,61.523,36.621,36.621,0
1507427536.527,47.363,52.734,87.402,44.434,34.180,0
1507427536.531,29.785,57.617,91.309,35.645,24.902,0
1507427536.535,15.625,50.293,77.148,15.625,37.598,0
1507427536.538,18.066,36.621,46.875,13.184,22.461,0
1507427536.542,6.348,26.367,38.086,2.441,28.320,0
1507427536.546,-7.812,16.113,41.016,-5.371,14.160,0
1507427536.550,-0.488,19.043,60.059,0.488,7.812,0
1507427536.554,-0.488,29.297,101.074,-6.348,47.363,0
1507427536.558,-19.043,29.785,59.082,-22.949,42.480,0
1507427536.562,7.324,11.230,40.527,-3.906,30.273,0
1507427536.566,28.809,2.930,66.406,18.066,-3.418,0
1507427536.570,4.395,52.734,98.145,-0.488,-9.766,0
1507427536.574,-9.766,50.293,113.770,-7.812,6.836,0
1507427536.578,-22.461,42.480,92.285,-19.043,-14.648,0
1507427536.581,-22.949,46.875,38.574,-28.320,-4.395,0
1507427536.585,-12.695,-7.812,13.672,-22.949,15.625,0
1507427536.589,-15.625,-12.695,68.359,-29.785,16.113,0
1507427536.593,-27.832,37.598,103.516,-37.109,4.883,0
1507427536.597,-41.504,58.594,70.312,-42.480,5.859,0
1507427536.601,-31.738,47.363,57.129,-35.645,47.363,0
1507427536.605,-5.371,62.012,97.656,-3.418,67.383,0
1507427536.609,10.742,72.266,111.816,7.324,50.293,0
1507427536.613,14.648,63.477,70.312,1.953,7.324,0
1507427536.617,0.977,50.293,54.199,-5.859,-9.277,0
1507427536.620,-8.789,37.598,81.543,-11.719,15.137,0
1507427536.624,-9.766,27.344,90.332,-14.648,14.648,0
1507427536.628,-2.930,21.973,63.965,-7.812,32.227,0
1507427536.632,8.789,16.602,8.789,4.395,22.949,0
1507427536.636,3.906,22.949,57.617,-3.418,13.672,0
1507427536.640,1.465,43.457,79.102,-3.906,26.855,0
1507427536.644,4.883,43.457,57.617,-0.488,-1.465,0
1507427536.648,-2.930,35.156,73.730,-5.371,20.508,0
1507427536.652,3.418,36.621,63.477,6.348,48.828,0
1507427536.656,6.348,22.461,54.688,5.371,23.438,0
1507427536.660,35.156,39.551,84.473,23.926,16.113,0
1507427536.663,65.918,78.613,95.215,57.129,22.461,0
1507427536.667,62.012,78.125,66.406,62.988,41.016,0
1507427536.671,55.176,68.359,58.105,50.781,11.719,0
1507427536.675,41.016,54.199,97.168,29.785,20.996,0
1507427536.679,33.203,43.457,59.570,23.926,59.570,0
1507427536.683,45.898,45.410,36.621,30.273,24.414,0
1507427536.687,41.992,41.992,85.449,29.785,-8.301,0
1507427536.691,31.250,27.344,68.848,22.461,20.020,0
1507427536.695,29.785,35.156,30.762,21.484,39.551,0
1507427536.699,41.016,63.965,58.594,39.551,34.180,0
1507427536.703,63.965,78.125,106.445,60.059,3.906,0
1507427536.706,59.570,49.805,74.707,53.711,30.273,0
1507427536.710,55.176,40.039,41.504,51.758,40.527,0
1507427536.714,49.316,38.574,13.184,44.922,17.090,0
1507427536.718,34.180,29.297,18.555,25.879,19.531,0
1507427536.722,38.086,24.414,22.949,26.367,30.273,0
1507427536.726,50.293,15.137,43.945,37.109,43.945,0
1507427536.730,50.293,34.180,70.801,37.109,16.602,0
1507427536.734,45.410,45.410,46.875,36.133,-14.160,0
1507427536.738,42.480,42.480,64.941,43.457,26.855,0
1507427536.742,39.551,37.598,67.871,39.062,51.270,0
1507427536.745,49.805,31.250,60.547,41.992,37.598,0
1507427536.749,80.078,51.270,79.102,70.801,1.953,0
1507427536.753,85.938,73.730,80.566,78.125,24.902,0
1507427536.757,73.242,63.965,77.637,65.430,47.852,0
1507427536.761,62.500,36.133,65.430,51.270,24.414,0
1507427536.765,59.570,34.180,20.020,43.457,10.254,0
1507427536.769,50.293,48.828,-7.812,40.527,20.508,0
1507427536.773,43.457,45.898,20.020,45.410,-6.348,0
1507427536.777,42.969,33.203,78.613,49.805,-8.301,0
1507427536.781,38.086,20.996,66.406,40.039,34.180,0
1507427536.785,39.062,31.250,53.223,34.668,28.809,0
1507427536.788,42.480,46.387,41.016,37.109,22.461,0
1507427536.792,73.242,73.242,58.105,69.336,31.738,0
1507427536.796,87.402,82.520,82.520,84.961,57.617,0
1507427536.800,67.871,62.500,65.430,63.477,31.250,0
1507427536.804,62.988,52.734,61.035,56.152,24.902,0
1507427536.808,61.523,38.086,53.711,45.898,40.039,0
1507427536.812,56.641,39.062,59.082,45.410,62.500,0
1507427536.816,50.293,43.945,57.129,55.176,62.500,0
1507427536.820,45.410,35.645,35.645,42.969,7.324,0
1507427536.824,54.199,30.273,-5.859,42.480,-13.672,0
1507427536.828,49.805,20.020,38.574,48.340,29.785,0
1507427536.831,49.316,22.461,87.402,48.340,62.012,0
1507427536.835,47.852,28.320,55.664,40.039,4.883,0
1507427536.839,35.156,22.949,15.625,37.109,-23.438,0
1507427536.843,38.574,16.602,44.922,40.039,32.715,0
1507427536.847,51.270,11.719,58.594,41.992,38.574,0
1507427536.851,48.828,14.160,-18.555,37.598,14.648,0
1507427536.855,41.016,24.902,6.348,35.645,16.602,0
1507427536.859,45.410,36.133,94.727,41.016,16.602,0
1507427536.863,38.086,61.523,112.793,39.062,1.953,0
1507427536.867,59.570,90.332,71.289,64.941,-1.465,0
1507427536.870,80.078,94.727,47.363,91.309,-4.883,0
1507427536.874,73.242,65.430,75.684,79.590,35.645,0
1507427536.878,76.660,56.641,52.734,59.082,9.766,0
1507427536.882,69.336,44.434,62.500,44.434,-42.480,0
1507427536.886,53.711,44.922,64.941,41.992,1.953,0
1507427536.890,39.062,54.688,60.059,40.527,47.363,0
1507427536.894,35.645,38.086,92.773,37.109,28.809,0
1507427536.898,40.039,28.320,43.457,35.645,8.301,0
1507427536.902,42.969,34.668,20.020,33.203,37.598,0
1507427536.906,32.227,30.273,41.992,29.297,27.344,0
1507427536.910,21.973,27.344,29.297,27.832,6.836,0
1507427536.913,35.645,41.992,44.434,33.203,13.672,0
1507427536.917,56.152,49.805,90.332,55.176,12.207,0
1507427536.921,60.059,59.570,50.293,63.477,1.465,0
1507427536.925,55.176,56.641,25.391,52.734,-31.250,0
1507427536.929,51.758,33.691,60.547,45.410,-32.227,0
1507427536.933,47.852,38.574,62.988,43.457,22.461,0
1507427536.937,54.199,47.852,48.340,44.434,54.688,0
1507427536.941,70.312,61.523,52.246,62.500,42.969,0
1507427536.945,80.078,69.824,80.078,85.938,-0.977,0
1507427536.949,68.848,62.500,81.055,73.242,3.418,0
1507427536.953,58.105,62.988,94.238,56.641,13.184,0
1507427536.956,50.293,56.152,85.938,47.852,28.320,0
1507427536.960,51.758,42.969,65.918,41.504,58.594,0
1507427536.964,50.293,41.016,42.969,38.574,33.691,0
1507427536.968,43.457,34.180,18.555,41.992,-1.465,0
1507427536.972,37.109,25.879,0.977,43.457,-0.977,0
1507427536.976,28.320,32.227,32.715,32.227,32.715,0
1507427536.980,33.203,32.715,75.684,30.762,46.875,0
1507427536.984,45.898,40.527,53.223,42.480,7.324,0
1507427536.988,50.293,36.621,35.156,41.504,-2.930,0
1507427536.992,50.781,28.809,38.086,40.527,50.293,0
1507427536.995,45.410,37.598,71.777,41.504,27.832,0
1507427536.999,35.645,36.133,47.852,35.645,2.930,0
1507427537.003,38.574,36.133,47.363,41.992,31.250,0
1507427537.007,37.109,43.457,73.242,42.480,30.273,0
1507427537.011,38.574,40.039,69.336,37.598,34.180,0
1507427537.015,36.621,38.574,47.363,33.691,28.320,0
1507427537.019,26.855,33.691,34.668,30.273,20.996,0
1507427537.023,34.668,27.344,54.688,38.574,38.574,0
1507427537.027,35.645,34.668,82.031,43.457,39.062,0
1507427537.031,29.785,30.273,37.598,35.156,16.113,0
1507427537.035,37.598,24.902,15.625,34.668,0.488,0
1507427537.038,49.805,32.227,75.195,42.969,-2.441,0
1507427537.042,50.293,24.414,79.102,41.016,11.230,0
1507427537.046,56.152,45.898,53.711,47.363,1.953,0
1507427537.050,66.406,75.195,36.621,56.641,-2.441,0
1507427537.054,60.059,62.012,69.336,50.781,13.672,0
1507427537.058,54.688,65.430,86.914,51.270,22.461,0
1507427537.062,60.059,73.730,81.055,56.152,-4.883,0
1507427537.066,78.125,76.172,91.309,65.430,-8.301,0
1507427537.070,76.172,77.637,87.891,69.824,34.180,0
1507427537.074,69.824,83.984,79.102,72.266,22.461,0
1507427537.078,90.820,96.191,109.863,91.797,0.488,0
1507427537.081,87.891,80.078,96.680,84.473,40.527,0
1507427537.085,63.477,58.105,18.555,62.500,32.227,0
1507427537.089,53.711,50.781,18.555,54.199,11.230,0
1507427537.093,59.082,47.363,43.945,42.969,30.273,0
1507427537.097,61.523,50.293,53.711,35.645,7.812,0
1507427537.101,44.434,45.410,68.359,29.785,1.465,0
1507427537.105,34.180,17.578,72.754,24.414,-1.465,0
1507427537.109,31.738,22.461,62.988,20.020,-12.695,0
1507427537.113,34.180,43.945,52.246,17.578,26.855,0
1507427537.117,40.527,38.574,59.570,21.973,28.809,0
1507427537.120,52.246,51.758,52.734,34.180,0.000,0
1507427537.124,67.871,67.383,57.617,44.922,30.273,0
1507427537.128,63.477,59.082,63.477,37.598,54.688,0
1507427537.132,55.176,47.852,-35.645,27.344,18.066,0
1507427537.136,61.523,46.387,-30.762,22.949,14.160,0
1507427537.140,64.941,38.574,73.242,32.715,44.922,0
1507427537.144,59.570,33.203,104.492,41.016,50.293,0
1507427537.148,55.664,43.945,117.188,31.250,35.645,0
1507427537.152,55.176,57.129,85.938,25.879,6.348,0
1507427537.156,62.012,61.035,43.945,39.551,21.484,0
1507427537.160,72.266,53.223,52.246,57.129,50.781,0
1507427537.163,69.336,58.594,63.477,62.988,15.625,0
1507427537.167,59.082,65.430,70.801,61.035,-0.977,0
1507427537.171,57.129,63.477,71.777,65.430,19.043,0
1507427537.175,59.570,70.312,70.312,63.477,48.828,0
1507427537.179,70.312,64.941,87.891,63.477,45.898,0
1507427537.183,73.242,62.988,74.219,61.035,15.625,0
1507427537.187,76.172,60.059,68.359,65.918,29.785,0
1507427537.191,80.566,52.734,61.035,70.312,53.711,0
1507427537.195,82.520,71.289,91.309,73.242,40.527,0
1507427537.199,69.824,83.984,114.746,67.383,16.113,0
1507427537.203,66.895,84.961,102.539,63.477,25.879,0
1507427537.206,75.684,76.660,83.984,71.289,35.645,0
1507427537.210,64.453,70.312,82.031,65.918,4.395,0
1507427537.214,64.453,69.336,46.875,61.035,20.020,0
1507427537.218,58.105,60.547,46.387,55.176,26.367,0
1507427537.222,51.758,59.570,66.895,52.734,21.973,0
1507427537.226,57.617,60.059,76.660,57.617,30.273,0
1507427537.230,53.711,57.129,53.223,54.688,24.414,0
1507427537.234,42.969,53.223,38.574,44.922,41.992,0
1507427537.238,46.387,51.758,91.309,51.270,51.758,0
1507427537.242,54.688,59.082,55.176,57.129,20.020,0
1507427537.245,54.199,53.711,30.273,49.316,27.344,0
1507427537.249,61.523,42.969,59.570,50.781,24.902,0
1507427537.253,53.223,42.969,91.309,56.641,-12.695,0
1507427537.257,39.062,49.316,97.168,53.223,-34.180,0
1507427537.261,41.504,46.875,67.871,41.504,7.812,0
1507427537.265,37.598,36.621,51.270,36.133,38.574,0
1507427537.269,35.645,34.668,32.715,35.645,22.949,0
1507427537.273,44.922,29.785,28.809,39.551,26.367,0
1507427537.277,49.316,36.133,47.363,46.387,50.293,0
1507427537.281,43.457,44.434,82.520,42.969,62.988,0
1507427537.285,34.180,48.340,100.586,29.785,39.551,0
1507427537.288,28.809,55.176,53.711,32.715,7.324,0
1507427537.292,32.227,61.035,29.297,39.551,9.277,0
1507427537.296,27.344,63.965,54.199,32.227,44.922,0
1507427537.300,15.625,53.223,59.570,24.414,16.113,0
1507427537.304,17.090,49.805,70.312,21.484,-5.371,0
1507427537.308,28.320,53.223,46.387,20.996,38.086,0
1507427537.312,32.715,45.410,21.484,27.832,19.043,0
1507427537.316,31.738,38.574,57.617,28.320,-24.902,0
1507427537.320,34.180,39.062,77.637,34.180,10.742,0
1507427537.324,48.340,43.457,57.129,46.875,47.852,0
1507427537.328,38.086,42.969,36.621,39.551,40.527,0
1507427537.331,27.832,38.574,59.570,30.762,34.180,0
1507427537.335,38.574,39.551,55.176,37.109,6.836,0
1507427537.339,28.320,40.527,59.082,24.902,0.977,0
1507427537.343,18.555,38.086,44.922,14.160,2.930,0
1507427537.347,17.090,35.645,10.254,8.789,-0.977,0
1507427537.351,4.395,36.133,38.574,0.977,-0.488,0
1507427537.355,-12.695,35.645,62.012,-4.395,16.602,0
1507427537.359,-7.812,37.598,48.828,-5.859,-6.836,0
1507427537.363,8.789,40.039,48.828,5.371,-13.672,0
1507427537.367,14.648,42.969,44.922,5.859,35.645,0
1507427537.370,11.230,37.598,2.930,-9.277,36.133,0
1507427537.374,-0.977,39.551,29.297,-14.648,31.250,0
1507427537.378,-8.301,30.273,61.035,-15.625,41.504,0
1507427537.382,1.465,14.160,43.457,-15.137,26.367,0
1507427537.386,-7.324,40.527,55.176,-20.996,-0.488,0
1507427537.390,-13.184,58.594,83.496,-23.926,36.621,0
1507427537.394,2.930,59.082,76.172,-15.625,27.832,0
1507427537.398,0.488,61.035,75.684,-14.160,10.254,0
1507427537.402,-0.488,62.012,54.688,-13.184,37.109,0
1507427537.406,0.977,62.012,49.316,-7.812,-8.301,0
1507427537.410,4.883,63.477,47.363,2.441,-19.531,0
1507427537.413,20.996,70.312,35.645,12.207,32.715,0
1507427537.417,15.625,61.035,35.156,5.859,29.785,0
1507427537.421,3.906,53.223,65.430,5.371,12.695,0
1507427537.425,8.301,57.129,83.496,16.113,44.434,0
1507427537.429,21.973,58.594,18.555,17.090,52.246,0
1507427537.433,35.156,64.453,18.066,24.414,8.789,0
1507427537.437,29.297,57.617,106.445,21.973,-14.160,0
1507427537.441,13.184,58.105,104.004,6.348,12.207,0
1507427537.445,10.254,54.688,86.426,9.766,46.387,0
1507427537.449,22.461,43.945,80.078,17.578,17.578,0
1507427537.453,26.367,61.035,57.129,14.160,6.836,0
1507427537.456,21.973,67.383,42.480,18.066,40.039,0
1507427537.460,21.484,66.406,65.430,19.531,41.504,0
1507427537.464,30.762,63.965,49.316,25.879,33.691,0
1507427537.468,35.645,55.664,31.738,31.250,51.270,0
1507427537.472,31.250,61.035,64.453,24.902,47.363,0
1507427537.476,30.762,70.801,114.746,20.996,45.898,0
1507427537.480,37.109,76.172,109.863,26.367,33.691,0
1507427537.484,39.062,74.219,41.992,33.691,8.789,0
1507427537.488,39.062,70.801,26.855,43.945,27.832,0
1507427537.492,40.039,65.430,64.453,47.852,10.254,0
1507427537.495,32.715,41.016,75.684,33.691,1.465,0
1507427537.499,34.180,30.273,-9.766,25.391,29.785,0
1507427537.503,48.828,54.688,9.277,36.621,30.762,0
1507427537.507,40.039,58.594,101.074,38.574,30.273,0
1507427537.511,26.855,43.945,92.773,22.461,42.969,0
1507427537.515,29.297,53.711,69.336,21.973,35.156,0
1507427537.519,30.273,54.688,56.641,23.926,27.344,0
1507427537.523,32.715,49.805,62.500,23.438,35.156,0
1507427537.527,38.574,62.500,67.871,28.809,-10.254,0
1507427537.531,53.223,71.777,46.875,41.016,-13.672,0
1507427537.535,53.223,60.059,25.391,41.016,36.133,0
1507427537.538,45.410,45.410,25.391,34.180,7.324,0
1507427537.542,49.805,52.734,7.324,42.480,-15.625,0
1507427537.546,56.152,55.664,47.363,40.527,24.902,0
1507427537.550,51.270,50.781,84.473,34.180,27.344,0
1507427537.554,42.480,51.758,60.547,40.527,30.762,0
1507427537.558,33.691,44.922,41.504,34.668,31.738,0
1507427537.562,41.504,42.969,51.758,40.039,7.324,0
1507427537.566,54.199,44.434,65.918,44.922,12.207,0
1507427537.570,54.199,47.363,44.434,48.828,7.812,0
1507427537.574,60.547,50.293,43.945,59.082,-20.996,0
1507427537.578,63.477,52.734,61.523,54.199,-1.953,0
1507427537.581,50.781,47.363,39.062,48.828,60.547,0
1507427537.585,49.316,47.852,-5.859,48.828,41.992,0
1507427537.589,60.547,51.270,5.859,50.781,3.906,0
1507427537.593,59.570,59.570,89.844,54.688,37.598,0
1507427537.597,53.711,62.012,88.379,54.688,18.066,0
1507427537.601,57.129,57.129,48.828,51.758,0.488,0
1507427537.605,54.199,58.105,47.852,52.246,25.879,0
1507427537.609,55.176,56.152,56.641,52.246,44.434,0
1507427537.613,58.594,57.129,57.617,49.316,46.387,0
1507427537.617,65.430,62.500,49.316,54.688,19.043,0
1507427537.620,69.824,55.664,19.043,51.758,12.207,0
1507427537.624,58.594,52.246,34.668,40.527,27.832,0
1507427537.628,58.594,58.594,64.941,50.293,22.949,0
1507427537.632,60.059,52.246,43.945,50.781,-9.277,0
1507427537.636,61.035,32.227,26.367,48.828,5.859,0
1507427537.640,60.059,28.809,35.156,56.152,61.523,0
1507427537.644,58.105,41.016,18.555,55.176,40.039,0
1507427537.648,47.852,42.969,31.250,46.387,20.508,0
1507427537.652,46.875,46.875,53.711,44.922,40.527,0
1507427537.656,51.758,39.551,51.270,52.246,38.086,0
1507427537.660,48.828,29.785,36.133,48.340,14.160,0
1507427537.663,42.480,39.551,24.902,36.621,4.883,0
1507427537.667,36.133,35.645,46.875,30.762,-7.812,0
1507427537.671,52.246,26.367,14.648,42.969,-3.906,0
1507427537.675,63.477,23.438,41.016,62.500,5.371,0
1507427537.679,45.898,42.969,48.828,51.758,29.297,0
1507427537.683,46.387,43.457,35.645,45.410,59.082,0
1507427537.687,72.266,52.734,64.941,62.012,28.320,0
1507427537.691,66.406,79.102,46.387,52.246,-6.348,0
1507427537.695,57.617,71.777,15.137,42.969,11.230,0
1507427537.699,56.152,62.988,14.648,50.293,20.508,0
1507427537.703,51.270,51.758,51.270,48.340,15.137,0
1507427537.706,48.828,47.852,66.895,43.945,4.883,0
1507427537.710,53.711,41.016,43.457,47.363,-11.230,0
1507427537.714,60.059,30.273,27.832,49.805,2.441,0
1507427537.718,64.453,42.969,27.344,57.617,8.301,0
1507427537.722,59.570,42.969,11.230,59.570,20.508,0
1507427537.726,65.918,18.555,48.828,62.988,20.508,0
1507427537.730,81.543,39.551,64.453,77.637,28.809,0
1507427537.734,72.754,71.289,28.809,76.172,22.461,0
1507427537.738,64.941,62.988,47.363,72.266,27.832,0
1507427537.742,58.105,44.922,20.508,68.359,55.176,0
1507427537.745,61.523,39.062,28.320,66.406,43.945,0
1507427537.749,68.848,52.734,35.156,64.941,26.855,0
1507427537.753,64.941,54.199,30.273,61.035,36.133,0
1507427537.757,63.965,36.621,64.941,64.453,15.625,0
1507427537.761,63.965,31.250,54.688,62.012,11.719,0
1507427537.765,63.477,45.410,56.641,58.105,13.184,0
1507427537.769,74.219,51.270,42.969,62.500,-18.066,0
1507427537.773,70.312,54.688,26.855,59.570,4.883,0
1507427537.777,57.617,61.035,39.551,50.781,40.527,0
1507427537.781,55.176,62.500,40.527,47.363,27.832,0
1507427537.785,58.594,58.105,45.898,53.711,41.504,0
1507427537.788,58.105,45.898,72.266,54.199,60.547,0
1507427537.792,57.617,32.715,45.410,54.199,32.715,0
1507427537.796,59.570,37.109,44.922,61.035,6.836,0
1507427537.800,62.500,48.340,67.871,60.547,6.348,0
1507427537.804,71.777,47.363,47.852,65.430,3.906,0
1507427537.808,65.430,39.551,25.391,68.359,-13.672,0
1507427537.812,57.617,41.016,34.180,64.941,-10.742,0
1507427537.816,61.523,37.598,5.859,64.941,13.672,0
1507427537.820,72.754,31.250,16.602,64.941,36.133,0
1507427537.824,70.801,40.039,71.777,64.941,34.668,0
1507427537.828,57.617,40.527,62.500,62.500,8.301,0
1507427537.831,60.547,33.691,44.922,62.988,10.254,0
1507427537.835,55.176,31.738,38.086,58.594,21.484,0
1507427537.839,55.176,20.996,65.430,64.941,14.648,0
1507427537.843,62.012,19.043,82.031,70.801,39.551,0
1507427537.847,65.430,31.738,57.129,64.941,51.270,0
1507427537.851,63.965,39.551,39.062,60.547,34.668,0
1507427537.855,68.848,44.434,44.922,61.035,14.648,0
1507427537.859,73.730,41.016,37.109,71.289,22.949,0
1507427537.863,63.965,30.273,29.785,62.012,28.809,0
1507427537.867,71.777,38.574,52.734,57.129,16.602,0
1507427537.870,70.312,59.570,61.035,65.918,35.156,0
1507427537.874,73.242,65.430,56.641,69.824,41.992,0
1507427537.878,82.520,60.547,91.797,64.941,48.340,0
1507427537.882,78.125,53.711,83.984,61.523,23.926,0
1507427537.886,78.613,48.828,60.547,57.129,2.930,0
1507427537.890,75.195,47.363,61.523,47.852,26.855,0
1507427537.894,76.660,35.156,31.738,56.152,42.969,0
1507427537.898,76.172,45.410,57.617,54.688,21.973,0
1507427537.902,73.730,54.199,69.336,36.621,17.578,0
1507427537.906,70.801,42.969,34.180,37.598,22.949,0
1507427537.910,65.918,37.598,36.621,43.945,27.832,0
1507427537.913,77.148,19.043,43.457,55.664,15.137,0
1507427537.917,60.059,42.969,51.270,46.875,-2.930,0
1507427537.921,46.387,81.543,74.219,40.039,15.137,0
1507427537.925,57.617,71.289,70.312,56.641,23.438,0
1507427537.929,58.105,60.547,62.012,58.105,24.902,0
1507427537.933,66.406,58.594,60.547,60.059,19.043,0
1507427537.937,68.848,54.688,56.152,62.012,33.203,0
1507427537.941,61.523,44.922,52.246,55.176,47.852,0
1507427537.945,63.965,44.922,65.918,59.082,-4.883,0
1507427537.949,71.289,57.617,30.273,63.477,-33.203,0
1507427537.953,63.477,49.805,34.668,58.594,21.973,0
1507427537.956,75.195,49.805,93.750,68.848,24.902,0
1507427537.960,79.102,49.316,77.148,68.848,5.859,0
1507427537.964,68.359,49.316,17.578,58.594,26.367,0
1507427537.968,75.684,70.312,50.781,64.453,43.945,0
1507427537.972,74.219,78.613,111.816,70.801,30.762,0
1507427537.976,80.566,51.270,88.867,80.078,16.602,0
1507427537.980,80.078,56.152,65.430,79.102,51.758,0
1507427537.984,68.848,77.148,73.730,71.289,60.059,0
1507427537.988,77.148,65.430,87.402,77.148,17.578,0
1507427537.992,74.219,70.801,59.570,69.824,9.766,0
1507427537.995,69.824,60.547,39.062,72.266,18.066,0
1507427537.999,77.637,50.781,48.340,86.914,32.227,0
1507427538.003,65.918,63.965,52.246,66.895,27.344,0
1507427538.007,45.898,75.195,43.945,56.152,-7.812,0
1507427538.011,49.316,62.988,43.457,73.730,14.648,0
1507427538.015,55.176,36.133,65.430,68.359,38.574,0
1507427538.019,52.246,40.039,64.453,56.641,-5.859,0
1507427538.023,51.270,54.688,46.387,49.805,-14.160,0
1507427538.027,52.734,41.504,41.016,51.758,12.695,0
1507427538.031,52.246,46.387,51.270,60.059,11.230,0
1507427538.035,42.969,55.664,60.547,54.199,31.250,0
1507427538.038,44.434,59.570,63.965,52.734,20.020,0
1507427538.042,57.129,59.082,51.758,63.477,25.391,0
1507427538.046,57.129,46.875,56.641,54.688,31.250,0
1507427538.050,49.316,37.109,41.992,40.039,-0.488,0
1507427538.054,51.270,39.062,5.859,50.293,9.277,0
1507427538.058,53.223,42.969,31.250,57.129,37.109,0
1507427538.062,45.410,46.387,54.688,58.594,19.043,0
1507427538.066,35.645,40.039,32.715,45.898,17.578,0
1507427538.070,38.086,19.043,48.828,40.527,35.645,0
1507427538.074,50.781,32.715,69.336,51.758,40.527,0
1507427538.078,58.594,53.223,22.949,53.711,33.691,0
1507427538.081,58.594,48.340,-17.090,56.641,20.508,0
1507427538.085,46.875,43.457,42.480,50.293,-1.465,0
1507427538.089,42.480,47.852,94.238,42.969,14.160,0
1507427538.093,56.152,41.504,63.477,50.293,22.949,0
1507427538.097,60.059,30.273,50.293,56.152,14.648,0
1507427538.101,54.688,30.273,54.199,49.316,12.207,0
1507427538.105,60.059,35.156,36.621,45.898,-4.883,0
1507427538.109,63.965,49.316,57.129,57.129,13.672,0
1507427538.113,57.617,47.363,77.637,62.012,8.301,0
1507427538.117,55.176,17.090,53.223,68.848,-0.488,0
1507427538.120,53.711,24.902,32.715,66.406,33.691,0
1507427538.124,48.340,66.895,75.195,48.340,23.926,0
1507427538.128,55.664,57.129,48.340,51.758,-13.672,0
1507427538.132,53.711,47.852,-9.766,54.688,0.000,0
1507427538.136,50.781,46.875,26.855,52.246,34.668,0
1507427538.140,57.129,38.086,40.527,62.012,21.973,0
1507427538.144,52.246,51.270,39.551,60.547,3.418,0
1507427538.148,50.781,55.176,66.406,48.340,33.691,0
1507427538.152,58.105,36.621,65.918,53.711,15.625,0
1507427538.156,62.500,35.645,60.547,62.012,16.602,0
1507427538.160,56.641,56.152,69.824,57.129,29.297,0
1507427538.163,41.992,59.082,58.594,49.316,-2.930,0
1507427538.167,40.039,44.922,22.461,52.246,-0.488,0
1507427538.171,44.922,41.016,29.297,50.781,17.578,0
1507427538.175,37.598,44.922,41.504,38.574,38.574,0
1507427538.179,43.945,47.852,52.246,36.621,7.812,0
1507427538.183,44.434,36.621,64.941,41.992,-11.719,0
1507427538.187,46.387,40.039,59.082,50.293,-23.926,0
1507427538.191,58.105,45.898,8.301,54.199,-9.766,0
1507427538.195,56.152,21.484,4.883,47.363,30.273,0
1507427538.199,43.457,19.043,59.082,41.504,38.086,0
1507427538.203,41.992,50.293,39.551,41.992,20.996,0
1507427538.206,39.062,49.316,37.109,37.109,34.668,0
1507427538.210,40.039,28.320,63.477,37.598,30.273,0
1507427538.214,42.480,43.457,43.457,39.551,33.203,0
1507427538.218,38.574,50.781,37.109,42.480,46.875,0
1507427538.222,41.016,52.246,50.293,47.363,22.461,0
1507427538.226,50.781,52.246,40.039,43.457,23.438,0
1507427538.230,60.547,36.621,49.316,46.875,10.254,0
1507427538.234,57.129,43.945,57.129,48.828,-8.301,0
1507427538.238,55.176,45.410,19.043,46.387,16.113,0
1507427538.242,57.617,32.227,5.859,48.340,42.480,0
1507427538.245,47.852,26.855,39.551,46.875,18.555,0
1507427538.249,47.852,40.527,40.527,47.363,3.418,0
1507427538.253,56.152,50.781,27.344,49.805,41.016,0
1507427538.257,54.688,29.785,40.527,45.898,60.059,0
1507427538.261,57.617,32.227,39.062,45.898,50.781,0
1507427538.265,57.617,64.941,36.133,60.059,21.973,0
1507427538.269,50.781,61.523,56.152,67.383,27.344,0
1507427538.273,61.035,52.734,53.711,66.895,26.367,0
1507427538.277,64.453,61.523,64.453,60.059,10.254,0
1507427538.281,61.523,52.734,72.754,58.594,24.902,0
1507427538.285,67.383,40.039,62.500,65.430,32.715,0
1507427538.288,71.289,43.945,55.664,67.871,21.973,0
1507427538.292,72.754,43.945,34.180,70.801,10.254,0
1507427538.296,69.824,41.016,35.156,68.359,21.973,0
1507427538.300,76.172,45.898,41.016,73.242,-0.488,0
1507427538.304,77.148,45.898,51.270,78.613,17.578,0
1507427538.308,72.754,46.875,73.730,75.684,60.059,0
1507427538.312,63.477,43.945,55.664,67.871,52.734,0
1507427538.316,49.805,31.738,10.254,61.523,58.594,0
1507427538.320,53.223,37.109,-4.883,62.500,23.926,0
1507427538.324,59.570,36.133,41.016,69.824,-3.418,0
1507427538.328,63.477,24.902,42.969,67.871,-4.395,0
1507427538.331,61.523,28.809,56.641,57.617,27.344,0
1507427538.335,56.641,33.691,85.938,53.223,-1.465,0
1507427538.339,57.617,32.715,57.129,55.176,-27.344,0
1507427538.343,49.805,33.203,53.711,49.316,30.273,0
1507427538.347,47.852,38.086,39.551,57.617,32.227,0
1507427538.351,58.594,25.391,-8.301,62.988,17.578,0
1507427538.355,60.059,20.996,18.066,60.059,37.598,0
1507427538.359,64.453,29.785,51.758,65.918,52.246,0
1507427538.363,65.918,31.738,44.434,67.383,34.668,0
1507427538.367,48.340,34.180,17.090,53.223,21.484,0
1507427538.370,47.852,27.344,28.809,47.363,10.742,0
1507427538.374,55.176,28.809,64.941,46.387,33.691,0
1507427538.378,55.176,38.086,58.594,41.992,22.949,0
1507427538.382,54.199,44.922,57.129,43.945,3.418,0
1507427538.386,50.781,43.457,27.832,48.828,7.324,0
1507427538.390,55.176,38.574,21.973,50.781,21.484,0
1507427538.394,55.664,33.691,38.086,47.363,13.672,0
1507427538.398,54.199,34.180,9.766,44.434,6.836,0
1507427538.402,59.082,41.992,17.090,46.875,40.039,0
1507427538.406,60.547,45.410,31.738,51.758,35.156,0
1507427538.410,55.176,34.180,39.551,50.781,28.809,0
1507427538.413,47.363,31.250,67.383,49.316,20.508,0
1507427538.417,49.316,45.410,67.383,53.223,25.879,0
1507427538.421,47.363,49.805,62.012,59.082,32.227,0
1507427538.425,50.781,48.340,31.738,63.965,18.555,0
1507427538.429,47.852,44.434,32.227,60.059,16.113,0
1507427538.433,41.016,38.574,78.613,49.316,25.879,0
1507427538.437,49.316,45.898,47.852,50.293,2.441,0
1507427538.441,41.016,37.109,28.320,41.016,12.695,0
1507427538.445,40.527,27.344,32.715,50.293,32.227,0
1507427538.449,50.293,18.066,26.855,63.477,35.156,0
1507427538.453,51.758,21.973,46.387,55.176,33.203,0
1507427538.456,54.199,52.246,77.148,51.758,29.785,0
1507427538.460,54.199,64.941,55.664,43.945,28.320,0
1507427538.464,46.875,59.570,35.645,38.086,24.902,0
1507427538.468,49.316,50.781,35.645,49.316,17.578,0
1507427538.472,58.105,34.668,4.395,52.734,4.883,0
1507427538.476,59.570,39.062,2.930,53.711,15.137,0
1507427538.480,52.734,46.875,92.773,45.898,28.320,0
1507427538.484,41.504,45.898,83.496,35.645,43.457,0
1507427538.488,41.992,42.480,56.641,38.574,27.344,0
1507427538.492,50.293,43.945,89.844,41.016,17.578,0
1507427538.495,50.781,54.688,57.617,43.457,55.176,0
1507427538.499,49.316,62.500,54.688,45.898,33.203,0
1507427538.503,55.176,57.129,70.312,52.246,-5.859,0
1507427538.507,53.223,50.781,21.484,55.176,17.090,0
1507427538.511,54.199,51.758,19.043,60.547,24.414,0
1507427538.515,56.641,59.570,59.570,57.617,23.926,0
1507427538.519,58.105,54.688,49.805,50.293,-7.324,0
1507427538.523,62.988,44.922,68.848,47.852,-0.977,0
1507427538.527,47.852,47.363,99.121,44.922,15.625,0
1507427538.531,43.457,54.688,54.199,46.387,-3.906,0
1507427538.535,48.340,50.293,41.016,45.410,7.324,0
1507427538.538,55.664,39.062,66.406,43.945,34.668,0
1507427538.542,43.457,35.645,57.617,37.109,22.949,0
1507427538.546,35.645,36.133,27.344,36.621,-9.766,0
1507427538.550,62.988,47.363,34.668,47.363,16.113,0
1507427538.554,76.660,67.871,91.797,62.012,21.973,0
1507427538.558,81.543,66.406,77.637,86.426,28.320,0
1507427538.562,77.637,60.547,48.340,83.984,21.484,0
1507427538.566,63.477,56.152,84.473,65.918,8.789,0
1507427538.570,61.035,39.062,80.566,62.012,41.992,0
1507427538.574,60.547,45.898,62.988,58.105,37.109,0
1507427538.578,57.129,67.871,81.055,53.223,18.555,0
1507427538.581,62.012,60.547,12.695,57.617,47.852,0
1507427538.585,68.359,37.598,-0.488,59.570,46.387,0
1507427538.589,61.523,36.621,86.426,54.688,21.973,0
1507427538.593,46.875,40.527,90.820,44.434,26.855,0
1507427538.597,46.387,49.805,62.988,47.363,14.160,0
1507427538.601,53.711,60.059,31.738,53.711,9.766,0
1507427538.605,59.082,57.617,47.852,47.363,16.602,0
1507427538.609,29.785,28.320,42.480,21.484,12.695,0
1507427538.613,122.070,119.629,112.305,115.234,53.711,0
1507427538.617,384.766,386.230,387.207,377.930,47.852,0
1507427538.620,495.117,497.070,514.160,495.605,29.297,0
1507427538.624,494.141,483.398,480.469,483.398,42.480,0
1507427538.628,490.723,480.469,457.031,479.004,59.570,0
1507427538.632,468.750,465.820,458.008,468.262,56.641,0
1507427538.636,453.613,439.941,444.824,442.871,40.039,0
1507427538.640,450.195,421.875,428.711,431.152,73.242,0
1507427538.644,448.242,430.176,395.508,424.805,56.152,0
1507427538.648,437.500,430.664,404.785,411.621,16.113,0
1507427538.652,424.805,412.598,429.688,400.391,13.672,0
1507427538.656,414.551,401.855,391.113,383.301,36.621,0
1507427538.660,424.805,408.203,374.023,389.160,66.895,0
1507427538.663,418.945,406.250,375.488,390.625,34.668,0
1507427538.667,393.555,398.438,393.555,377.930,19.531,0
1507427538.671,367.676,381.348,402.344,358.887,37.109,0
1507427538.675,345.703,358.398,383.301,342.285,42.480,0
1507427538.679,344.727,346.680,347.168,342.773,37.598,0
1507427538.683,345.215,342.773,334.961,340.820,35.156,0
1507427538.687,331.543,339.355,330.078,324.707,42.480,0
1507427538.691,310.547,320.312,307.129,305.176,51.270,0
1507427538.695,312.012,292.480,318.359,300.293,37.598,0
1507427538.699,302.734,284.180,275.391,291.016,17.090,0
1507427538.703,274.902,286.621,236.816,274.902,-4.395,0
1507427538.706,262.695,282.227,286.621,269.531,20.996,0
1507427538.710,248.047,271.973,311.035,260.254,35.645,0
1507427538.714,238.770,257.812,222.656,247.070,2.930,0
1507427538.718,233.887,241.699,195.312,240.723,19.043,0
1507427538.722,230.957,236.816,270.508,235.840,24.902,0
1507427538.726,224.609,221.680,247.070,225.098,3.418,0
1507427538.730,212.891,198.242,208.984,220.215,26.367,0
1507427538.734,203.125,208.496,209.473,217.285,28.320,0
1507427538.738,191.895,225.586,206.543,206.055,15.137,0
1507427538.742,191.895,220.215,206.055,204.590,27.832,0
1507427538.745,188.477,195.312,176.270,197.754,0.488,0
1507427538.749,180.664,190.430,159.668,195.312,19.043,0
1507427538.753,179.199,208.008,177.734,196.289,38.574,0
1507427538.757,170.898,197.754,192.383,192.383,13.672,0
1507427538.761,160.645,184.570,208.008,184.082,23.926,0
1507427538.765,168.945,186.035,214.355,180.176,45.410,0
1507427538.769,172.363,181.641,174.805,183.105,41.504,0
1507427538.773,161.621,174.805,104.980,181.641,23.926,0
1507427538.777,156.250,172.852,126.953,184.570,44.434,0
1507427538.781,149.902,169.922,187.500,176.758,22.461,0
1507427538.785,150.879,161.133,202.637,166.016,16.602,0
1507427538.788,158.203,151.367,148.926,163.086,45.898,0
1507427538.792,169.922,160.645,133.789,173.828,38.574,0
1507427538.796,174.805,171.387,177.246,182.129,27.832,0
1507427538.800,166.504,149.414,182.129,175.293,-6.836,0
1507427538.804,167.480,145.020,171.875,167.969,0.000,0
1507427538.808,164.551,171.875,175.293,164.062,45.410,0
1507427538.812,160.156,184.082,186.035,166.992,33.203,0
1507427538.816,171.387,189.453,164.551,168.457,22.461,0
1507427538.820,172.852,178.223,153.809,161.621,35.156,0
1507427538.824,170.898,160.156,138.184,160.156,13.672,0
1507427538.828,161.621,150.391,113.770,165.527,17.090,0
1507427538.831,141.602,153.809,123.535,155.273,18.066,0
1507427538.835,132.812,148.438,145.020,142.090,-1.465,0
1507427538.839,137.695,123.535,172.852,147.461,10.742,0
1507427538.843,141.602,114.746,157.227,146.973,15.137,0
1507427538.847,135.254,133.301,135.742,136.230,17.090,0
1507427538.851,136.719,141.602,119.141,143.066,26.855,0
1507427538.855,133.301,141.113,100.586,142.578,32.715,0
1507427538.859,120.605,145.508,150.879,127.441,9.766,0
1507427538.863,118.164,151.367,165.527,126.953,3.418,0
1507427538.867,116.211,147.949,96.680,125.977,28.320,0
1507427538.870,112.793,130.371,77.148,115.723,27.344,0
1507427538.874,107.910,118.164,137.695,113.281,17.090,0
1507427538.878,120.117,128.418,140.137,126.465,20.508,0
1507427538.882,125.488,132.812,106.934,131.836,16.602,0
1507427538.886,117.676,116.211,106.934,124.512,16.113,0
1507427538.890,114.258,112.305,104.980,116.699,-3.906,0
1507427538.894,123.047,110.840,124.512,118.164,-10.254,0
1507427538.898,115.723,80.078,119.141,115.723,15.625,0
1507427538.902,105.957,84.473,32.715,107.422,3.906,0
1507427538.906,101.562,109.375,57.129,102.539,-11.230,0
1507427538.910,97.168,107.910,140.625,98.145,-1.465,0
1507427538.913,90.332,106.934,126.465,92.285,34.668,0
1507427538.917,85.938,105.957,93.750,90.332,13.184,0
1507427538.921,87.891,92.285,98.145,89.844,4.883,0
1507427538.925,88.379,87.891,96.680,92.773,31.250,0
1507427538.929,83.984,92.773,77.148,88.867,19.043,0
1507427538.933,86.426,86.426,78.613,92.285,-1.953,0
1507427538.937,88.867,88.867,95.215,99.121,-17.578,0
1507427538.941,87.402,88.379,83.008,89.355,8.789,0
1507427538.945,87.402,85.449,83.984,83.496,53.711,0
1507427538.949,80.566,88.379,71.289,81.543,44.922,0
1507427538.953,79.102,84.473,72.266,77.637,9.277,0
1507427538.956,86.914,75.195,103.027,78.613,47.363,0
1507427538.960,81.055,78.125,91.797,73.242,75.195,0
1507427538.964,77.637,70.801,86.426,72.754,34.668,0
1507427538.968,95.703,70.312,80.078,84.473,26.855,0
1507427538.972,94.238,85.449,86.426,85.449,27.344,0
1507427538.976,88.867,82.031,74.219,83.008,23.438,0
1507427538.980,82.520,83.984,51.758,82.031,-15.137,0
1507427538.984,73.242,83.984,77.637,80.566,-33.691,0
1507427538.988,83.008,80.566,93.750,88.379,22.461,0
1507427538.992,86.914,81.543,69.336,93.262,33.691,0
1507427538.995,94.238,86.426,18.066,96.680,9.277,0
