timestamps,TP9,AF7,AF8,TP10,Right AUX,Marker0
1507332093.887,68.359,69.336,7.812,51.758,60.547,0
1507332093.891,36.621,35.645,32.227,36.133,51.758,0
1507332093.895,34.180,29.297,64.453,28.809,13.184,0
1507332093.898,67.871,52.246,49.316,47.852,3.418,0
1507332093.902,70.801,32.715,53.223,56.641,-5.859,0
1507332093.906,53.711,36.621,66.895,48.828,-24.902,0
1507332093.910,51.270,37.109,27.832,45.410,-21.973,0
1507332093.914,62.500,40.039,8.301,53.711,15.625,0
1507332093.918,61.523,55.176,12.695,57.129,44.434,0
1507332093.922,64.941,44.434,29.785,46.875,-14.160,0
1507332093.926,58.105,30.273,63.965,53.711,-29.785,0
1507332093.930,41.504,34.180,65.430,50.781,11.719,0
1507332093.934,24.902,48.828,54.688,27.344,8.301,0
1507332093.938,25.391,62.500,56.641,20.020,-3.418,0
1507332093.941,36.133,45.410,34.180,23.438,2.441,0
1507332093.945,14.160,50.293,25.879,3.906,26.855,0
1507332093.949,29.297,48.828,2.930,-2.441,25.879,0
1507332093.953,53.711,39.062,2.441,37.109,3.906,0
1507332093.957,25.879,61.523,73.730,31.738,13.184,0
1507332093.961,33.691,45.410,100.586,7.324,10.254,0
1507332093.965,52.734,41.992,45.898,38.574,-6.836,0
1507332093.969,66.895,45.898,32.715,69.336,-36.133,0
1507332093.973,62.500,48.340,50.781,60.547,-47.363,0
1507332093.977,50.781,51.270,26.855,63.477,0.000,0
1507332093.981,49.316,41.992,40.527,43.945,-15.137,0
1507332093.984,34.668,36.621,55.176,27.344,-66.895,0
1507332093.988,25.879,39.551,11.230,38.574,-10.742,0
1507332093.992,44.922,39.062,2.441,43.457,23.926,0
1507332093.996,47.852,48.828,46.387,41.504,-22.949,0
1507332094.000,21.484,62.500,64.941,29.297,-27.344,0
1507332094.004,31.250,51.270,76.172,41.016,-7.324,0
1507332094.008,37.109,51.758,86.426,52.734,10.254,0
1507332094.012,52.734,41.016,61.523,58.105,-2.930,0
1507332094.016,65.430,32.227,38.574,53.223,0.488,0
1507332094.020,37.598,41.016,39.062,42.480,31.738,0
1507332094.023,51.270,39.062,33.691,38.086,18.555,0
1507332094.027,58.105,61.523,12.207,41.992,-3.906,0
1507332094.031,32.227,54.688,20.020,40.039,13.184,0
1507332094.035,43.457,39.062,11.230,42.969,26.367,0
1507332094.039,66.895,70.801,14.160,56.641,1.953,0
1507332094.043,49.805,78.125,29.785,35.645,-3.906,0
1507332094.047,47.363,50.293,25.879,36.621,27.832,0
1507332094.051,54.199,39.551,58.594,49.805,27.344,0
1507332094.055,43.945,36.621,72.266,54.688,20.020,0
1507332094.059,60.547,42.480,41.504,62.988,-5.371,0
1507332094.063,54.688,64.941,44.434,44.434,4.883,0
1507332094.066,39.551,66.895,57.617,30.762,38.086,0
1507332094.070,54.199,48.340,38.574,48.828,32.715,0
1507332094.074,62.012,42.480,44.434,58.105,16.113,0
1507332094.078,59.570,53.711,58.594,44.922,31.738,0
1507332094.082,39.551,29.297,35.645,38.574,51.270,0
1507332094.086,37.109,42.480,-18.066,26.855,24.414,0
1507332094.090,59.082,62.988,-2.930,45.898,6.836,0
1507332094.094,58.594,31.250,79.102,53.711,27.344,0
1507332094.098,82.520,37.109,63.477,61.035,21.484,0
1507332094.102,93.750,39.551,34.180,60.547,-5.859,0
1507332094.106,65.430,26.855,70.801,43.945,-20.996,0
1507332094.109,62.500,43.945,38.086,58.594,14.160,0
1507332094.113,48.828,51.758,30.762,55.176,22.949,0
1507332094.117,39.062,46.387,57.129,46.875,5.859,0
1507332094.121,55.176,48.340,41.504,45.410,12.695,0
1507332094.125,40.527,51.270,29.297,36.133,41.992,0
1507332094.129,23.926,46.387,29.297,22.461,34.180,0
1507332094.133,32.715,38.086,66.895,41.992,20.508,0
1507332094.137,46.875,38.086,100.098,59.570,58.105,0
1507332094.141,45.410,43.457,51.270,58.105,86.426,0
1507332094.145,57.129,44.922,2.441,60.547,84.473,0
1507332094.148,51.758,55.176,17.578,42.480,45.898,0
1507332094.152,32.227,61.523,55.664,31.250,63.477,0
1507332094.156,56.641,49.805,70.801,65.430,107.422,0
1507332094.160,58.594,28.320,69.824,59.570,76.172,0
1507332094.164,44.434,64.941,47.363,33.691,30.762,0
1507332094.168,68.359,79.590,-3.418,57.617,63.965,0
1507332094.172,77.637,36.133,7.812,62.500,65.918,0
1507332094.176,53.223,39.551,45.410,46.875,54.688,0
1507332094.180,56.152,43.457,40.039,60.059,53.711,0
1507332094.184,57.617,52.734,35.645,56.152,61.035,0
1507332094.188,48.828,39.062,52.734,45.410,70.801,0
1507332094.191,41.992,47.852,48.828,37.598,40.527,0
1507332094.195,27.344,41.016,49.316,38.574,27.832,0
1507332094.199,38.086,47.363,31.250,30.762,59.570,0
1507332094.203,45.898,51.270,37.109,22.949,60.547,0
1507332094.207,46.387,26.855,34.180,41.016,21.973,0
1507332094.211,58.105,38.574,18.555,50.781,16.113,0
1507332094.215,64.453,29.297,20.508,41.992,54.688,0
1507332094.219,65.430,33.691,-3.906,61.523,53.711,0
1507332094.223,66.895,47.852,57.129,57.129,12.207,0
1507332094.227,62.988,56.152,95.215,43.457,6.348,0
1507332094.231,50.293,53.711,79.102,48.340,29.297,0
1507332094.234,50.293,45.898,60.059,40.039,34.180,0
1507332094.238,36.133,55.664,49.316,34.180,2.930,0
1507332094.242,41.504,49.316,26.855,46.875,-1.465,0
1507332094.246,73.242,41.504,1.953,50.293,15.625,0
1507332094.250,51.270,57.617,-13.184,26.855,0.000,0
1507332094.254,39.551,52.734,31.250,2.930,15.137,0
1507332094.258,26.855,52.246,69.336,3.906,18.066,0
1507332094.262,57.617,52.246,73.730,39.062,6.836,0
1507332094.266,65.430,44.434,69.824,25.391,-2.930,0
1507332094.270,46.387,47.852,40.527,19.531,-10.254,0
1507332094.273,79.102,42.480,22.461,44.922,7.324,0
1507332094.277,69.824,41.016,57.129,22.949,10.254,0
1507332094.281,45.898,41.504,78.125,20.996,-2.441,0
1507332094.285,34.668,34.180,62.988,35.156,28.320,0
1507332094.289,54.688,51.270,34.180,53.223,26.367,0
1507332094.293,77.148,58.105,-2.441,59.570,11.719,0
1507332094.297,45.410,54.688,-13.184,30.762,-26.855,0
1507332094.301,37.598,48.340,16.602,37.109,-46.387,0
1507332094.305,41.016,60.547,40.527,24.414,-13.672,0
1507332094.309,38.086,53.711,39.551,3.418,-13.672,0
1507332094.313,41.016,43.945,54.199,22.461,12.695,0
1507332094.316,36.133,48.828,56.152,36.133,39.062,0
1507332094.320,41.504,36.621,60.059,26.367,72.754,0
1507332094.324,61.523,38.574,51.758,38.574,83.008,0
1507332094.328,76.660,31.250,53.711,54.688,65.430,0
1507332094.332,46.875,41.016,53.711,37.598,59.082,0
1507332094.336,35.645,40.527,25.391,32.227,68.359,0
1507332094.340,53.223,47.363,8.789,45.898,53.711,0
1507332094.344,45.898,45.410,53.223,61.035,-41.016,0
1507332094.348,37.109,40.527,95.703,45.410,-78.613,0
1507332094.352,42.969,50.293,47.363,41.504,0.977,0
1507332094.356,50.781,50.293,-12.207,44.434,62.012,0
1507332094.359,70.312,49.316,0.000,63.965,103.027,0
1507332094.363,63.477,52.246,50.781,57.129,167.480,0
1507332094.367,30.273,65.430,52.734,39.551,199.219,0
1507332094.371,25.879,64.941,47.852,45.898,163.086,0
1507332094.375,23.438,43.457,46.387,41.992,130.859,0
1507332094.379,20.996,33.203,37.598,37.109,127.441,0
1507332094.383,25.879,25.391,60.547,32.227,159.180,0
1507332094.387,16.602,43.457,60.059,20.508,163.086,0
1507332094.391,2.441,47.363,66.895,9.766,135.254,0
1507332094.395,27.344,23.926,55.664,37.109,122.559,0
1507332094.398,47.363,40.039,17.578,41.016,110.840,0
1507332094.402,22.949,59.570,49.805,13.672,55.664,0
1507332094.406,13.184,60.059,73.242,14.648,40.039,0
1507332094.410,15.625,43.457,19.531,27.832,64.941,0
1507332094.414,51.270,30.273,11.230,57.617,34.180,0
1507332094.418,54.688,45.410,22.461,50.293,-20.020,0
1507332094.422,27.832,48.828,-11.230,30.273,-15.625,0
1507332094.426,62.012,43.457,17.578,53.223,-4.883,0
1507332094.430,71.777,57.129,62.500,61.523,-21.973,0
1507332094.434,47.363,46.387,63.965,61.523,-22.949,0
1507332094.438,43.457,30.762,64.453,53.223,-5.859,0
1507332094.441,45.898,49.805,43.457,46.875,8.301,0
1507332094.445,43.457,56.641,31.738,47.363,-19.043,0
1507332094.449,31.250,40.039,36.621,20.996,-51.758,0
1507332094.453,30.762,34.180,52.246,12.695,-40.527,0
1507332094.457,14.648,39.062,63.965,8.301,-19.531,0
1507332094.461,25.391,44.922,26.855,27.344,-18.066,0
1507332094.465,67.383,42.480,14.160,57.617,-33.691,0
1507332094.469,51.758,43.457,52.246,46.875,-68.359,0
1507332094.473,41.016,46.387,14.160,40.527,-56.152,0
1507332094.477,50.293,38.574,10.742,37.109,-101.562,0
1507332094.481,47.363,41.504,65.430,36.621,-118.164,0
1507332094.484,49.316,44.434,65.918,47.363,-47.852,0
1507332094.488,59.570,54.199,40.527,40.039,-49.316,0
1507332094.492,50.293,54.199,43.457,24.414,-81.055,0
1507332094.496,22.461,41.504,56.641,26.855,-61.035,0
1507332094.500,6.836,58.594,36.621,22.461,-41.016,0
1507332094.504,26.367,55.664,44.434,27.832,-48.828,0
1507332094.508,37.109,29.785,45.898,17.090,-55.664,0
1507332094.512,33.203,38.086,35.156,11.719,-59.570,0
1507332094.516,37.598,45.898,41.992,17.578,-63.477,0
1507332094.520,31.250,49.805,28.809,20.996,-112.793,0
1507332094.523,34.180,55.664,35.645,59.082,-121.582,0
1507332094.527,41.016,41.504,19.043,51.758,-86.426,0
1507332094.531,44.922,36.621,29.785,29.297,-72.754,0
1507332094.535,48.340,43.945,74.219,33.691,-71.289,0
1507332094.539,46.875,36.133,70.801,45.410,-55.664,0
1507332094.543,53.223,48.828,50.781,45.410,-49.316,0
1507332094.547,34.180,48.340,1.465,41.992,-54.688,0
1507332094.551,45.410,29.785,-7.324,51.758,-50.293,0
1507332094.555,62.988,25.879,29.297,62.500,-59.082,0
1507332094.559,40.527,48.828,63.965,63.965,-73.730,0
1507332094.563,34.180,67.871,83.496,45.898,-92.285,0
1507332094.566,38.086,48.828,69.824,45.410,-83.984,0
1507332094.570,60.059,34.180,49.316,49.805,-62.012,0
1507332094.574,52.246,43.945,60.059,46.387,-41.504,0
1507332094.578,41.016,41.992,62.500,41.016,-45.898,0
1507332094.582,61.035,44.434,29.297,41.992,-54.688,0
1507332094.586,66.895,51.758,26.855,52.734,-24.414,0
1507332094.590,54.199,42.969,52.246,41.504,37.598,0
1507332094.594,26.855,30.273,63.965,35.645,65.430,0
1507332094.598,35.156,26.367,22.461,49.316,20.508,0
1507332094.602,32.227,34.668,12.695,29.297,-10.254,0
1507332094.606,28.320,46.875,49.316,26.855,11.719,0
1507332094.609,54.688,57.129,31.738,43.945,-17.578,0
1507332094.613,46.875,54.199,42.969,21.484,-56.641,0
1507332094.617,20.020,43.457,66.406,7.324,-31.250,0
1507332094.621,30.762,47.852,9.766,20.996,-16.113,0
1507332094.625,50.293,50.781,-4.395,40.039,-26.367,0
1507332094.629,59.082,42.969,48.828,42.480,-14.648,0
1507332094.633,62.012,38.086,56.641,49.316,7.324,0
1507332094.637,59.570,27.344,59.570,52.734,5.371,0
1507332094.641,49.316,31.738,55.176,39.062,4.395,0
1507332094.645,35.645,46.387,76.172,50.293,20.508,0
1507332094.648,61.523,46.387,75.195,66.406,36.133,0
1507332094.652,79.102,43.457,53.223,55.176,20.996,0
1507332094.656,77.148,48.340,19.531,49.316,19.531,0
1507332094.660,78.125,46.387,7.812,74.707,35.156,0
1507332094.664,70.801,36.133,12.207,68.848,56.641,0
1507332094.668,54.199,34.668,31.250,60.547,99.609,0
1507332094.672,32.227,26.855,96.191,43.945,96.191,0
1507332094.676,30.762,41.016,63.477,14.160,96.191,0
1507332094.680,43.457,58.594,26.855,23.438,122.559,0
1507332094.684,35.156,58.594,36.621,25.391,117.676,0
1507332094.688,29.785,58.105,44.922,16.113,122.559,0
1507332094.691,11.719,54.199,57.617,10.742,145.020,0
1507332094.695,21.973,33.203,69.336,25.879,135.742,0
1507332094.699,34.668,21.484,62.988,29.785,114.258,0
1507332094.703,37.109,36.133,20.508,32.227,104.492,0
1507332094.707,45.410,49.316,16.602,42.969,106.934,0
1507332094.711,41.504,55.664,33.203,30.762,128.906,0
1507332094.715,59.570,57.129,3.906,36.621,78.613,0
1507332094.719,40.039,45.410,24.414,22.949,68.848,0
1507332094.723,28.320,38.574,63.477,25.879,77.637,0
1507332094.727,67.871,53.223,25.391,56.641,63.477,0
1507332094.731,62.988,48.828,24.414,45.410,46.387,0
1507332094.734,31.250,55.176,41.992,35.645,-3.906,0
1507332094.738,34.668,51.270,37.109,33.691,15.625,0
1507332094.742,46.387,39.551,30.273,35.156,83.008,0
1507332094.746,64.453,39.062,37.598,48.828,75.684,0
1507332094.750,68.848,47.363,40.039,46.875,68.848,0
1507332094.754,27.832,48.828,45.898,32.227,84.961,0
1507332094.758,21.484,46.875,39.551,17.090,92.773,0
1507332094.762,55.176,49.316,54.199,43.945,68.359,0
1507332094.766,64.941,37.598,72.266,62.988,39.551,0
1507332094.770,51.270,35.156,29.785,38.574,75.195,0
1507332094.773,57.129,45.898,37.109,63.477,95.703,0
1507332094.777,53.711,48.340,34.180,64.941,76.660,0
1507332094.781,58.105,33.203,2.441,58.594,69.824,0
1507332094.785,38.086,26.367,62.988,36.621,96.680,0
1507332094.789,20.508,24.414,98.633,17.090,88.867,0
1507332094.793,35.645,41.016,56.152,31.250,65.430,0
1507332094.797,14.648,36.133,59.570,17.090,74.219,0
1507332094.801,1.953,41.504,66.406,17.578,104.980,0
1507332094.805,20.020,57.129,58.105,19.531,99.609,0
1507332094.809,32.227,31.250,44.434,18.555,43.945,0
1507332094.813,25.391,30.273,31.250,15.137,63.477,0
1507332094.816,23.438,34.668,45.898,19.531,76.660,0
1507332094.820,16.113,53.223,40.039,21.973,49.316,0
1507332094.824,20.996,47.363,3.418,25.391,51.758,0
1507332094.828,36.621,22.949,3.418,42.969,78.613,0
1507332094.832,42.969,30.273,61.035,44.434,41.016,0
1507332094.836,48.340,48.828,42.480,33.203,3.418,0
1507332094.840,53.711,39.551,42.969,41.016,24.902,0
1507332094.844,41.992,45.410,53.223,46.875,30.273,0
1507332094.848,39.551,48.340,28.320,46.387,1.953,0
1507332094.852,40.527,31.738,64.453,48.828,-18.555,0
1507332094.856,55.664,31.250,65.430,52.734,-21.484,0
1507332094.859,60.059,35.156,62.988,44.922,-23.438,0
1507332094.863,44.434,41.016,56.152,43.945,-3.906,0
1507332094.867,47.363,53.223,15.137,50.781,-35.156,0
1507332094.871,55.176,59.570,-26.855,44.922,-48.828,0
1507332094.875,21.973,45.898,38.574,6.348,-9.766,0
1507332094.879,8.789,49.316,85.938,14.648,-17.578,0
1507332094.883,42.480,41.504,55.664,48.340,-28.320,0
1507332094.887,53.711,47.852,47.852,39.062,-1.465,0
1507332094.891,25.391,57.129,27.344,12.207,-12.695,0
1507332094.895,9.766,51.270,34.180,21.973,-20.996,0
1507332094.898,32.227,27.832,56.152,30.762,-14.160,0
1507332094.902,34.180,19.043,47.852,21.484,-10.254,0
1507332094.906,37.109,47.363,55.176,26.855,14.160,0
1507332094.910,53.223,43.945,74.219,50.293,11.230,0
1507332094.914,50.781,34.668,62.500,73.242,7.324,0
1507332094.918,43.945,37.598,29.785,56.152,3.906,0
1507332094.922,62.012,50.781,15.137,37.598,4.395,0
1507332094.926,50.781,43.945,32.715,27.344,29.297,0
1507332094.930,35.645,55.176,30.762,21.973,37.109,0
1507332094.934,43.457,53.223,5.859,35.645,17.090,0
1507332094.938,21.973,30.762,35.156,29.785,19.531,0
1507332094.941,5.859,43.457,78.613,16.113,28.809,0
1507332094.945,47.363,41.504,89.355,39.551,15.625,0
1507332094.949,44.434,39.551,19.531,60.059,33.203,0
1507332094.953,30.273,44.922,0.977,31.250,52.734,0
1507332094.957,46.875,56.641,55.176,23.926,39.551,0
1507332094.961,45.410,61.035,31.738,30.762,66.895,0
1507332094.965,54.199,40.527,35.156,43.945,87.402,0
1507332094.969,58.594,47.852,60.547,49.316,37.109,0
1507332094.973,46.387,46.875,51.758,41.992,56.641,0
1507332094.977,25.879,18.555,42.969,29.297,72.266,0
1507332094.981,30.762,21.973,69.336,29.297,64.453,0
1507332094.984,37.109,36.621,48.828,21.484,66.406,0
1507332094.988,23.438,39.062,-40.039,28.320,23.926,0
1507332094.992,14.648,38.574,17.578,28.320,33.691,0
1507332094.996,38.574,28.809,97.656,17.090,40.039,0
1507332095.000,48.340,35.156,71.777,28.809,33.203,0
1507332095.004,23.438,61.035,44.434,20.020,54.199,0
1507332095.008,45.898,39.551,60.547,45.410,44.434,0
1507332095.012,31.738,37.598,93.262,31.738,50.293,0
1507332095.016,33.691,60.547,46.387,28.320,35.156,0
1507332095.020,58.105,43.457,25.879,62.500,25.391,0
1507332095.023,32.227,34.180,32.715,40.527,58.594,0
1507332095.027,34.668,39.551,46.875,15.137,95.215,0
1507332095.031,50.293,41.992,61.523,27.832,96.680,0
1507332095.035,54.688,37.109,23.926,54.688,63.965,0
1507332095.039,49.316,43.457,3.906,55.664,65.918,0
1507332095.043,55.664,50.781,37.598,63.965,83.496,0
1507332095.047,52.246,45.410,38.086,46.387,41.016,0
1507332095.051,45.898,32.715,39.062,27.344,-4.883,0
1507332095.055,28.320,25.391,59.570,9.766,11.230,0
1507332095.059,30.273,47.852,71.289,15.625,0.000,0
1507332095.063,47.363,61.523,81.055,39.062,-7.324,0
1507332095.066,39.062,44.434,41.504,22.949,-4.883,0
1507332095.070,36.621,48.828,24.414,31.738,1.953,0
1507332095.074,48.828,53.711,52.246,27.832,36.133,0
1507332095.078,43.945,24.414,72.266,11.719,39.062,0
1507332095.082,40.039,33.203,59.570,25.879,33.203,0
1507332095.086,47.852,64.453,6.348,39.062,35.645,0
1507332095.090,63.477,50.781,-10.742,29.297,-9.277,1
1507332095.094,73.730,39.062,8.789,26.855,-49.805,0
1507332095.098,45.410,62.012,25.879,29.297,-22.461,0
1507332095.102,41.504,48.828,66.406,32.227,-0.488,0
1507332095.106,52.246,40.527,60.059,25.391,-23.438,0
1507332095.109,49.316,38.574,56.152,26.367,-55.664,0
1507332095.113,34.668,34.180,44.434,42.480,-47.852,0
1507332095.117,38.574,47.852,18.066,39.062,-54.688,0
1507332095.121,47.363,20.020,55.664,29.785,-56.641,0
1507332095.125,29.297,20.996,54.199,27.832,-38.086,0
1507332095.129,53.711,40.039,46.875,24.902,-30.762,0
1507332095.133,64.453,56.641,55.664,20.996,-19.531,0
1507332095.137,42.969,60.059,19.043,27.832,-48.828,0
1507332095.141,38.086,37.598,27.832,47.363,-50.781,0
1507332095.145,56.641,26.367,28.320,56.152,-56.152,0
1507332095.148,39.062,51.270,9.277,27.344,-66.406,0
1507332095.152,15.137,62.988,6.836,4.395,-56.152,0
1507332095.156,49.316,56.152,43.945,39.551,-65.430,0
1507332095.160,55.664,35.156,84.961,58.105,-49.805,0
1507332095.164,58.105,31.738,50.781,59.082,-3.418,0
1507332095.168,47.852,40.527,29.785,54.688,2.441,0
1507332095.172,28.809,28.809,42.969,46.875,-20.020,0
1507332095.176,55.176,52.246,29.297,58.594,-21.973,0
1507332095.180,61.523,53.223,20.508,59.082,-13.184,0
1507332095.184,32.227,21.484,66.406,50.781,-12.207,0
1507332095.188,14.160,38.574,80.078,36.621,-9.277,0
1507332095.191,49.316,44.922,64.941,41.992,21.973,0
1507332095.195,34.180,50.293,29.297,37.598,8.789,0
1507332095.199,16.113,49.805,0.977,39.062,-11.719,0
1507332095.203,54.688,8.789,35.645,58.105,2.441,0
1507332095.207,36.133,18.066,72.266,55.664,10.742,0
1507332095.211,22.461,44.434,45.410,45.898,14.160,0
1507332095.215,41.016,52.246,-0.977,44.434,10.254,0
1507332095.219,31.738,58.594,12.695,48.340,30.273,0
1507332095.223,9.766,35.645,63.965,22.949,47.363,0
1507332095.227,19.043,20.996,73.242,6.836,29.297,0
1507332095.231,35.156,44.434,56.641,20.996,35.156,0
1507332095.234,51.758,43.945,73.730,48.828,61.523,0
1507332095.238,55.176,46.875,66.406,55.664,66.406,0
1507332095.242,29.297,54.199,39.062,46.387,64.453,0
1507332095.246,24.414,40.039,40.039,56.641,77.148,0
1507332095.250,63.965,33.203,48.340,70.312,99.121,0
1507332095.254,63.965,39.551,15.137,61.035,117.676,0
1507332095.258,53.223,46.387,27.832,46.875,129.395,0
1507332095.262,63.965,58.594,46.387,35.156,109.863,0
1507332095.266,52.246,53.223,-2.441,24.902,104.492,0
1507332095.270,36.133,32.227,15.137,51.758,135.742,0
1507332095.273,44.922,32.227,66.895,63.477,95.703,0
1507332095.277,49.805,27.344,61.523,57.129,86.914,0
1507332095.281,42.969,20.996,62.012,49.805,111.328,0
1507332095.285,38.574,54.688,60.547,25.879,96.680,0
1507332095.289,41.992,42.969,55.176,51.758,79.102,0
1507332095.293,45.898,34.668,37.109,43.457,102.051,0
1507332095.297,26.367,53.223,31.250,16.113,115.723,0
1507332095.301,21.484,61.035,51.270,39.551,102.539,0
1507332095.305,24.902,53.711,49.316,52.734,117.188,0
1507332095.309,38.086,20.508,32.715,50.781,133.301,0
1507332095.313,39.551,13.184,30.762,52.246,96.191,0
1507332095.316,27.832,38.086,65.430,25.879,73.730,0
1507332095.320,15.137,52.734,71.289,10.254,104.492,0
1507332095.324,26.855,45.898,39.551,34.668,133.301,0
1507332095.328,38.086,61.523,25.879,18.555,146.973,0
1507332095.332,24.902,55.176,33.203,27.344,144.043,0
1507332095.336,40.039,51.758,-6.836,54.199,148.926,0
1507332095.340,66.895,50.293,-5.859,47.363,169.922,0
1507332095.344,33.691,21.484,90.332,24.902,194.336,0
1507332095.348,19.531,42.969,79.102,17.090,179.688,0
1507332095.352,39.551,46.387,26.367,25.879,175.293,0
1507332095.356,52.734,27.832,29.785,42.480,180.176,0
1507332095.359,62.012,34.180,63.965,52.734,149.902,0
1507332095.363,36.133,49.316,80.566,32.715,113.281,0
1507332095.367,42.480,59.082,35.156,44.434,129.883,0
1507332095.371,51.758,40.039,30.762,44.434,167.969,0
1507332095.375,32.227,33.691,48.340,45.898,133.301,0
1507332095.379,44.922,43.457,27.344,46.875,92.773,0
1507332095.383,52.246,39.062,30.273,40.527,98.145,0
1507332095.387,41.992,33.691,53.711,55.176,115.234,0
1507332095.391,41.504,45.410,43.457,57.617,78.613,0
1507332095.395,43.945,63.477,-5.371,36.133,54.688,0
1507332095.398,31.738,65.918,21.484,12.207,72.266,0
1507332095.402,20.020,26.855,89.844,28.809,68.848,0
1507332095.406,32.715,15.137,56.152,44.434,93.750,0
1507332095.410,42.480,50.781,36.133,47.852,112.305,0
1507332095.414,59.082,61.523,61.035,58.594,128.906,0
1507332095.418,60.059,22.461,41.016,47.852,165.527,0
1507332095.422,42.480,23.438,17.090,35.156,120.117,0
1507332095.426,47.852,40.039,32.715,32.227,104.980,0
1507332095.430,56.641,46.875,46.387,43.945,117.676,0
1507332095.434,29.785,39.551,60.059,30.273,104.980,0
1507332095.438,17.090,41.992,47.852,21.484,87.402,0
1507332095.441,42.480,49.805,43.945,42.480,48.340,0
1507332095.445,54.199,59.570,37.598,35.156,40.039,0
1507332095.449,48.828,43.945,43.945,40.527,14.648,0
1507332095.453,40.039,37.109,54.688,49.805,-15.137,0
1507332095.457,23.438,49.805,56.152,32.227,-11.230,0
1507332095.461,32.715,51.758,23.438,34.180,-22.461,0
1507332095.465,52.734,41.504,-0.488,33.203,-52.246,0
1507332095.469,64.453,36.133,30.762,29.297,-72.754,0
1507332095.473,54.199,40.527,34.180,31.250,-61.523,0
1507332095.477,21.484,61.035,39.062,29.297,-46.387,0
1507332095.481,38.086,45.410,54.199,41.504,-71.289,0
1507332095.484,47.852,39.551,48.340,39.062,-94.727,0
1507332095.488,19.531,57.617,54.688,20.508,-131.836,0
1507332095.492,39.062,17.578,68.848,28.320,-180.176,0
1507332095.496,55.664,16.602,56.152,42.969,-185.059,0
1507332095.500,40.527,50.781,27.344,54.199,-176.758,0
1507332095.504,40.527,47.363,28.809,43.945,-159.668,0
1507332095.508,37.109,63.965,15.625,34.180,-149.414,0
1507332095.512,30.762,50.781,49.805,29.785,-193.848,0
1507332095.516,26.855,6.348,66.895,21.484,-188.477,0
1507332095.520,30.273,22.461,10.254,30.273,-118.652,0
1507332095.523,48.340,49.805,41.504,29.785,-102.539,0
1507332095.527,51.270,50.293,73.730,31.250,-94.727,0
1507332095.531,41.992,41.504,55.176,64.453,-51.270,0
1507332095.535,28.809,46.875,50.781,56.152,-30.762,0
1507332095.539,34.180,42.969,54.688,45.898,-45.898,0
1507332095.543,43.457,41.016,37.109,55.664,-53.711,0
1507332095.547,21.484,50.293,26.367,39.062,-21.973,0
1507332095.551,41.992,30.762,51.758,54.199,-30.762,0
1507332095.555,64.453,39.062,39.551,55.176,-52.734,0
1507332095.559,47.363,52.734,12.207,36.621,-65.430,0
1507332095.563,39.551,46.875,23.438,41.992,-49.316,0
1507332095.566,56.641,40.527,53.223,50.293,13.184,0
1507332095.570,62.500,42.480,48.340,39.062,17.090,0
1507332095.574,45.410,46.875,-1.465,41.016,14.160,0
1507332095.578,47.852,53.223,1.465,45.898,22.949,0
1507332095.582,47.363,35.156,63.477,28.809,35.645,0
1507332095.586,36.133,32.715,87.891,20.020,63.477,0
1507332095.590,33.203,38.086,69.336,32.715,55.176,0
1507332095.594,25.391,27.344,71.289,59.082,42.969,0
1507332095.598,39.551,30.273,78.613,53.223,61.035,0
1507332095.602,34.180,47.852,60.059,30.762,75.195,0
1507332095.606,34.180,57.129,45.410,32.715,82.031,0
1507332095.609,48.340,44.922,23.926,36.621,82.031,0
1507332095.613,44.922,46.875,27.832,55.176,79.102,0
1507332095.617,31.738,37.109,40.527,52.246,79.590,0
1507332095.621,27.832,28.320,6.348,28.809,83.008,0
1507332095.625,41.016,35.156,25.879,30.273,118.164,0
1507332095.629,32.715,36.621,57.617,17.090,105.469,0
1507332095.633,30.273,40.527,48.340,13.184,83.008,0
1507332095.637,32.715,39.062,31.250,18.066,110.840,0
1507332095.641,35.156,41.992,53.223,27.344,103.027,0
1507332095.645,50.781,35.645,72.266,42.480,81.055,0
1507332095.648,31.250,50.781,50.781,19.043,67.383,0
1507332095.652,34.180,47.363,57.129,19.043,84.961,0
1507332095.656,55.176,25.391,50.293,58.105,130.859,0
1507332095.660,17.578,41.504,48.340,34.180,99.121,0
1507332095.664,33.691,36.133,26.855,48.340,77.637,0
1507332095.668,64.453,16.113,20.508,75.684,104.980,0
1507332095.672,53.711,32.227,50.293,46.387,133.301,0
1507332095.676,60.059,48.340,25.391,60.547,125.977,0
1507332095.680,36.621,41.992,47.852,41.016,95.703,0
1507332095.684,25.391,36.133,80.078,24.414,71.777,0
1507332095.688,44.922,42.969,88.379,45.898,59.082,0
1507332095.691,49.316,48.340,52.246,47.363,59.570,0
1507332095.695,40.527,60.059,27.832,54.688,60.547,0
1507332095.699,40.527,48.340,43.457,67.871,72.754,0
1507332095.703,59.082,23.438,34.180,61.035,66.406,0
1507332095.707,56.641,35.156,20.996,53.711,59.082,0
1507332095.711,42.480,54.688,41.016,44.434,72.754,0
1507332095.715,48.340,57.129,55.664,59.082,99.121,0
1507332095.719,68.359,32.715,25.879,81.543,98.633,0
1507332095.723,54.199,52.246,2.441,51.270,94.727,0
1507332095.727,34.668,43.457,53.223,28.320,87.402,0
1507332095.731,19.043,30.273,94.727,20.996,87.402,0
1507332095.734,41.992,37.109,60.547,41.992,85.938,0
1507332095.738,49.316,39.551,52.734,33.203,44.434,0
1507332095.742,36.621,43.457,55.664,20.508,32.715,0
1507332095.746,20.020,48.340,38.574,24.902,58.105,0
1507332095.750,20.020,63.965,0.488,28.809,13.184,0
1507332095.754,52.734,27.344,28.320,53.223,-15.137,0
1507332095.758,61.035,18.555,38.086,50.781,21.484,0
1507332095.762,58.594,40.039,12.207,55.176,25.391,0
1507332095.766,61.523,44.922,45.410,47.363,19.043,0
1507332095.770,43.945,43.945,77.637,27.344,32.227,0
1507332095.773,21.484,21.973,79.590,22.949,52.734,0
1507332095.777,33.203,26.367,34.180,37.109,23.438,0
1507332095.781,54.688,50.781,11.230,57.617,20.020,0
1507332095.785,57.617,49.805,31.738,46.387,36.621,0
1507332095.789,39.551,22.949,61.523,25.391,22.461,0
1507332095.793,43.945,27.832,66.895,31.738,14.160,0
1507332095.797,54.199,56.152,38.574,46.387,0.000,0
1507332095.801,42.969,66.895,12.695,42.480,-7.812,0
1507332095.805,34.180,44.434,29.297,36.133,14.648,0
1507332095.809,37.109,31.738,69.336,42.969,13.672,0
1507332095.813,39.551,44.922,64.941,45.898,6.836,0
1507332095.816,59.082,57.617,68.359,65.918,19.043,0
1507332095.820,67.871,32.227,80.566,67.871,13.184,0
1507332095.824,49.316,54.199,32.227,57.129,-4.883,0
1507332095.828,59.082,67.383,-9.277,67.871,-30.273,0
1507332095.832,57.617,33.691,18.555,67.383,-27.832,0
1507332095.836,43.945,25.391,36.133,43.945,-8.789,0
1507332095.840,46.387,28.809,39.551,41.504,8.301,0
1507332095.844,52.246,54.199,55.176,51.758,-2.930,0
1507332095.848,37.109,46.387,78.613,29.785,-17.090,0
1507332095.852,46.387,18.066,85.449,25.879,-2.441,0
1507332095.856,56.641,41.504,78.613,45.898,-30.273,0
1507332095.859,47.852,48.340,74.219,56.641,-64.941,0
1507332095.863,25.391,46.875,75.195,20.996,-23.926,0
1507332095.867,22.949,33.691,50.293,22.461,6.836,0
1507332095.871,50.781,25.879,25.879,65.430,11.719,0
1507332095.875,47.852,52.734,9.766,49.805,11.719,0
1507332095.879,51.758,45.410,-3.418,56.152,-5.859,0
1507332095.883,44.922,26.855,-6.348,61.523,16.602,0
1507332095.887,38.574,27.832,21.484,35.156,-11.230,0
1507332095.891,47.363,45.410,65.918,47.363,-27.344,0
1507332095.895,45.898,36.621,62.500,67.871,20.508,0
1507332095.898,43.945,45.898,53.223,43.945,-4.883,0
1507332095.902,44.922,62.500,77.637,32.715,-33.203,0
1507332095.906,54.199,36.133,72.754,38.574,1.953,0
1507332095.910,46.875,31.250,50.293,35.156,53.223,0
1507332095.914,41.504,37.598,28.320,28.320,27.832,0
1507332095.918,50.293,38.574,25.879,35.156,-16.602,0
1507332095.922,47.363,40.527,76.172,30.762,3.906,0
1507332095.926,60.547,56.641,51.270,40.039,4.395,0
1507332095.930,63.965,39.551,14.160,50.781,-3.906,0
1507332095.934,45.410,45.898,8.789,38.574,2.441,0
1507332095.938,44.434,63.477,15.137,42.969,0.977,0
1507332095.941,61.523,53.223,30.273,41.504,-3.418,0
1507332095.945,54.688,35.156,72.266,22.949,-28.320,0
1507332095.949,56.641,44.434,83.984,36.133,-27.344,0
1507332095.953,53.711,45.898,16.602,51.270,12.207,0
1507332095.957,51.758,31.250,-23.438,37.598,-9.277,0
1507332095.961,51.758,41.016,20.996,41.504,-23.438,0
1507332095.965,51.758,38.574,60.547,53.223,5.859,0
1507332095.969,47.852,34.180,89.355,52.734,10.742,0
1507332095.973,41.992,56.152,62.500,59.570,-10.742,0
1507332095.977,58.105,56.641,44.922,56.641,-37.109,0
1507332095.981,47.363,26.367,60.059,43.457,-44.922,0
1507332095.984,54.688,32.715,69.336,43.945,-9.766,0
1507332095.988,69.824,42.969,58.594,42.969,-14.160,0
1507332095.992,45.410,48.828,46.875,24.902,-67.871,0
1507332095.996,31.250,62.500,22.461,31.738,-92.773,0
1507332096.000,35.156,38.574,31.250,56.152,-100.586,0
1507332096.004,36.621,27.344,57.617,42.969,-91.309,0
1507332096.008,52.246,38.086,44.434,29.785,-73.730,0
1507332096.012,46.387,34.180,87.891,22.949,-79.590,0
1507332096.016,41.016,46.875,55.176,41.504,-100.098,0
1507332096.020,55.664,46.875,-4.883,66.895,-128.906,0
1507332096.023,54.688,41.016,28.320,51.758,-141.602,0
1507332096.027,39.551,51.758,33.203,43.945,-138.672,0
1507332096.031,44.922,33.691,28.809,62.012,-114.746,0
1507332096.035,33.691,50.293,35.645,59.082,-125.488,0
1507332096.039,20.508,53.223,72.266,37.109,-151.367,0
1507332096.043,50.293,37.598,51.270,43.457,-102.539,0
1507332096.047,44.434,51.270,38.086,50.781,-81.055,0
1507332096.051,26.367,42.480,57.617,40.527,-95.703,0
1507332096.055,46.875,44.922,30.762,27.832,-80.566,0
1507332096.059,27.832,15.625,44.434,18.066,-77.637,0
1507332096.063,22.949,32.227,66.895,42.480,-72.754,0
1507332096.066,34.180,47.852,75.195,67.383,-37.109,0
1507332096.070,33.691,42.969,28.320,55.176,-19.531,0
1507332096.074,25.391,53.711,13.184,33.691,-4.883,0
1507332096.078,34.180,40.527,59.570,48.340,-13.184,0
1507332096.082,47.363,13.184,77.637,68.848,-50.781,0
1507332096.086,38.086,24.902,59.082,67.871,-33.203,0
1507332096.090,46.387,41.016,15.625,60.059,-16.602,0
1507332096.094,27.832,38.086,-10.742,39.551,-22.949,0
1507332096.098,42.969,28.320,38.574,48.828,-27.344,0
1507332096.102,53.223,45.898,76.172,60.059,-16.602,0
1507332096.106,45.410,38.086,65.918,62.500,5.859,0
1507332096.109,48.340,26.855,49.316,53.711,-16.113,0
1507332096.113,36.621,58.105,20.996,41.504,-46.875,0
1507332096.117,21.973,46.875,72.266,33.203,-17.090,0
1507332096.121,36.621,22.949,97.656,39.551,19.043,0
1507332096.125,67.871,41.016,36.621,52.246,16.113,0
1507332096.129,59.570,47.363,25.879,41.504,18.555,0
1507332096.133,46.875,39.551,54.199,55.664,35.156,0
1507332096.137,27.344,47.852,49.316,60.059,52.734,0
1507332096.141,23.926,47.852,31.738,60.547,33.203,0
1507332096.145,37.109,30.273,56.152,44.922,44.434,0
1507332096.148,43.457,46.387,63.965,44.922,77.148,0
1507332096.152,45.410,66.406,46.875,42.480,80.566,0
1507332096.156,30.762,42.480,41.992,28.320,122.070,0
1507332096.160,40.039,43.945,26.855,35.156,142.090,0
1507332096.164,48.340,70.312,40.039,24.902,192.383,0
1507332096.168,64.453,36.133,44.434,33.203,250.000,0
1507332096.172,84.473,28.809,21.973,59.082,252.441,0
1507332096.176,55.664,51.758,29.785,48.340,291.992,0
1507332096.180,44.434,49.805,31.250,49.316,359.375,0
1507332096.184,29.785,36.621,51.758,40.039,399.902,0
1507332096.188,29.297,41.016,77.148,32.227,414.062,0
1507332096.191,36.133,47.852,75.684,26.367,453.125,0
1507332096.195,28.320,42.480,47.363,20.996,470.703,0
1507332096.199,26.855,50.781,32.227,42.480,451.172,0
1507332096.203,26.367,52.734,10.742,45.410,411.133,0
1507332096.207,63.477,46.387,12.695,53.223,369.629,0
1507332096.211,57.617,41.016,63.965,34.668,349.609,0
1507332096.215,43.945,39.551,36.621,28.809,292.969,0
1507332096.219,52.734,34.180,9.277,48.828,256.348,0
1507332096.223,41.016,27.344,44.922,44.434,247.559,0
1507332096.227,33.691,36.133,66.895,45.410,201.172,0
1507332096.231,46.387,34.180,62.988,51.758,160.156,0
1507332096.234,50.293,49.805,65.918,39.551,139.160,0
1507332096.238,58.594,53.711,53.711,36.133,134.277,0
1507332096.242,57.617,43.945,43.457,48.340,133.301,0
1507332096.246,37.109,51.758,49.805,39.551,119.141,0
1507332096.250,40.527,51.270,13.184,36.621,81.055,0
1507332096.254,47.363,40.039,23.926,56.641,71.289,0
1507332096.258,39.062,51.758,41.992,51.758,72.266,0
1507332096.262,38.574,50.781,-0.488,56.152,42.480,0
1507332096.266,20.508,20.020,82.031,44.922,28.320,0
1507332096.270,16.602,29.785,117.676,13.672,35.645,0
1507332096.273,46.387,64.941,51.758,23.438,16.113,0
1507332096.277,68.848,50.781,43.457,52.246,-8.789,0
1507332096.281,72.754,41.504,13.184,57.129,22.461,0
1507332096.285,68.848,45.898,9.766,53.711,53.223,0
1507332096.289,49.316,43.457,20.996,59.570,25.879,0
1507332096.293,32.227,42.480,28.809,40.039,3.418,0
1507332096.297,31.738,41.504,51.270,21.484,5.371,0
1507332096.301,47.852,22.949,37.598,41.016,19.531,0
1507332096.305,54.199,32.227,39.551,48.340,29.785,0
1507332096.309,39.551,38.086,68.848,37.598,-2.441,0
1507332096.313,36.133,34.180,69.824,39.551,0.000,0
1507332096.316,38.574,39.062,75.195,47.363,10.742,0
1507332096.320,32.715,40.527,78.125,44.434,-6.348,0
1507332096.324,31.250,40.039,62.988,30.273,7.812,0
1507332096.328,30.762,52.246,19.043,30.762,-5.371,0
1507332096.332,39.551,53.223,0.977,35.156,-16.602,0
1507332096.336,57.129,38.574,19.043,32.227,-23.438,0
1507332096.340,30.273,38.086,41.016,23.438,-42.969,0
1507332096.344,16.602,55.176,57.129,31.250,-10.254,0
1507332096.348,48.828,56.641,51.270,59.570,31.738,0
1507332096.352,53.711,54.199,41.504,63.965,19.531,0
1507332096.356,72.754,31.738,21.973,49.316,8.301,2
1507332096.359,71.777,36.133,38.086,39.062,63.965,0
1507332096.363,27.832,56.152,77.148,23.438,85.449,0
1507332096.367,33.691,41.992,81.055,27.832,57.617,0
1507332096.371,48.340,46.875,57.617,37.109,48.340,0
1507332096.375,49.805,48.828,38.574,54.199,61.035,0
1507332096.379,46.387,35.645,20.020,42.969,59.570,0
1507332096.383,46.387,48.828,-0.488,33.691,42.480,0
1507332096.387,53.223,52.246,13.184,64.453,38.086,0
1507332096.391,43.945,40.527,43.945,50.293,31.738,0
1507332096.395,30.762,35.156,41.016,43.457,32.227,0
1507332096.398,25.879,25.879,53.711,30.762,9.766,0
1507332096.402,25.879,22.949,39.551,16.113,25.391,0
1507332096.406,35.156,55.176,30.762,34.668,41.992,0
1507332096.410,57.129,74.707,54.688,50.293,2.930,0
1507332096.414,49.805,72.754,13.672,42.969,-11.719,0
1507332096.418,32.715,52.734,30.762,19.043,6.836,0
1507332096.422,47.852,25.879,98.145,28.809,32.227,0
1507332096.426,38.086,39.551,86.914,35.645,-0.977,0
1507332096.430,29.785,37.598,79.102,44.922,-51.270,0
1507332096.434,39.551,30.762,66.406,32.715,-53.711,0
1507332096.438,57.129,43.457,27.832,44.922,-67.383,0
1507332096.441,59.082,45.898,14.648,68.848,-90.332,0
1507332096.445,36.133,54.199,15.137,44.922,-116.211,0
1507332096.449,29.297,49.805,30.762,35.156,-110.352,0
1507332096.453,21.973,45.898,56.641,22.461,-84.961,0
1507332096.457,30.273,46.875,51.270,17.578,-117.676,0
1507332096.461,60.059,41.992,39.551,38.574,-113.770,0
1507332096.465,56.152,51.270,46.387,49.805,-97.168,0
1507332096.469,43.945,33.203,75.684,48.828,-113.770,0
1507332096.473,50.293,42.969,52.246,35.645,-114.258,0
1507332096.477,44.922,48.828,4.395,14.160,-94.238,0
1507332096.481,18.066,33.203,-8.789,29.785,-87.891,0
1507332096.484,33.691,43.945,0.977,55.176,-108.887,0
1507332096.488,46.387,36.133,21.484,41.016,-138.184,0
1507332096.492,57.129,31.738,24.902,55.664,-147.461,0
1507332096.496,51.758,45.410,75.195,42.480,-120.605,0
1507332096.500,46.387,55.664,90.332,30.762,-117.188,0
1507332096.504,39.551,28.809,85.938,35.645,-131.348,0
1507332096.508,17.090,36.621,83.984,25.391,-120.117,0
1507332096.512,30.762,54.688,44.922,42.969,-84.473,0
1507332096.516,28.320,48.340,-24.902,30.762,-70.801,0
1507332096.520,20.020,41.992,-1.953,33.691,-88.379,0
1507332096.523,30.762,30.762,77.637,51.270,-81.543,0
1507332096.527,47.852,25.391,75.195,32.227,-73.730,0
1507332096.531,49.805,52.734,34.180,14.160,-82.520,0
1507332096.535,20.020,63.477,-8.789,15.137,-74.219,0
1507332096.539,28.320,41.016,28.320,22.461,-70.312,0
1507332096.543,47.852,47.852,73.730,35.156,-60.547,0
1507332096.547,53.711,34.668,78.125,53.711,-72.266,0
1507332096.551,49.316,25.391,30.273,44.922,-85.449,0
1507332096.555,33.203,22.461,30.273,35.156,-72.754,0
1507332096.559,39.062,35.645,90.332,31.738,-55.176,0
1507332096.563,39.062,44.434,83.008,26.367,-72.266,0
1507332096.566,39.551,52.246,27.832,36.133,-94.238,0
1507332096.570,36.133,62.500,18.066,28.320,-59.082,0
1507332096.574,31.738,51.758,69.824,27.344,-58.105,0
1507332096.578,30.273,37.109,57.129,25.879,-94.238,0
1507332096.582,23.926,38.574,25.391,9.766,-83.984,0
1507332096.586,28.320,40.527,36.133,15.137,-48.828,0
1507332096.590,13.184,43.457,50.781,20.020,-65.918,0
1507332096.594,37.109,43.945,24.414,41.504,-60.547,0
1507332096.598,52.246,64.453,4.883,46.387,-24.902,0
1507332096.602,18.066,59.082,44.434,7.812,-11.719,0
1507332096.606,46.387,24.902,31.250,45.410,-33.203,0
1507332096.609,49.805,20.020,27.832,57.129,-33.203,0
1507332096.613,35.156,49.316,62.012,30.762,-14.648,0
1507332096.617,34.668,59.570,64.453,35.156,-27.344,0
1507332096.621,29.297,33.691,49.316,28.809,-12.695,0
1507332096.625,34.180,43.945,50.293,28.320,12.207,0
1507332096.629,32.227,41.504,74.219,41.992,25.391,0
1507332096.633,33.203,49.805,58.594,47.852,52.734,0
1507332096.637,26.855,47.852,38.574,24.414,43.457,0
1507332096.641,22.949,31.250,47.363,-0.977,10.254,0
1507332096.645,29.785,51.270,28.809,11.719,29.785,0
1507332096.648,43.457,32.715,2.930,44.922,73.730,0
1507332096.652,49.805,25.879,26.855,43.457,61.035,0
1507332096.656,33.691,57.617,31.250,33.203,42.969,0
1507332096.660,38.086,45.410,22.949,49.805,57.129,0
1507332096.664,40.039,29.785,48.828,43.457,44.922,0
1507332096.668,43.945,40.039,63.477,37.598,29.785,0
1507332096.672,40.039,35.645,66.406,32.715,27.832,0
1507332096.676,49.316,28.809,55.176,33.691,61.035,0
1507332096.680,41.016,54.199,13.672,36.133,68.359,0
1507332096.684,3.906,56.641,6.348,19.043,25.391,0
1507332096.688,43.945,41.016,39.551,33.691,33.691,0
1507332096.691,39.551,62.988,26.367,22.949,53.223,0
1507332096.695,36.133,44.922,21.973,26.367,17.090,0
1507332096.699,57.617,4.395,42.969,55.664,11.230,0
1507332096.703,32.227,37.109,65.430,47.852,38.086,0
1507332096.707,32.715,42.969,80.078,50.781,54.199,0
1507332096.711,56.152,52.246,25.391,51.270,20.020,0
1507332096.715,47.363,68.848,-6.348,41.504,13.672,0
1507332096.719,35.156,32.227,62.500,41.016,14.648,0
1507332096.723,44.434,34.668,70.801,38.574,28.320,0
1507332096.727,40.527,33.203,65.918,20.996,34.180,0
1507332096.731,37.109,32.715,54.688,29.785,25.391,0
1507332096.734,41.992,57.617,30.762,50.293,40.039,0
1507332096.738,26.855,42.969,34.180,39.551,34.180,0
1507332096.742,34.668,25.879,43.945,36.621,41.504,0
1507332096.746,61.035,52.734,50.293,55.664,50.293,0
1507332096.750,42.969,57.617,27.344,58.105,59.570,0
1507332096.754,29.785,56.641,35.645,34.668,60.059,0
1507332096.758,42.480,50.293,39.551,48.340,60.059,0
1507332096.762,46.387,42.969,21.973,47.363,79.590,0
1507332096.766,25.879,55.664,35.645,24.902,90.332,0
1507332096.770,41.992,36.621,40.527,53.223,85.449,0
1507332096.773,71.777,22.461,39.551,51.270,73.242,0
1507332096.777,62.012,37.109,41.504,25.391,122.559,0
1507332096.781,37.598,46.875,66.895,37.598,182.129,0
1507332096.785,53.711,50.293,67.383,55.176,144.043,0
1507332096.789,72.266,38.574,26.855,48.340,130.371,0
1507332096.793,38.574,56.641,41.016,23.438,146.973,0
1507332096.797,59.082,53.223,55.176,26.855,140.137,0
1507332096.801,66.406,35.645,31.250,47.852,138.672,0
1507332096.805,51.758,45.898,34.668,39.551,121.094,0
1507332096.809,54.688,32.227,38.086,38.086,132.324,0
1507332096.813,45.898,37.598,20.508,61.035,140.625,0
1507332096.816,59.082,48.828,39.062,61.035,148.438,0
1507332096.820,59.082,48.340,39.551,52.734,149.414,0
1507332096.824,49.316,49.805,58.594,51.270,131.348,0
1507332096.828,66.895,53.223,66.895,62.500,135.742,0
1507332096.832,63.477,43.457,50.781,42.969,105.957,0
1507332096.836,53.223,33.691,55.176,30.273,94.238,0
1507332096.840,42.969,49.805,16.602,64.453,119.141,0
1507332096.844,40.527,40.039,-8.789,52.734,136.719,0
1507332096.848,41.992,32.227,47.852,30.273,103.516,0
1507332096.852,38.574,51.270,33.203,21.973,102.539,0
1507332096.856,20.020,54.199,-3.418,8.301,131.348,3
1507332096.859,18.066,34.668,46.875,32.227,103.027,0
1507332096.863,47.852,51.270,71.289,43.945,64.453,0
1507332096.867,50.781,43.457,81.055,29.297,61.035,0
1507332096.871,43.457,29.785,51.758,36.621,68.359,0
1507332096.875,50.781,37.598,31.250,34.668,60.547,0
1507332096.879,51.270,33.691,47.852,41.992,58.105,0
1507332096.883,31.250,65.430,53.223,39.062,41.016,0
1507332096.887,43.457,47.363,35.645,61.035,30.762,0
1507332096.891,65.918,18.555,26.855,63.965,54.199,0
1507332096.895,41.504,53.711,44.434,36.621,65.430,0
1507332096.898,34.180,59.082,25.391,38.086,71.777,0
1507332096.902,24.902,35.156,41.992,34.668,72.266,0
1507332096.906,12.695,43.457,86.426,40.527,67.871,0
1507332096.910,20.996,44.922,78.125,34.180,67.383,0
1507332096.914,28.809,26.855,48.340,27.344,117.676,0
1507332096.918,29.297,40.039,39.551,41.992,138.672,0
1507332096.922,39.551,52.246,55.664,58.105,90.332,0
1507332096.926,35.645,33.691,48.828,51.758,94.238,0
1507332096.930,19.531,38.086,23.926,56.152,113.770,0
1507332096.934,7.812,46.387,43.945,39.551,120.605,0
1507332096.938,27.832,43.457,49.805,19.531,99.609,0
1507332096.941,45.410,38.086,17.578,30.762,93.262,0
1507332096.945,24.902,58.105,4.883,28.320,116.211,0
1507332096.949,57.617,44.922,-0.488,47.852,113.770,0
1507332096.953,69.336,29.297,27.344,44.922,125.977,0
1507332096.957,40.039,49.805,73.242,47.363,111.328,0
1507332096.961,45.410,35.645,86.914,53.711,109.863,0
1507332096.965,47.363,46.875,67.383,38.574,96.680,0
1507332096.969,44.434,42.480,48.828,58.105,50.781,0
1507332096.973,45.410,40.527,8.301,56.152,58.105,0
1507332096.977,38.086,49.316,33.203,33.691,70.312,0
1507332096.981,38.086,39.062,82.031,30.273,37.598,0
1507332096.984,37.109,53.223,29.297,41.016,52.734,0
1507332096.988,36.133,58.594,12.695,48.828,68.848,0
1507332096.992,57.617,37.109,26.367,62.500,70.312,0
1507332096.996,49.805,45.410,22.949,51.270,62.012,0
1507332097.000,35.156,45.898,13.672,38.574,28.320,0
1507332097.004,56.641,30.762,33.203,47.852,6.836,0
1507332097.008,62.988,35.645,88.867,34.180,12.695,0
1507332097.012,40.039,40.527,100.098,29.785,4.883,0
1507332097.016,52.734,46.387,61.035,54.688,9.766,0
1507332097.020,28.809,49.316,29.297,25.879,50.781,0
1507332097.023,33.691,43.945,11.230,50.293,49.316,0
1507332097.027,35.645,60.547,-5.859,62.500,36.133,0
1507332097.031,42.480,54.199,37.109,33.203,61.035,0
1507332097.035,46.387,42.969,47.363,53.223,85.449,0
1507332097.039,40.039,37.598,32.715,67.383,62.012,0
1507332097.043,66.895,50.293,53.711,53.223,46.875,0
1507332097.047,62.988,52.246,69.336,42.969,83.008,0
1507332097.051,60.059,37.598,83.496,44.922,118.652,0
1507332097.055,24.414,55.664,69.336,30.273,102.539,0
1507332097.059,13.672,40.039,20.508,52.246,74.707,0
1507332097.063,41.992,36.133,-0.977,60.059,131.348,0
1507332097.066,49.316,74.219,27.832,43.945,171.387,0
1507332097.070,42.969,59.570,38.086,42.480,184.082,0
1507332097.074,39.062,32.715,44.434,52.246,234.863,0
1507332097.078,54.688,36.621,41.016,54.199,270.508,0
1507332097.082,56.152,32.715,36.133,48.340,309.570,0
1507332097.086,57.129,44.922,36.621,56.152,322.754,0
1507332097.090,49.805,54.688,23.926,56.641,355.469,0
1507332097.094,38.574,29.297,48.340,27.344,398.926,0
1507332097.098,36.133,42.969,53.223,39.551,380.859,0
1507332097.102,34.180,57.129,49.805,55.664,330.078,0
1507332097.106,49.805,23.926,58.594,33.203,291.016,0
1507332097.109,54.199,34.668,20.996,43.457,278.809,0
1507332097.113,31.738,57.129,17.578,42.480,247.559,0
1507332097.117,56.152,48.340,77.148,42.480,192.871,0
1507332097.121,48.828,44.434,37.598,51.270,158.203,0
1507332097.125,26.855,48.828,2.930,48.340,122.559,0
1507332097.129,45.898,48.828,47.363,54.199,74.707,0
1507332097.133,41.016,48.828,37.598,38.574,26.367,0
1507332097.137,28.809,33.691,65.430,34.668,18.555,0
1507332097.141,37.109,42.969,55.664,34.180,-7.812,0
1507332097.145,55.664,37.109,-0.488,51.270,-64.453,0
1507332097.148,48.340,56.152,29.785,56.641,-68.848,0
1507332097.152,33.203,53.223,52.246,40.039,-86.426,0
1507332097.156,49.805,21.973,61.523,51.270,-140.625,0
1507332097.160,67.871,39.551,71.777,60.547,-153.809,0
1507332097.164,70.801,42.969,11.230,50.781,-177.734,0
1507332097.168,43.945,42.969,-18.066,31.250,-206.543,0
1507332097.172,30.273,36.621,68.848,29.297,-181.641,0
1507332097.176,62.500,48.828,103.516,56.641,-199.707,0
1507332097.180,57.617,50.293,65.918,50.293,-237.305,0
1507332097.184,52.246,43.945,40.039,44.434,-214.355,0
1507332097.188,58.594,48.340,28.809,47.363,-227.051,0
1507332097.191,37.109,48.340,11.719,42.969,-225.586,0
1507332097.195,22.949,32.227,4.395,21.973,-246.582,0
1507332097.199,36.133,45.410,47.363,26.367,-267.578,0
1507332097.203,34.180,43.945,95.215,49.805,-256.348,0
1507332097.207,48.828,36.621,39.062,63.965,-259.277,0
1507332097.211,44.922,61.035,27.832,50.781,-221.680,0
1507332097.215,33.203,30.762,63.477,63.477,-166.016,0
1507332097.219,64.453,36.621,23.926,77.637,-135.254,0
1507332097.223,67.383,49.316,33.203,55.176,-125.488,0
1507332097.227,55.664,39.062,50.293,57.617,-89.844,0
1507332097.231,52.246,51.758,38.574,41.992,7.812,0
1507332097.234,62.012,62.500,47.852,48.828,17.090,0
1507332097.238,44.434,45.898,79.102,48.340,4.883,0
1507332097.242,35.156,34.668,58.594,55.664,9.766,0
1507332097.246,55.176,44.434,28.809,58.594,-7.324,0
1507332097.250,42.969,53.223,48.340,30.762,-7.324,0
1507332097.254,26.367,60.059,46.875,33.691,-18.555,0
1507332097.258,30.762,46.387,23.926,34.668,-5.859,0
1507332097.262,34.668,42.969,45.410,46.875,-5.371,0
1507332097.266,30.273,42.480,57.129,62.012,-28.320,0
1507332097.270,47.852,36.621,30.273,54.199,-8.789,0
1507332097.273,44.922,41.016,35.156,36.133,-12.695,0
1507332097.277,38.086,33.203,64.453,43.945,-31.738,0
1507332097.281,44.922,36.621,55.664,50.781,-54.199,0
1507332097.285,27.832,47.363,20.996,44.922,-70.801,0
1507332097.289,36.133,38.574,35.645,51.758,-37.598,0
1507332097.293,48.340,34.180,16.602,38.086,-16.602,0
1507332097.297,49.805,41.992,7.812,34.180,-54.199,0
1507332097.301,62.500,46.387,31.738,66.406,-69.824,0
1507332097.305,44.434,34.668,77.637,66.406,-48.828,0
1507332097.309,25.879,20.508,97.168,21.973,-52.734,0
1507332097.313,45.410,41.504,41.992,28.809,-75.195,0
1507332097.316,55.176,67.383,3.906,61.523,-64.941,0
1507332097.320,40.527,56.641,32.715,55.176,-61.523,0
1507332097.324,29.785,43.457,54.688,46.387,-81.543,0
1507332097.328,42.969,28.320,45.898,37.598,-82.031,0
1507332097.332,50.781,42.969,52.246,31.738,-74.219,0
1507332097.336,29.785,64.453,62.012,21.973,-94.727,0
1507332097.340,25.879,52.734,30.762,29.785,-134.277,0
1507332097.344,20.020,35.156,5.371,29.785,-172.852,0
1507332097.348,41.992,43.945,53.711,29.785,-154.785,0
1507332097.352,42.480,36.621,85.449,34.180,-106.445,0
1507332097.356,26.855,30.762,64.453,24.902,-103.516,4
1507332097.359,38.086,39.551,33.691,49.805,-133.789,0
1507332097.363,47.852,35.156,11.719,58.594,-132.812,0
1507332097.367,52.734,38.574,9.766,41.504,-118.164,0
1507332097.371,43.457,53.223,35.156,49.805,-118.164,0
1507332097.375,24.414,54.688,58.105,37.109,-105.957,0
1507332097.379,16.113,45.410,69.336,33.691,-103.027,0
1507332097.383,15.137,47.363,48.828,38.086,-98.633,0
1507332097.387,40.039,57.129,36.621,38.086,-115.234,0
1507332097.391,43.457,55.664,34.668,48.340,-113.281,0
1507332097.395,28.809,46.875,21.973,40.527,-73.730,0
1507332097.398,49.316,38.574,1.953,47.852,-70.312,0
1507332097.402,75.684,27.832,18.066,64.453,-76.172,0
1507332097.406,55.664,31.738,47.852,44.434,-60.547,0
1507332097.410,54.199,47.852,41.992,42.480,-53.223,0
1507332097.414,56.641,46.875,57.617,47.363,-71.777,0
1507332097.418,37.109,40.039,15.137,41.992,-81.055,0
1507332097.422,29.297,36.133,15.137,25.879,-66.406,0
1507332097.426,35.645,44.434,71.777,27.344,-75.195,0
1507332097.430,57.129,46.875,56.641,46.875,-83.496,0
1507332097.434,51.758,39.062,67.871,47.852,-98.633,0
1507332097.438,43.457,50.781,67.383,54.688,-53.711,0
1507332097.441,36.133,34.668,16.113,43.457,-37.109,0
1507332097.445,37.598,41.504,13.184,30.273,-65.918,0
1507332097.449,16.113,58.105,27.832,36.133,-71.777,0
1507332097.453,23.438,33.691,36.133,50.781,-51.758,0
1507332097.457,71.777,50.293,69.336,52.734,-33.691,0
1507332097.461,55.176,59.570,68.848,19.531,-65.430,0
1507332097.465,43.457,40.039,55.664,31.250,-86.426,0
1507332097.469,39.551,45.898,49.805,40.039,-57.129,0
1507332097.473,48.828,44.922,33.691,31.250,-58.594,0
1507332097.477,73.730,42.969,35.156,66.406,-78.125,0
1507332097.481,68.359,70.801,37.598,56.152,-79.590,0
1507332097.484,37.109,60.059,24.414,42.480,-61.035,0
1507332097.488,57.617,30.273,24.902,76.660,-73.242,0
1507332097.492,74.219,41.992,58.105,82.520,-66.406,0
1507332097.496,50.781,44.922,24.414,67.383,-52.734,0
1507332097.500,51.758,43.457,2.441,61.035,-29.297,0
1507332097.504,59.082,36.133,72.266,60.059,-8.789,0
1507332097.508,47.852,32.227,45.410,47.363,-46.387,0
1507332097.512,45.898,57.129,35.645,32.227,-60.547,0
1507332097.516,40.039,58.594,41.992,32.715,-50.293,0
1507332097.520,39.551,32.227,33.203,67.871,-68.359,0
1507332097.523,38.574,55.664,73.730,62.012,-99.609,0
1507332097.527,58.105,48.828,74.219,40.527,-88.379,0
1507332097.531,73.242,45.898,46.387,54.688,-62.500,0
1507332097.535,46.387,38.574,58.105,43.457,-65.918,0
1507332097.539,41.992,25.391,31.250,47.852,-48.828,0
1507332097.543,68.848,60.059,9.766,69.824,-6.348,0
1507332097.547,70.312,56.152,57.617,66.406,9.277,0
1507332097.551,49.805,38.574,55.176,64.941,0.977,0
1507332097.555,40.527,39.551,55.176,61.035,-5.859,0
1507332097.559,42.480,41.992,53.711,42.969,13.672,0
1507332097.563,50.781,47.363,23.926,46.875,26.855,0
1507332097.566,38.574,40.039,32.715,56.641,28.809,0
1507332097.570,29.297,35.156,56.152,39.062,26.367,0
1507332097.574,16.602,64.453,54.199,20.508,58.105,0
1507332097.578,22.949,49.316,40.527,48.340,81.055,0
1507332097.582,47.852,35.645,33.203,37.109,72.266,0
1507332097.586,50.781,50.293,40.527,33.203,79.102,0
1507332097.590,68.848,38.574,47.363,60.059,101.562,0
1507332097.594,51.758,39.551,68.848,47.363,123.047,0
1507332097.598,28.320,48.828,52.246,31.250,100.098,0
1507332097.602,52.734,61.523,24.414,42.969,99.121,0
1507332097.606,76.660,30.273,-5.371,54.688,124.512,0
1507332097.609,61.523,25.391,-47.852,48.828,102.051,0
1507332097.613,66.406,38.086,44.922,51.758,62.988,0
1507332097.617,64.453,58.105,103.027,70.801,78.125,0
1507332097.621,54.688,53.711,51.270,68.359,110.840,0
1507332097.625,82.031,41.504,29.785,69.336,92.285,0
1507332097.629,71.777,50.293,50.781,51.758,60.547,0
1507332097.633,47.852,49.805,65.918,43.945,75.195,0
1507332097.637,57.617,53.223,21.973,51.270,101.074,0
1507332097.641,79.590,36.133,22.461,64.453,82.520,0
1507332097.645,64.941,29.297,83.496,52.734,89.355,0
1507332097.648,46.387,39.062,79.102,24.902,107.910,0
1507332097.652,58.105,36.133,48.340,35.156,91.797,0
1507332097.656,64.941,44.434,27.832,66.406,66.895,0
1507332097.660,53.223,51.270,12.207,59.570,63.965,0
1507332097.664,63.477,46.875,12.207,54.199,90.820,0
1507332097.668,53.223,26.367,69.336,53.223,96.191,0
1507332097.672,59.570,28.809,68.848,38.086,64.941,0
1507332097.676,68.848,40.039,49.316,59.082,55.176,0
1507332097.680,41.504,44.922,57.129,47.852,80.566,0
1507332097.684,55.664,48.828,9.277,53.223,120.605,0
1507332097.688,60.059,39.062,46.387,58.105,109.863,0
1507332097.691,48.828,39.551,74.219,49.316,95.215,0
1507332097.695,46.875,38.086,56.152,51.758,125.488,0
1507332097.699,44.922,44.434,27.832,59.570,106.445,0
1507332097.703,43.945,34.668,12.207,57.617,71.777,0
1507332097.707,24.414,47.852,15.137,31.738,76.172,0
1507332097.711,46.387,43.945,20.020,49.805,93.750,0
1507332097.715,52.246,32.227,69.336,46.387,63.965,0
1507332097.719,44.434,53.223,77.637,30.273,52.246,0
1507332097.723,60.059,46.875,51.758,38.086,87.891,0
1507332097.727,49.805,45.898,28.809,37.109,88.867,0
1507332097.731,47.363,31.250,17.090,44.434,74.219,0
1507332097.734,56.152,27.832,40.039,70.801,85.938,0
1507332097.738,45.410,40.039,17.090,73.242,77.148,0
1507332097.742,44.922,48.828,20.996,57.617,51.758,0
1507332097.746,33.691,58.594,26.367,46.387,52.734,0
1507332097.750,24.902,45.898,31.250,47.852,65.430,0
1507332097.754,41.504,24.414,63.965,40.527,79.102,0
1507332097.758,47.363,33.691,68.359,38.574,92.285,0
1507332097.762,41.992,42.480,54.199,63.477,65.430,0
1507332097.766,31.738,41.504,42.480,48.340,30.762,0
1507332097.770,31.250,40.039,66.406,37.109,50.781,0
1507332097.773,31.250,45.898,54.688,41.992,81.055,0
1507332097.777,28.320,55.176,34.668,33.691,84.961,0
1507332097.781,42.969,43.945,40.527,40.527,54.199,0
1507332097.785,71.777,48.828,-11.230,77.148,59.082,0
1507332097.789,49.805,50.781,-10.742,61.523,63.965,0
1507332097.793,39.062,26.367,45.898,45.898,48.340,0
1507332097.797,43.945,32.227,64.941,66.406,61.035,0
1507332097.801,54.688,61.523,57.617,71.777,85.938,0
1507332097.805,56.152,52.734,72.266,54.199,66.406,0
1507332097.809,35.156,39.062,56.152,37.109,20.020,0
1507332097.813,55.176,38.574,31.250,55.176,48.340,0
1507332097.816,71.289,32.715,24.414,70.312,78.613,0
1507332097.820,47.852,30.273,25.879,37.598,53.711,0
1507332097.824,41.992,34.180,46.387,29.785,50.781,0
1507332097.828,65.918,37.598,57.617,58.594,50.293,0
1507332097.832,77.148,47.363,50.781,59.082,46.875,0
1507332097.836,74.707,50.781,29.297,59.570,43.457,0
1507332097.840,53.223,41.992,4.395,41.992,44.922,0
1507332097.844,30.762,42.480,39.062,38.086,50.293,0
1507332097.848,20.996,59.570,58.594,45.898,41.016,0
1507332097.852,33.691,59.082,57.617,43.457,32.227,0
1507332097.856,49.316,37.109,43.457,62.988,41.992,5
1507332097.859,45.410,31.250,34.668,57.617,69.336,0
1507332097.863,44.922,25.879,47.363,43.945,68.359,0
1507332097.867,55.664,43.945,35.645,47.363,7.324,0
1507332097.871,41.016,42.969,42.969,39.062,-5.371,0
1507332097.875,20.508,40.039,66.406,26.367,49.316,0
1507332097.879,51.758,50.293,42.969,42.969,57.129,0
1507332097.883,62.012,19.043,37.109,48.828,46.387,0
1507332097.887,36.133,30.273,33.203,26.855,56.152,0
1507332097.891,21.973,48.340,16.113,46.387,31.738,0
1507332097.895,23.926,31.250,43.457,42.969,24.414,0
1507332097.898,40.039,26.855,10.254,20.020,26.855,0
1507332097.902,62.500,43.457,2.441,38.574,42.969,0
1507332097.906,58.594,53.711,39.551,53.711,55.664,0
1507332097.910,56.641,47.363,58.105,54.199,49.316,0
1507332097.914,62.500,36.621,75.195,56.152,18.555,0
1507332097.918,54.199,35.156,83.008,59.082,12.695,0
1507332097.922,44.922,44.922,69.336,53.711,30.762,0
1507332097.926,57.617,56.641,30.762,66.895,16.113,0
1507332097.930,71.777,41.504,36.133,65.918,16.113,0
1507332097.934,66.895,36.621,44.434,62.988,27.832,0
1507332097.938,64.941,29.785,60.547,70.312,39.551,0
1507332097.941,56.152,28.320,62.988,52.734,36.621,0
1507332097.945,47.363,41.016,35.645,51.758,9.766,0
1507332097.949,65.918,50.293,10.254,71.777,21.973,0
1507332097.953,57.617,62.500,2.441,57.617,41.504,0
1507332097.957,60.547,62.988,17.090,61.035,61.035,0
1507332097.961,89.355,55.664,18.555,62.500,64.941,0
1507332097.965,73.730,46.875,42.969,57.129,57.617,0
1507332097.969,47.852,63.477,29.297,70.312,41.992,0
1507332097.973,35.645,49.805,68.848,49.805,36.133,0
1507332097.977,32.715,24.902,106.934,35.645,56.641,0
1507332097.981,44.922,52.734,42.480,52.734,56.641,0
1507332097.984,57.129,52.246,43.945,59.570,34.668,0
1507332097.988,63.965,44.922,69.336,67.383,13.184,0
1507332097.992,70.801,46.387,49.805,63.477,22.949,0
1507332097.996,51.270,48.340,27.832,47.363,14.648,0
1507332098.000,49.316,61.035,22.461,45.410,-1.465,0
1507332098.004,65.430,29.785,32.715,43.945,2.441,0
1507332098.008,54.688,32.715,37.109,42.969,20.996,0
1507332098.012,43.457,49.316,24.902,42.969,50.781,0
1507332098.016,21.484,40.039,4.395,48.828,42.480,0
1507332098.020,34.180,43.945,14.160,70.312,6.836,0
1507332098.023,55.176,53.223,69.336,60.059,16.602,0
1507332098.027,63.965,45.898,56.641,47.363,19.531,0
1507332098.031,53.711,44.434,14.648,44.434,24.902,0
1507332098.035,64.453,45.898,47.363,48.340,32.227,0
1507332098.039,55.664,48.828,43.457,39.551,24.902,0
1507332098.043,18.555,33.203,27.344,24.902,25.879,0
1507332098.047,22.949,36.133,83.008,18.066,-8.301,0
1507332098.051,46.387,42.480,47.852,34.180,-17.578,0
1507332098.055,76.660,23.438,-2.930,61.523,26.855,0
1507332098.059,56.641,33.203,51.270,36.133,69.336,0
1507332098.063,52.246,49.316,61.035,41.992,53.223,0
1507332098.066,32.715,70.312,69.824,38.086,47.363,0
1507332098.070,22.949,51.758,65.918,19.043,55.664,0
1507332098.074,46.387,38.086,29.785,20.996,23.438,0
1507332098.078,59.082,32.227,33.203,30.762,44.434,0
1507332098.082,52.246,23.926,35.645,31.250,50.293,0
1507332098.086,42.969,59.570,35.156,18.555,22.461,0
1507332098.090,42.480,57.617,32.715,1.953,32.227,0
1507332098.094,42.969,47.363,30.273,15.625,16.113,0
1507332098.098,49.805,61.523,43.945,35.156,48.828,0
1507332098.102,63.477,41.504,51.270,40.527,88.867,0
1507332098.106,57.617,32.715,47.363,50.781,44.434,0
1507332098.109,68.848,52.734,54.199,52.246,41.016,0
1507332098.113,71.777,55.664,20.020,51.270,106.934,0
1507332098.117,65.430,26.855,29.785,50.293,117.676,0
1507332098.121,74.707,49.316,58.594,60.547,72.754,0
1507332098.125,63.477,61.523,36.133,58.105,52.246,0
1507332098.129,65.430,21.484,43.457,33.691,47.363,0
1507332098.133,100.098,24.902,59.570,28.320,51.270,0
1507332098.137,104.492,47.852,63.965,33.203,53.223,0
1507332098.141,87.891,56.152,37.109,37.109,25.391,0
1507332098.145,103.516,51.758,37.109,39.551,53.223,0
1507332098.148,146.484,41.016,65.918,63.477,41.992,0
1507332098.152,153.809,39.551,41.992,71.289,-1.953,0
1507332098.156,126.465,57.129,9.277,41.992,41.504,0
1507332098.160,119.141,52.734,31.250,36.621,50.781,0
1507332098.164,130.859,34.668,49.805,41.992,9.277,0
1507332098.168,136.230,37.109,39.062,33.203,20.508,0
1507332098.172,127.930,47.852,25.879,40.527,58.105,0
1507332098.176,125.000,43.457,43.457,50.781,59.570,0
1507332098.180,110.352,49.316,78.125,35.645,46.875,0
1507332098.184,80.078,52.246,68.848,19.531,-2.441,0
1507332098.188,71.777,28.320,35.645,1.953,-1.953,0
1507332098.191,74.219,23.926,36.621,4.395,50.293,0
1507332098.195,97.656,52.734,59.570,33.691,45.898,0
1507332098.199,106.934,54.688,28.809,47.852,13.184,0
1507332098.203,75.195,39.551,35.156,28.320,21.973,0
1507332098.207,59.082,37.109,65.430,8.301,45.410,0
1507332098.211,85.938,34.180,67.383,16.602,53.711,0
1507332098.215,89.844,56.152,52.246,31.250,46.875,0
1507332098.219,79.102,63.965,8.301,44.922,58.594,0
1507332098.223,83.496,57.617,-25.391,51.270,55.664,0
1507332098.227,77.148,50.293,9.277,44.434,6.348,0
1507332098.231,81.543,40.527,79.590,42.969,-10.742,0
1507332098.234,72.754,59.082,74.707,39.551,-0.488,0
1507332098.238,60.547,57.617,31.738,35.645,7.324,0
1507332098.242,70.312,41.504,19.043,33.203,1.953,0
1507332098.246,61.523,39.551,40.527,18.066,11.719,0
1507332098.250,56.641,42.969,41.504,12.207,39.551,0
1507332098.254,43.457,63.477,25.391,2.930,30.273,0
1507332098.258,57.129,48.340,53.711,19.043,18.066,0
1507332098.262,96.191,41.504,56.641,37.109,24.414,0
1507332098.266,96.191,42.969,61.523,31.738,29.785,0
1507332098.270,64.941,34.180,94.727,17.578,31.738,0
1507332098.273,41.504,53.223,44.922,3.418,11.719,0
1507332098.277,75.684,53.223,20.020,29.297,40.039,0
1507332098.281,74.219,31.250,47.852,42.480,81.055,0
1507332098.285,50.781,31.250,5.859,32.715,41.016,0
1507332098.289,83.496,41.016,-13.672,41.992,20.508,0
1507332098.293,97.656,50.781,35.645,43.457,24.902,0
1507332098.297,69.336,53.223,75.684,32.227,4.883,0
1507332098.301,64.941,48.828,47.852,29.297,11.230,0
1507332098.305,76.660,40.527,-15.137,44.434,42.480,0
1507332098.309,57.617,47.852,-10.254,29.297,50.293,0
1507332098.313,50.293,29.297,23.438,5.859,32.715,0
1507332098.316,58.105,58.105,76.172,21.973,9.766,0
1507332098.320,41.016,59.570,112.305,13.184,20.508,0
1507332098.324,29.297,24.414,62.500,0.488,43.457,0
1507332098.328,32.715,37.598,19.043,20.020,23.438,0
1507332098.332,60.547,36.133,20.996,25.391,6.836,0
1507332098.336,62.988,33.203,39.551,5.371,-17.090,0
1507332098.340,58.594,53.223,22.949,13.184,8.789,0
1507332098.344,56.641,64.453,-6.348,39.062,34.180,0
1507332098.348,15.137,54.199,32.227,21.484,-1.465,0
1507332098.352,51.270,61.035,27.344,28.809,0.977,0
1507332098.356,49.805,41.504,50.781,20.996,28.320,0
1507332098.359,44.922,23.438,86.914,16.113,23.926,0
1507332098.363,70.801,39.551,38.574,45.410,-5.371,0
1507332098.367,36.621,54.199,32.715,18.066,-17.578,0
1507332098.371,19.043,47.852,71.777,-2.441,7.812,0
1507332098.375,42.480,42.969,53.223,11.719,-7.324,0
1507332098.379,31.250,33.203,37.598,16.602,-13.184,0
1507332098.383,26.367,46.875,36.133,26.855,7.324,0
1507332098.387,37.598,57.129,33.691,12.695,22.949,0
1507332098.391,61.035,41.016,27.344,26.367,18.066,0
1507332098.395,52.734,49.805,-5.859,33.203,-14.648,0
1507332098.398,29.297,41.016,29.297,6.836,-20.996,0
1507332098.402,39.062,40.527,20.996,12.695,2.930,0
1507332098.406,45.898,45.410,5.371,31.738,6.836,0
1507332098.410,57.617,51.270,66.895,41.504,-7.324,0
1507332098.414,57.617,59.082,62.012,33.203,23.438,0
1507332098.418,49.805,51.758,44.922,33.691,62.988,0
1507332098.422,28.809,51.758,12.695,20.020,57.617,0
1507332098.426,46.387,60.059,-20.020,21.484,23.438,0
1507332098.430,38.574,56.641,45.410,16.113,19.043,0
1507332098.434,15.137,37.598,78.125,12.695,25.879,0
1507332098.438,41.016,29.297,32.227,38.086,3.906,0
1507332098.441,19.043,34.668,2.930,42.969,23.438,0
1507332098.445,17.578,37.109,37.109,29.785,37.109,0
1507332098.449,66.406,48.828,49.316,27.832,34.180,0
1507332098.453,70.801,55.176,31.738,25.879,32.227,0
1507332098.457,56.641,54.688,52.246,13.184,10.254,0
1507332098.461,62.988,68.848,44.922,22.461,19.043,0
1507332098.465,80.078,51.758,36.621,31.250,10.254,0
1507332098.469,55.176,38.574,58.594,20.508,-3.418,0
1507332098.473,48.340,47.363,34.180,30.762,17.090,0
1507332098.477,57.617,45.898,18.066,44.922,35.645,0
1507332098.481,41.504,42.969,42.480,36.133,20.020,0
1507332098.484,48.340,27.832,51.270,37.598,12.207,0
1507332098.488,51.270,41.016,19.531,26.367,16.113,0
1507332098.492,44.922,26.367,-19.043,25.391,24.414,0
1507332098.496,35.156,30.273,-31.738,30.762,31.250,0
1507332098.500,49.805,65.430,25.879,36.621,4.883,0
1507332098.504,70.801,49.316,70.312,37.109,20.996,0
1507332098.508,52.734,39.062,30.762,15.137,36.621,0
1507332098.512,32.227,36.133,59.082,6.348,12.207,0
1507332098.516,19.531,14.160,90.820,22.461,9.766,0
1507332098.520,17.578,27.832,36.133,39.551,15.625,0
1507332098.523,22.461,32.715,39.551,49.805,49.316,0
1507332098.527,19.043,38.086,63.965,36.133,31.250,0
1507332098.531,27.344,62.012,52.246,23.926,7.812,0
1507332098.535,34.668,53.711,58.594,40.039,28.809,0
1507332098.539,39.062,41.016,45.898,27.832,13.672,0
1507332098.543,42.480,37.109,18.555,29.297,26.367,0
1507332098.547,48.340,31.250,3.418,49.316,31.250,0
1507332098.551,47.852,47.852,12.207,45.410,39.062,0
1507332098.555,26.855,56.641,53.223,37.598,34.668,0
1507332098.559,-0.977,49.805,57.129,26.855,-3.906,0
1507332098.563,33.691,33.203,35.156,47.363,11.230,0
1507332098.566,62.988,40.527,37.598,60.547,60.547,0
1507332098.570,40.039,47.363,10.254,43.457,63.965,0
1507332098.574,28.809,37.598,2.930,38.574,32.227,0
1507332098.578,33.691,61.035,46.875,46.875,46.875,0
1507332098.582,15.137,55.664,73.730,36.133,66.895,0
1507332098.586,18.555,18.555,68.359,37.598,54.199,0
1507332098.590,48.340,44.922,27.832,66.895,66.406,0
1507332098.594,48.828,44.434,40.039,52.246,62.012,0
1507332098.598,41.992,32.715,26.855,48.828,69.336,0
1507332098.602,33.203,45.410,14.648,42.480,57.129,0
1507332098.606,44.434,23.926,60.059,47.852,52.246,0
1507332098.609,44.434,23.926,70.312,41.992,92.285,0
1507332098.613,48.828,42.480,68.359,47.363,78.125,0
1507332098.617,47.363,41.016,50.293,57.617,71.289,0
1507332098.621,53.711,34.180,-13.672,68.848,81.055,0
1507332098.625,37.598,39.062,18.555,55.176,79.590,0
1507332098.629,28.809,41.504,71.777,26.367,70.801,0
1507332098.633,60.547,29.297,61.523,51.270,76.172,0
1507332098.637,62.500,42.480,51.270,66.895,77.637,0
1507332098.641,44.434,57.129,42.969,43.457,73.730,0
1507332098.645,33.691,52.246,47.363,25.879,47.852,0
1507332098.648,58.594,50.293,65.918,56.641,26.367,0
1507332098.652,48.828,62.500,45.898,29.785,51.270,0
1507332098.656,25.879,36.621,31.250,13.672,53.223,0
1507332098.660,51.270,6.836,41.016,71.777,47.363,0
1507332098.664,54.688,35.156,22.949,62.500,44.434,0
1507332098.668,49.805,45.898,60.059,47.363,42.480,0
1507332098.672,47.852,41.504,69.824,59.570,69.336,0
1507332098.676,44.434,43.945,17.090,30.273,84.961,0
1507332098.680,14.648,35.645,67.383,18.555,61.523,0
1507332098.684,34.180,31.738,54.199,58.105,62.012,0
1507332098.688,64.941,47.363,35.645,62.500,63.965,0
1507332098.691,35.645,51.758,69.824,33.691,31.250,0
1507332098.695,52.734,45.410,52.246,37.109,32.715,0
1507332098.699,49.805,48.828,58.594,46.387,46.875,0
1507332098.703,37.598,36.621,68.359,57.129,58.594,0
1507332098.707,52.734,40.039,47.852,63.965,65.430,0
1507332098.711,38.574,64.453,32.227,39.062,72.266,0
1507332098.715,41.992,49.805,22.949,45.898,80.566,0
1507332098.719,56.152,28.320,16.602,51.758,62.500,0
1507332098.723,64.941,41.504,10.254,64.453,47.852,0
1507332098.727,63.477,41.016,24.414,60.547,56.152,0
1507332098.731,47.852,45.410,53.223,20.020,53.711,0
1507332098.734,41.504,42.480,55.176,39.551,30.273,0
1507332098.738,54.199,30.273,54.688,62.988,-7.324,0
1507332098.742,66.895,31.250,59.570,61.523,3.906,0
1507332098.746,62.988,24.902,39.062,83.496,51.270,0
1507332098.750,49.316,44.922,17.578,75.195,37.109,0
1507332098.754,43.945,39.551,46.875,63.477,35.156,0
1507332098.758,51.270,25.391,57.617,60.547,52.734,0
1507332098.762,51.758,31.250,48.340,54.199,40.039,0
1507332098.766,55.176,37.109,62.988,59.570,10.742,0
1507332098.770,50.293,57.617,38.086,55.176,30.762,0
1507332098.773,35.156,51.270,41.016,24.902,71.777,0
1507332098.777,59.082,33.203,21.484,47.852,54.199,0
1507332098.781,58.105,54.199,49.805,51.270,39.551,0
1507332098.785,28.809,65.430,76.172,39.551,50.781,0
1507332098.789,44.434,34.668,73.242,64.453,56.152,0
1507332098.793,72.754,33.203,80.078,77.637,61.523,0
1507332098.797,69.824,45.898,21.973,62.500,30.762,0
1507332098.801,40.527,27.832,-4.395,41.016,-20.996,0
1507332098.805,32.227,24.414,23.926,33.203,18.066,0
1507332098.809,61.523,47.363,30.762,45.898,48.828,0
1507332098.813,65.430,66.895,40.527,45.410,17.578,0
1507332098.816,37.109,54.688,69.824,26.367,17.578,0
1507332098.820,25.879,38.086,71.289,43.945,28.320,0
1507332098.824,48.828,41.992,27.344,53.223,35.645,0
1507332098.828,53.711,59.570,33.203,49.316,54.688,0
1507332098.832,36.621,54.688,52.246,38.086,49.316,0
1507332098.836,43.457,24.414,53.711,20.996,39.551,0
1507332098.840,50.293,21.484,78.125,45.410,18.555,0
1507332098.844,35.645,51.758,52.734,37.109,1.953,0
1507332098.848,47.852,64.453,5.859,13.184,33.203,0
1507332098.852,76.660,29.297,24.414,35.645,70.312,0
1507332098.856,51.758,47.852,35.645,33.203,41.016,0
1507332098.859,39.551,49.316,38.574,44.922,7.812,0
1507332098.863,47.852,34.668,38.574,49.805,24.414,0
1507332098.867,63.965,45.410,18.555,58.594,30.762,0
1507332098.871,61.035,39.062,46.387,52.734,14.648,0
1507332098.875,53.223,30.762,70.312,44.922,-0.977,0
1507332098.879,61.523,40.039,51.270,52.734,13.184,0
1507332098.883,60.059,51.270,41.992,59.082,42.969,0
1507332098.887,53.711,44.434,58.594,51.758,13.672,0
1507332098.891,35.156,54.688,63.477,36.621,-13.672,0
1507332098.895,46.875,51.270,57.617,48.340,25.391,0
1507332098.898,36.621,38.086,56.152,19.043,51.270,0
1507332098.902,15.625,52.246,34.668,25.879,26.855,0
1507332098.906,44.434,42.969,10.254,42.480,20.996,0
1507332098.910,49.805,44.434,22.949,26.855,40.039,0
1507332098.914,63.477,36.621,38.574,56.152,52.246,0
1507332098.918,72.266,22.949,31.738,66.406,36.133,0
1507332098.922,67.383,41.992,56.641,59.570,17.090,0
1507332098.926,60.059,62.012,40.527,47.852,53.223,0
1507332098.930,22.461,50.293,25.879,12.207,55.176,0
1507332098.934,40.039,43.457,47.363,32.227,7.812,0
1507332098.938,41.016,37.109,48.340,39.062,15.625,0
1507332098.941,19.531,38.086,43.457,22.949,43.945,0
1507332098.945,43.945,46.875,68.359,69.336,40.039,0
1507332098.949,45.410,57.617,71.777,71.289,35.645,0
1507332098.953,40.527,45.410,58.105,35.645,55.176,0
1507332098.957,56.641,31.250,-10.254,44.922,40.039,0
1507332098.961,21.484,46.387,14.160,13.672,32.715,0
1507332098.965,17.578,41.016,70.312,5.371,67.871,0
1507332098.969,71.777,40.039,53.711,44.922,70.801,0
1507332098.973,65.430,48.340,45.410,58.105,69.336,0
1507332098.977,38.574,40.039,58.105,31.250,56.152,0
1507332098.981,37.598,48.828,56.152,22.949,15.137,0
1507332098.984,34.180,56.152,43.945,48.340,38.574,0
1507332098.988,24.902,27.832,78.613,30.762,31.738,0
1507332098.992,34.668,35.156,75.684,27.344,25.391,0
1507332098.996,48.340,46.875,30.273,55.176,31.738,0
1507332099.000,46.875,48.340,-16.113,51.270,32.227,0
1507332099.004,25.391,52.246,-13.672,41.504,38.086,0
1507332099.008,32.715,38.574,26.367,47.852,31.250,0
1507332099.012,29.297,46.387,67.871,21.484,52.734,0
1507332099.016,42.969,43.457,55.664,40.039,35.156,0
1507332099.020,56.152,25.391,35.156,49.805,27.832,0
1507332099.023,35.156,41.016,67.383,35.645,23.438,0
1507332099.027,44.434,67.871,42.969,50.781,22.949,0
1507332099.031,45.410,45.898,53.223,36.133,62.012,0
1507332099.035,32.227,21.484,64.941,37.598,69.336,0
1507332099.039,43.457,38.086,29.785,49.805,25.391,0
1507332099.043,20.996,37.109,23.438,14.160,25.391,0
1507332099.047,22.949,19.043,28.320,10.742,30.273,0
1507332099.051,41.504,30.273,51.270,29.297,19.043,0
1507332099.055,29.785,40.527,70.312,33.691,20.020,0
1507332099.059,47.363,40.527,44.434,50.781,37.109,0
1507332099.063,45.410,32.227,20.508,44.922,35.156,0
1507332099.066,47.363,54.688,13.672,51.758,30.762,0
1507332099.070,42.480,62.988,37.109,51.270,20.020,0
1507332099.074,35.156,40.039,69.824,42.969,38.086,0
1507332099.078,32.227,37.109,69.824,35.156,43.945,0
1507332099.082,22.949,40.527,63.477,33.203,28.320,0
1507332099.086,11.230,43.945,47.363,18.066,32.715,0
1507332099.090,26.367,34.668,35.156,18.555,20.508,0
1507332099.094,51.758,37.598,48.828,46.875,28.320,0
1507332099.098,57.617,45.410,31.250,58.105,21.973,0
1507332099.102,38.574,34.668,43.945,30.273,24.902,0
1507332099.106,40.039,30.762,45.410,24.902,56.641,0
1507332099.109,42.969,54.688,31.250,22.949,53.223,0
1507332099.113,30.762,39.062,52.246,26.367,35.645,0
1507332099.117,46.875,30.762,45.410,42.969,21.484,0
1507332099.121,63.477,44.922,25.391,71.777,55.664,0
1507332099.125,39.062,45.410,30.762,53.711,45.898,0
1507332099.129,30.762,43.457,41.992,33.691,-3.418,0
1507332099.133,33.691,41.016,4.395,30.762,23.438,0
1507332099.137,28.809,39.062,17.090,28.320,33.203,0
1507332099.141,33.203,36.133,54.199,47.363,32.715,0
1507332099.145,21.973,43.945,47.363,38.574,30.762,0
1507332099.148,28.809,54.199,55.176,8.301,38.574,0
1507332099.152,48.340,46.875,53.223,45.898,47.852,0
1507332099.156,45.410,39.551,43.945,52.246,20.020,0
1507332099.160,29.297,45.898,32.715,38.574,12.695,0
1507332099.164,49.805,47.363,41.992,50.781,22.461,0
1507332099.168,53.711,39.551,55.664,31.738,27.344,0
1507332099.172,45.898,55.664,42.480,37.598,-8.789,0
1507332099.176,57.617,71.289,33.203,46.387,-31.250,0
1507332099.180,41.504,36.133,31.738,27.832,-9.277,0
1507332099.184,20.508,20.508,6.836,28.809,-7.324,0
1507332099.188,33.203,32.227,-27.344,53.223,-19.531,0
1507332099.191,38.086,28.320,-18.555,53.223,-20.996,0
1507332099.195,28.809,30.273,71.289,30.762,20.020,0
1507332099.199,28.809,28.320,108.887,17.578,41.016,0
1507332099.203,7.812,36.621,75.684,4.395,16.602,0
1507332099.207,11.230,47.852,77.148,26.855,27.344,0
1507332099.211,57.129,64.453,66.406,67.871,36.621,0
1507332099.215,31.250,32.715,68.848,24.414,21.484,0
1507332099.219,16.602,12.207,61.035,10.254,-3.906,0
1507332099.223,38.086,32.227,48.828,48.828,-20.996,0
1507332099.227,36.621,48.828,41.504,39.062,-5.859,0
1507332099.231,53.223,59.082,18.066,35.156,-15.137,0
1507332099.234,54.688,44.922,21.973,43.945,-7.812,0
1507332099.238,34.668,39.062,-6.348,42.969,10.254,0
1507332099.242,5.371,48.340,-10.254,35.156,7.324,0
1507332099.246,21.973,46.387,25.879,34.668,10.742,0
1507332099.250,51.270,33.203,37.109,43.457,-2.441,0
1507332099.254,46.875,36.133,31.250,42.480,-14.648,0
1507332099.258,39.062,36.621,30.273,43.945,4.395,0
1507332099.262,56.152,37.598,19.531,57.617,14.648,0
1507332099.266,34.668,40.039,34.180,30.273,5.371,0
1507332099.270,24.414,57.129,53.223,25.391,22.461,0
1507332099.273,52.734,55.176,57.129,50.293,16.602,0
1507332099.277,52.734,36.621,60.547,48.828,-18.066,0
1507332099.281,54.199,24.414,36.621,30.762,-20.020,0
1507332099.285,46.875,27.832,41.992,35.156,13.672,0
1507332099.289,41.992,31.738,42.480,40.039,18.555,0
1507332099.293,28.809,37.109,-3.418,37.598,3.906,0
1507332099.297,5.859,43.457,43.457,35.156,4.883,0
1507332099.301,51.270,45.898,74.219,51.758,7.324,0
1507332099.305,72.266,33.691,35.156,42.969,-4.395,0
1507332099.309,72.754,46.387,10.254,51.270,-3.906,0
1507332099.313,59.082,56.152,17.090,54.688,20.508,0
1507332099.316,34.180,44.434,41.016,32.227,45.410,0
1507332099.320,39.062,36.133,62.012,40.039,37.109,0
1507332099.324,28.809,31.738,25.879,39.551,33.203,0
1507332099.328,35.645,34.180,-5.371,35.156,53.223,0
1507332099.332,15.625,29.785,25.879,32.715,38.086,0
1507332099.336,20.020,26.367,40.039,37.598,29.785,0
1507332099.340,28.809,41.504,57.129,20.020,48.340,0
1507332099.344,28.320,51.758,93.262,16.113,37.109,0
1507332099.348,42.969,36.133,73.730,46.875,20.996,0
1507332099.352,7.812,35.156,17.090,32.227,11.719,0
1507332099.356,24.902,37.598,19.531,33.203,14.160,0
1507332099.359,15.137,29.297,53.711,-0.488,44.434,0
1507332099.363,4.883,46.875,45.410,8.301,46.875,0
1507332099.367,23.926,52.246,47.852,28.320,16.113,0
1507332099.371,14.160,16.113,44.434,17.090,7.324,0
1507332099.375,16.602,39.062,29.785,12.695,49.805,0
1507332099.379,34.180,44.922,75.684,16.113,59.570,0
1507332099.383,47.363,32.715,46.875,60.547,20.508,0
1507332099.387,58.594,39.062,0.977,76.660,27.832,0
1507332099.391,48.340,43.945,36.133,44.434,21.484,0
1507332099.395,35.156,40.039,44.434,28.809,30.762,0
1507332099.398,46.875,36.133,25.391,39.062,39.062,0
1507332099.402,50.781,34.180,28.809,43.945,51.758,0
1507332099.406,31.250,18.066,66.406,25.391,69.824,0
1507332099.410,21.484,50.293,51.270,22.949,34.668,0
1507332099.414,36.621,51.270,-19.531,43.457,18.555,0
1507332099.418,29.785,25.391,-7.812,51.758,42.480,0
1507332099.422,27.832,34.668,43.945,23.926,76.172,0
1507332099.426,50.293,37.598,61.523,5.371,45.898,0
1507332099.430,67.383,40.039,47.852,61.035,32.715,0
1507332099.434,45.898,52.246,44.922,57.617,43.457,0
1507332099.438,47.852,62.500,31.250,49.316,53.223,0
1507332099.441,54.688,34.668,35.645,59.570,26.367,0
1507332099.445,44.922,22.461,46.875,60.059,-20.508,0
1507332099.449,38.574,37.109,41.016,58.594,6.348,0
1507332099.453,44.434,40.039,18.555,51.758,43.945,0
1507332099.457,39.062,20.508,37.598,37.109,45.410,0
1507332099.461,27.832,38.574,28.809,40.039,29.785,0
1507332099.465,33.203,58.105,10.742,47.363,40.039,0
1507332099.469,11.719,42.969,76.660,16.113,58.105,0
1507332099.473,29.297,41.504,60.059,33.691,35.645,0
1507332099.477,51.270,38.086,34.180,47.852,3.906,0
1507332099.481,38.574,36.621,33.691,33.691,17.578,0
1507332099.484,41.016,31.738,32.227,36.621,10.254,0
1507332099.488,44.922,16.113,48.828,43.457,0.000,0
1507332099.492,19.043,22.461,49.316,27.832,16.602,0
1507332099.496,29.297,41.504,45.410,35.645,37.109,0
1507332099.500,61.523,41.504,49.805,75.195,30.273,0
1507332099.504,42.969,45.898,28.809,50.293,34.180,0
1507332099.508,57.129,41.504,14.648,35.645,69.336,0
1507332099.512,62.500,33.691,42.969,42.969,53.223,0
1507332099.516,45.410,42.480,67.383,36.133,46.875,0
1507332099.520,33.203,40.039,63.477,38.086,57.129,0
1507332099.523,32.227,30.762,59.082,49.316,42.480,0
1507332099.527,30.273,40.039,45.898,40.039,61.523,0
1507332099.531,19.043,42.480,29.297,23.926,37.109,0
1507332099.535,17.090,35.156,1.465,17.578,17.090,0
1507332099.539,28.320,35.156,21.484,34.668,31.250,0
1507332099.543,41.504,42.480,58.594,52.246,31.250,0
1507332099.547,60.059,43.457,29.297,50.781,13.184,0
1507332099.551,25.391,43.457,41.992,20.996,28.320,0
1507332099.555,8.789,32.715,38.086,13.184,72.266,0
1507332099.559,29.785,42.480,18.066,33.691,44.922,0
1507332099.563,29.297,52.246,69.824,45.410,19.531,0
1507332099.566,31.738,30.273,94.727,48.828,14.648,0
1507332099.570,50.293,27.832,55.176,58.594,23.926,0
1507332099.574,63.477,36.621,29.785,58.594,50.781,0
1507332099.578,45.410,43.457,41.016,45.898,57.617,0
1507332099.582,50.781,41.992,65.430,53.223,46.875,0
1507332099.586,57.617,43.945,42.480,57.129,19.531,0
1507332099.590,50.781,57.617,5.371,42.969,8.301,0
1507332099.594,37.598,41.504,29.297,24.902,11.230,0
1507332099.598,17.090,32.227,41.016,38.086,31.250,0
1507332099.602,35.156,43.945,48.340,67.871,49.805,0
1507332099.606,49.805,40.527,45.898,53.711,12.695,0
1507332099.609,41.992,43.945,40.039,47.852,0.977,0
1507332099.613,40.039,38.574,33.691,57.617,34.180,0
1507332099.617,41.504,31.738,39.551,56.641,40.039,0
1507332099.621,41.992,37.109,63.965,33.691,9.766,0
1507332099.625,50.293,37.598,53.223,49.316,16.602,0
1507332099.629,52.734,26.855,51.270,39.062,52.734,0
1507332099.633,52.734,36.621,7.812,17.090,22.461,0
1507332099.637,46.875,27.832,-19.043,55.176,-19.531,0
1507332099.641,24.902,15.625,5.371,60.547,-40.527,0
1507332099.645,24.414,15.625,35.645,33.691,-20.020,0
1507332099.648,34.668,25.391,69.824,44.922,14.160,0
1507332099.652,30.762,49.805,71.289,44.922,8.301,0
1507332099.656,40.039,48.828,39.551,50.293,-0.977,0
1507332099.660,34.668,40.527,51.758,48.828,23.926,0
1507332099.664,43.945,40.039,55.176,32.227,46.387,0
1507332099.668,46.387,41.016,26.367,11.230,41.504,0
1507332099.672,18.066,29.297,21.484,5.859,36.133,0
1507332099.676,22.949,31.738,30.273,20.508,29.785,0
1507332099.680,55.176,49.805,27.832,41.992,9.277,0
1507332099.684,22.949,37.109,57.617,33.691,-9.277,0
1507332099.688,20.996,54.199,50.293,39.551,-2.930,0
1507332099.691,41.504,43.945,33.203,41.016,29.785,0
1507332099.695,46.387,19.531,17.578,51.758,20.020,0
1507332099.699,55.176,24.414,-8.789,39.062,7.812,0
1507332099.703,39.551,22.949,4.883,26.855,4.883,0
1507332099.707,27.832,29.297,47.852,28.809,16.113,0
1507332099.711,32.227,42.480,68.848,30.762,56.641,0
1507332099.715,31.738,51.270,48.340,49.316,46.875,0
1507332099.719,26.367,40.527,26.855,50.293,28.809,0
1507332099.723,33.691,38.574,17.578,41.504,37.109,0
1507332099.727,30.762,30.762,42.969,31.738,37.598,0
1507332099.731,18.066,31.738,57.129,13.184,25.879,0
1507332099.734,24.902,41.016,47.363,14.160,47.852,0
1507332099.738,47.363,18.555,34.180,38.574,58.105,0
1507332099.742,50.781,20.996,43.945,53.223,64.453,0
1507332099.746,45.410,35.156,24.902,28.320,54.688,0
1507332099.750,45.410,49.805,-7.324,4.395,52.734,0
1507332099.754,58.105,34.668,15.137,21.973,54.688,0
1507332099.758,62.500,23.438,43.945,16.602,47.363,0
1507332099.762,69.336,37.109,55.176,41.992,48.340,0
1507332099.766,65.430,38.574,30.762,47.363,21.973,0
1507332099.770,38.574,24.414,12.695,33.691,2.441,0
1507332099.773,45.410,34.668,4.883,48.340,15.137,0
1507332099.777,57.617,50.293,16.113,25.391,1.953,0
1507332099.781,49.805,36.621,55.176,20.996,7.324,0
1507332099.785,30.762,33.691,47.852,26.855,38.086,0
1507332099.789,30.762,41.992,51.270,32.715,30.762,0
1507332099.793,43.945,41.992,42.480,47.852,33.203,0
1507332099.797,26.367,32.715,31.250,27.832,32.227,0
1507332099.801,19.043,19.043,9.277,12.695,24.902,0
1507332099.805,31.738,24.902,24.902,16.113,13.672,0
1507332099.809,41.992,36.133,64.453,23.926,32.227,0
1507332099.813,43.457,21.484,45.410,21.484,40.039,0
1507332099.816,41.016,25.879,47.852,33.203,-8.301,0
1507332099.820,44.922,52.734,51.758,43.457,-16.113,0
1507332099.824,35.156,48.340,31.738,28.320,1.465,0
1507332099.828,23.926,29.785,24.414,19.531,-11.230,0
1507332099.832,29.785,29.785,47.363,22.949,-17.578,0
1507332099.836,9.766,27.832,49.805,10.742,-36.133,0
1507332099.840,19.531,22.461,20.996,33.203,6.836,0
1507332099.844,25.879,31.250,33.691,20.996,34.180,0
1507332099.848,18.066,39.062,30.762,8.789,24.414,0
1507332099.852,26.855,19.043,8.789,24.414,30.762,0
1507332099.856,14.648,22.461,20.020,37.598,35.645,0
1507332099.859,31.738,31.250,-1.953,53.711,9.766,0
1507332099.863,30.762,29.297,0.000,43.945,-22.461,0
1507332099.867,10.742,35.156,45.898,18.555,-1.953,0
1507332099.871,30.273,37.109,70.312,21.973,49.316,0
1507332099.875,46.875,33.203,68.848,67.383,23.926,0
1507332099.879,26.855,40.039,51.270,40.527,13.672,0
1507332099.883,2.930,36.621,42.480,10.742,26.367,0
1507332099.887,25.879,15.137,8.301,47.852,49.805,0
1507332099.891,44.922,26.855,16.602,49.805,52.734,0
1507332099.895,34.180,38.574,38.574,34.180,14.160,0
1507332099.898,19.043,30.273,-8.301,18.066,14.648,0
1507332099.902,39.062,15.137,-41.016,39.551,52.734,0
1507332099.906,50.293,35.645,29.785,54.688,56.152,0
1507332099.910,30.273,39.062,92.285,28.809,43.945,0
1507332099.914,22.461,29.785,96.191,12.207,54.199,0
1507332099.918,4.883,23.926,80.566,15.137,46.875,0
1507332099.922,10.254,9.766,60.059,37.598,-0.488,0
1507332099.926,19.531,24.902,55.176,43.457,-5.371,0
1507332099.930,11.230,20.508,69.824,19.043,50.293,0
1507332099.934,12.695,36.133,42.480,14.648,69.824,0
1507332099.938,30.762,40.039,9.277,35.156,45.898,0
1507332099.941,28.320,41.504,25.391,27.832,22.461,0
1507332099.945,13.672,50.781,26.855,24.414,44.434,0
1507332099.949,33.203,38.574,13.184,32.715,30.762,0
1507332099.953,38.574,27.344,-1.465,32.715,3.906,0
1507332099.957,23.438,9.277,28.809,14.160,7.324,0
1507332099.961,14.160,34.180,43.457,13.672,16.602,0
1507332099.965,14.160,33.691,55.176,21.973,20.020,0
1507332099.969,32.715,27.344,64.941,21.973,15.137,0
1507332099.973,47.852,38.086,46.875,26.855,54.688,0
1507332099.977,37.109,27.832,51.758,36.621,60.059,0
1507332099.981,26.855,27.344,33.691,36.621,37.109,0
1507332099.984,49.805,29.297,2.930,29.297,4.395,0
1507332099.988,28.809,20.996,5.371,13.184,14.648,0
1507332099.992,31.250,26.855,41.504,22.461,32.715,0
1507332099.996,45.898,41.016,52.734,29.785,3.906,0
1507332100.000,14.160,42.480,14.160,14.648,-8.301,0
1507332100.004,14.648,24.902,47.363,30.273,18.555,0
1507332100.008,20.508,41.016,72.754,11.230,62.988,0
1507332100.012,24.902,53.711,20.508,20.508,12.695,0
1507332100.016,27.832,19.043,-17.090,52.246,-15.137,0
1507332100.020,27.344,26.855,26.855,50.781,12.695,0
1507332100.023,26.367,35.645,73.242,32.227,7.324,0
1507332100.027,15.625,47.363,69.824,18.555,19.531,0
1507332100.031,35.156,40.039,63.965,25.879,34.668,0
1507332100.035,48.828,23.926,18.555,36.133,37.109,0
1507332100.039,42.480,29.785,14.160,37.598,23.926,0
1507332100.043,42.969,28.809,43.945,47.363,15.137,0
1507332100.047,39.551,23.926,-7.324,64.941,34.668,0
1507332100.051,36.133,47.852,-14.648,54.199,49.805,0
1507332100.055,26.855,59.082,66.406,35.645,28.809,0
1507332100.059,43.457,33.691,91.797,56.152,-20.020,0
1507332100.063,42.480,20.508,63.965,35.156,-2.930,0
1507332100.066,28.809,20.996,30.762,-1.465,19.043,0
1507332100.070,37.109,44.922,18.066,7.324,-11.719,0
1507332100.074,41.504,46.387,17.578,29.297,-20.020,0
1507332100.078,50.293,38.574,43.457,31.250,16.113,0
1507332100.082,24.414,43.457,47.852,17.090,59.570,0
1507332100.086,13.672,34.180,17.578,28.809,60.059,0
1507332100.090,39.551,36.621,23.926,48.828,15.137,0
1507332100.094,55.176,37.598,52.734,54.688,3.906,0
1507332100.098,45.410,31.250,59.570,45.410,37.109,0
1507332100.102,34.668,40.039,51.758,41.992,8.301,0
1507332100.106,38.574,41.016,42.969,55.176,20.508,0
1507332100.109,27.344,30.762,25.391,46.875,26.367,0
1507332100.113,31.250,37.109,27.344,45.898,20.020,0
1507332100.117,17.090,25.391,39.551,42.969,45.410,0
1507332100.121,16.602,25.391,51.758,35.645,42.480,0
1507332100.125,46.387,33.691,61.523,26.367,42.969,0
1507332100.129,51.758,31.738,55.664,18.555,45.898,0
1507332100.133,33.691,46.387,19.043,10.254,44.922,0
1507332100.137,18.555,60.059,9.277,8.789,66.895,0
1507332100.141,17.090,32.715,45.410,20.996,69.336,0
1507332100.145,25.391,32.715,64.453,29.297,42.480,0
1507332100.148,37.109,33.691,72.754,23.438,47.363,0
1507332100.152,28.809,19.531,62.500,10.254,75.195,0
1507332100.156,54.688,29.785,52.246,45.898,93.750,0
1507332100.160,56.641,29.297,41.992,51.758,88.867,0
1507332100.164,41.016,32.715,36.621,37.598,94.727,0
1507332100.168,41.992,38.574,35.156,51.270,102.539,0
1507332100.172,50.293,24.414,21.973,53.711,94.727,0
1507332100.176,32.227,21.973,12.207,36.621,82.031,0
1507332100.180,17.090,31.738,11.230,28.320,87.402,0
1507332100.184,26.367,25.879,35.156,30.762,99.121,0
1507332100.188,32.715,48.340,27.832,28.809,70.801,0
1507332100.191,43.945,52.246,37.109,25.391,48.828,0
1507332100.195,44.922,31.738,78.125,41.016,66.406,0
1507332100.199,42.480,31.250,55.664,54.199,75.684,0
1507332100.203,45.410,46.387,27.832,61.035,58.594,0
1507332100.207,35.645,55.664,37.109,50.781,56.641,0
1507332100.211,33.691,26.367,68.848,39.551,39.551,0
1507332100.215,29.785,19.531,58.594,30.762,46.387,0
1507332100.219,21.484,23.926,69.824,28.320,53.711,0
1507332100.223,33.691,27.832,62.500,44.922,25.879,0
1507332100.227,25.391,47.852,5.371,39.062,58.594,0
1507332100.231,23.926,53.223,0.000,18.066,82.520,0
1507332100.234,57.617,47.363,23.926,40.039,32.715,0
1507332100.238,47.852,32.227,68.359,55.176,7.324,0
1507332100.242,28.809,41.992,57.617,32.227,14.648,0
1507332100.246,20.020,51.758,27.832,20.508,21.973,0
1507332100.250,20.508,33.203,48.340,29.785,13.672,0
1507332100.254,40.039,23.926,68.359,51.270,0.977,0
1507332100.258,52.246,34.180,41.992,65.430,16.113,0
1507332100.262,51.758,39.062,28.320,46.387,29.785,0
1507332100.266,41.992,49.316,56.641,36.621,37.598,0
1507332100.270,46.387,61.035,60.059,35.156,41.016,0
1507332100.273,48.340,34.180,54.199,43.457,16.602,0
1507332100.277,29.785,42.969,26.855,48.828,3.418,0
1507332100.281,32.715,48.340,0.977,38.086,7.324,0
1507332100.285,39.062,32.715,-12.695,36.621,14.160,0
1507332100.289,19.531,17.578,22.949,11.719,1.953,0
1507332100.293,26.855,29.785,73.242,23.926,0.977,0
1507332100.297,49.805,38.574,82.031,40.039,-12.695,0
1507332100.301,50.293,36.621,77.637,31.738,-49.805,0
1507332100.305,33.203,39.062,51.270,36.621,-15.625,0
1507332100.309,9.277,35.156,-5.859,14.160,9.766,0
1507332100.313,20.020,38.086,21.973,0.977,-28.320,0
1507332100.316,42.969,43.457,57.617,27.344,-1.953,0
1507332100.320,35.156,35.645,46.387,45.410,27.832,0
1507332100.324,8.789,30.762,48.340,16.113,-3.418,0
1507332100.328,33.691,33.203,40.039,20.996,-22.461,0
1507332100.332,55.664,33.691,39.551,26.367,-17.090,0
1507332100.336,39.551,37.598,24.902,20.996,11.719,0
1507332100.340,40.039,39.551,37.598,32.715,-0.488,0
1507332100.344,33.691,39.551,56.152,34.668,-15.625,0
1507332100.348,35.645,36.621,53.711,28.320,-0.977,0
1507332100.352,31.738,38.574,46.875,18.555,18.066,0
1507332100.356,24.902,42.480,22.461,19.531,14.648,0
1507332100.359,20.996,43.457,19.531,31.250,13.184,0
1507332100.363,23.438,26.855,0.977,33.691,25.391,0
1507332100.367,38.574,27.832,24.414,25.879,37.598,0
1507332100.371,33.203,35.645,59.082,24.902,25.391,0
1507332100.375,41.016,32.227,49.805,36.133,13.672,0
1507332100.379,47.363,34.668,46.875,35.645,42.969,0
1507332100.383,40.527,36.621,47.363,33.203,45.410,0
1507332100.387,41.992,23.438,82.031,43.457,-9.277,0
1507332100.391,26.367,30.762,62.500,46.387,-20.996,0
1507332100.395,41.016,64.941,-7.812,62.012,16.602,0
1507332100.398,49.316,52.246,-12.695,52.734,4.395,0
1507332100.402,43.945,30.273,31.250,41.992,-4.395,0
1507332100.406,50.781,20.996,56.152,45.898,7.324,0
1507332100.410,39.551,31.738,34.180,45.410,16.113,0
1507332100.414,25.879,55.176,53.223,46.387,27.832,0
1507332100.418,28.809,35.645,78.125,39.062,37.598,0
1507332100.422,23.438,30.762,49.316,33.203,40.527,0
1507332100.426,20.508,49.316,17.090,34.180,28.809,0
1507332100.430,38.086,38.574,19.043,26.855,6.348,0
1507332100.434,31.738,31.738,37.109,22.949,-26.367,0
1507332100.438,45.410,41.504,62.012,39.062,-13.184,0
1507332100.441,48.828,44.922,65.430,42.969,36.133,0
1507332100.445,43.945,36.133,32.715,39.551,21.973,0
1507332100.449,54.688,38.574,-15.137,62.012,9.277,0
1507332100.453,39.062,52.734,14.648,52.734,14.648,0
1507332100.457,34.668,38.574,70.312,37.109,-30.273,0
1507332100.461,47.363,32.227,51.270,34.180,-25.391,0
1507332100.465,39.551,39.551,22.461,37.109,18.066,0
1507332100.469,29.785,42.480,39.551,36.621,15.137,0
1507332100.473,44.434,39.062,56.152,46.875,24.414,0
1507332100.477,29.297,30.273,43.457,41.992,38.086,0
1507332100.481,21.484,38.574,41.504,20.020,15.137,0
1507332100.484,36.133,45.410,47.363,41.016,13.184,0
1507332100.488,32.227,41.504,55.176,39.062,26.855,0
1507332100.492,39.062,33.203,46.875,26.855,-0.488,0
1507332100.496,19.043,35.156,44.922,18.555,-11.230,0
1507332100.500,14.160,34.180,57.617,12.207,14.648,0
1507332100.504,38.086,32.715,29.297,40.527,34.180,0
1507332100.508,36.621,40.527,31.250,42.480,23.926,0
1507332100.512,49.316,36.133,48.340,40.039,17.578,0
1507332100.516,46.387,28.320,43.457,41.992,3.418,0
1507332100.520,46.387,24.414,4.395,43.945,10.742,0
1507332100.523,52.734,38.086,-8.789,51.758,-2.930,0
1507332100.527,24.414,54.199,28.809,42.480,-15.137,0
1507332100.531,13.184,60.059,54.199,41.992,36.621,0
1507332100.535,27.832,37.109,88.379,36.621,39.551,0
1507332100.539,49.316,30.762,81.055,44.434,-21.484,0
1507332100.543,24.902,27.344,75.684,31.738,-1.953,0
1507332100.547,13.184,18.066,46.387,6.836,26.367,0
1507332100.551,41.016,32.227,35.645,27.832,-33.691,0
1507332100.555,43.457,42.969,44.922,38.574,-28.809,0
1507332100.559,39.551,32.715,66.406,42.969,24.902,0
1507332100.563,42.480,32.227,30.762,45.410,21.973,0
1507332100.566,48.828,46.387,-15.625,35.645,-14.160,0
1507332100.570,45.898,37.109,35.645,36.133,-38.086,0
1507332100.574,41.992,48.340,43.945,46.387,3.906,0
1507332100.578,40.527,41.016,35.645,52.734,35.156,0
1507332100.582,22.461,15.625,62.012,42.480,0.488,0
1507332100.586,27.344,36.621,22.461,46.387,-20.996,0
1507332100.590,36.621,40.527,-17.578,43.945,32.227,0
1507332100.594,33.203,39.062,27.344,28.320,31.738,0
1507332100.598,51.270,48.828,82.031,52.734,14.648,0
1507332100.602,52.734,49.316,73.242,45.410,23.438,0
1507332100.606,43.945,44.434,55.664,30.273,39.062,0
1507332100.609,42.969,30.273,39.551,40.527,37.598,0
1507332100.613,24.902,22.949,19.043,28.809,-7.324,0
1507332100.617,22.461,20.996,49.316,27.832,-6.836,0
1507332100.621,41.992,42.969,69.336,40.039,38.574,0
1507332100.625,32.227,46.875,40.527,42.480,40.527,0
1507332100.629,29.297,32.227,35.645,44.922,40.527,0
1507332100.633,41.016,28.320,52.734,44.434,44.434,0
1507332100.637,38.574,32.715,46.875,44.922,37.598,0
1507332100.641,45.410,42.480,25.879,58.594,24.902,0
1507332100.645,50.293,40.527,16.602,66.895,15.137,0
1507332100.648,47.852,30.762,44.434,59.570,35.645,0
1507332100.652,42.969,37.109,40.039,50.293,54.199,0
1507332100.656,32.715,36.133,31.738,35.645,12.207,0
1507332100.660,22.949,21.973,48.828,36.621,11.719,0
1507332100.664,20.508,31.738,41.992,47.852,29.297,0
1507332100.668,26.855,47.852,53.223,47.852,20.508,0
1507332100.672,23.926,36.133,53.711,20.020,24.414,0
1507332100.676,23.438,26.367,53.711,22.461,28.320,0
1507332100.680,28.809,40.039,58.594,22.949,19.043,0
1507332100.684,48.340,36.621,32.227,22.949,17.578,0
1507332100.688,55.664,34.668,18.066,53.711,30.762,0
1507332100.691,38.086,55.176,15.137,47.363,39.062,0
1507332100.695,39.062,41.016,24.414,40.527,38.086,0
1507332100.699,42.969,24.414,34.180,53.223,31.738,0
1507332100.703,41.016,42.480,27.832,55.176,28.809,0
1507332100.707,17.090,39.062,66.406,24.902,3.906,0
1507332100.711,15.137,37.598,69.824,23.438,8.301,0
1507332100.715,38.086,34.668,65.918,38.086,20.508,0
1507332100.719,37.598,32.715,66.895,38.574,5.371,0
1507332100.723,41.016,37.598,25.391,46.875,19.043,0
1507332100.727,54.688,33.203,50.293,51.270,40.039,0
1507332100.731,41.992,39.551,41.016,45.898,56.641,0
1507332100.734,25.391,48.340,2.930,27.832,41.992,0
1507332100.738,36.621,38.086,12.207,56.152,32.227,0
1507332100.742,27.344,21.973,20.508,58.594,24.414,0
1507332100.746,35.645,29.297,47.852,43.945,0.977,0
1507332100.750,60.547,31.738,89.355,60.547,23.926,0
1507332100.754,46.387,33.203,63.965,43.945,42.480,0
1507332100.758,37.598,40.527,39.062,39.551,50.781,0
1507332100.762,56.152,36.133,55.176,56.641,58.594,0
1507332100.766,47.852,35.645,65.430,50.293,27.344,0
1507332100.770,36.133,42.969,56.641,43.457,26.855,0
1507332100.773,33.691,36.621,51.270,38.086,63.477,0
1507332100.777,26.855,30.273,4.395,53.223,50.781,0
1507332100.781,30.762,37.109,2.441,41.504,32.227,0
1507332100.785,33.691,42.480,37.598,14.160,62.012,0
1507332100.789,35.156,31.250,40.527,37.109,63.965,0
1507332100.793,29.297,18.066,59.570,43.457,47.363,0
1507332100.797,32.715,30.273,23.926,51.270,32.715,0
1507332100.801,38.574,42.969,32.227,61.523,39.551,0
1507332100.805,59.082,35.156,51.270,56.152,51.270,0
1507332100.809,56.641,43.945,61.523,55.176,12.695,0
1507332100.813,49.316,50.293,76.660,50.293,-4.395,0
1507332100.816,59.082,45.898,52.246,49.805,20.508,0
1507332100.820,53.711,41.992,39.062,53.223,22.949,0
1507332100.824,29.785,43.457,20.996,39.551,8.789,0
1507332100.828,13.672,45.898,20.508,27.832,41.992,0
1507332100.832,27.344,43.457,26.367,27.344,54.688,0
1507332100.836,23.926,57.129,-7.812,31.250,10.742,0
1507332100.840,9.766,20.508,22.949,28.809,-25.391,0
1507332100.844,14.648,4.883,62.988,22.461,-8.789,0
1507332100.848,37.109,42.480,56.641,20.020,7.324,0
1507332100.852,34.668,41.992,62.012,19.043,12.207,0
1507332100.856,35.645,33.203,70.801,27.344,-0.488,0
1507332100.859,46.387,46.387,59.082,46.387,-8.301,0
1507332100.863,53.711,55.176,47.363,56.152,-11.230,0
1507332100.867,56.641,43.457,47.363,54.199,17.090,0
1507332100.871,38.086,44.922,15.137,47.852,29.785,0
1507332100.875,32.715,40.039,3.906,44.922,-0.488,0
1507332100.879,42.969,32.715,56.152,52.246,2.441,0
1507332100.883,39.062,30.762,68.359,40.527,19.043,0
1507332100.887,32.715,30.273,66.895,42.480,12.695,0
1507332100.891,35.156,34.668,49.805,34.180,18.066,0
1507332100.895,41.992,41.992,-6.836,26.855,21.973,0
1507332100.898,49.316,42.480,4.883,45.898,3.906,0
1507332100.902,41.504,49.805,47.363,40.039,-11.719,0
1507332100.906,38.574,41.504,35.645,29.297,-1.953,0
1507332100.910,21.973,29.297,51.270,9.766,0.488,0
1507332100.914,11.230,27.832,60.059,4.395,7.812,0
1507332100.918,49.316,32.227,64.941,48.828,15.625,0
1507332100.922,68.848,48.340,76.172,70.801,18.555,0
1507332100.926,59.082,41.992,21.973,78.125,0.488,0
1507332100.930,37.598,40.527,11.230,45.410,-1.465,0
1507332100.934,41.016,43.457,55.664,31.738,24.902,0
1507332100.938,50.781,48.828,59.082,37.598,18.555,0
1507332100.941,51.758,37.598,49.805,39.062,-13.184,0
1507332100.945,40.527,40.527,29.785,21.484,-9.766,0
1507332100.949,41.992,47.852,28.320,17.578,28.320,0
1507332100.953,54.688,41.504,45.410,30.273,9.277,0
1507332100.957,59.570,48.340,54.199,23.438,6.836,0
1507332100.961,46.875,41.992,48.828,6.348,17.578,0
1507332100.965,15.625,43.945,31.250,-7.812,20.020,0
1507332100.969,26.855,34.668,29.297,18.555,24.902,0
1507332100.973,58.594,24.414,25.391,42.480,-11.230,0
1507332100.977,51.758,28.320,37.598,44.434,0.488,0
1507332100.981,54.688,34.668,46.875,55.176,22.461,0
1507332100.984,63.965,44.434,44.434,68.359,1.953,0
1507332100.988,34.668,41.992,61.523,53.223,-7.324,0
1507332100.992,26.367,57.129,59.082,41.016,9.766,0
1507332100.996,68.848,45.410,53.223,49.805,51.270,0
1507332101.000,68.359,35.645,61.035,39.062,59.082,0
1507332101.004,45.410,49.316,45.410,38.086,47.852,0
1507332101.008,39.551,40.039,20.508,50.293,18.555,0
1507332101.012,40.527,41.992,15.625,30.762,18.066,0
1507332101.016,58.594,36.133,21.973,50.293,25.879,0
1507332101.020,34.180,50.293,38.086,30.273,27.832,0
1507332101.023,13.672,43.457,39.551,6.836,22.949,0
1507332101.027,19.043,20.996,14.160,35.645,33.203,0
1507332101.031,35.645,25.391,33.203,60.547,10.742,0
1507332101.035,50.781,30.762,59.082,66.895,-23.926,0
1507332101.039,55.176,43.945,59.082,63.965,13.184,0
1507332101.043,33.691,57.129,65.430,38.086,12.695,0
1507332101.047,16.113,39.062,48.828,19.531,-19.531,0
1507332101.051,32.227,24.902,40.527,41.504,26.367,0
1507332101.055,39.062,53.711,64.453,53.223,43.457,0
1507332101.059,34.668,62.500,49.805,57.617,22.461,0
1507332101.063,40.039,28.809,52.246,59.082,21.484,0
1507332101.066,2.930,49.316,48.340,40.527,39.062,0
1507332101.070,16.113,48.340,29.297,39.062,48.828,0
1507332101.074,48.340,33.691,27.344,55.176,18.555,0
1507332101.078,31.738,46.875,7.812,52.734,18.555,0
1507332101.082,25.879,30.273,-4.883,33.203,-2.930,0
1507332101.086,11.719,28.320,44.922,32.715,2.930,0
1507332101.090,20.020,50.293,72.266,41.504,24.414,0
1507332101.094,34.180,44.434,29.297,42.480,14.160,0
1507332101.098,45.410,26.855,30.273,54.688,36.133,0
1507332101.102,46.387,42.969,43.945,53.711,46.387,0
1507332101.106,36.621,41.016,53.223,42.969,40.039,0
1507332101.109,20.996,35.156,87.891,46.387,46.387,0
1507332101.113,17.090,48.828,75.195,35.156,66.406,0
1507332101.117,24.414,44.922,49.316,26.367,44.434,0
1507332101.121,38.086,39.062,36.133,55.176,17.578,0
1507332101.125,45.410,49.805,6.348,62.012,16.602,0
1507332101.129,46.875,30.273,-5.859,41.504,23.926,0
1507332101.133,36.133,14.160,3.418,49.805,26.855,0
1507332101.137,34.180,36.621,27.344,74.707,24.902,0
1507332101.141,32.227,46.875,54.688,43.945,25.391,0
1507332101.145,18.066,42.969,86.914,-0.488,29.297,0
1507332101.148,21.484,45.410,100.098,10.254,37.109,0
1507332101.152,27.832,38.086,52.734,30.273,51.270,0
1507332101.156,23.926,50.293,15.137,18.066,56.152,0
1507332101.160,54.199,54.199,36.133,53.711,45.410,0
1507332101.164,36.621,32.715,53.223,57.617,46.387,0
1507332101.168,17.090,28.809,62.988,39.062,11.230,0
1507332101.172,35.645,46.387,48.828,42.480,13.184,0
1507332101.176,43.945,52.734,-21.484,42.480,30.273,0
1507332101.180,32.715,28.320,-14.648,24.414,35.645,0
1507332101.184,21.484,26.367,66.406,21.973,4.395,0
1507332101.188,46.875,41.016,65.430,48.828,3.906,0
1507332101.191,32.715,62.500,51.270,30.762,45.410,0
1507332101.195,17.578,48.828,39.062,27.344,38.574,0
1507332101.199,31.250,16.113,29.297,35.645,23.438,0
1507332101.203,30.762,30.762,45.410,30.273,13.672,0
1507332101.207,24.902,38.086,51.270,36.621,23.926,0
1507332101.211,32.227,28.320,52.734,37.598,50.781,0
1507332101.215,20.996,31.738,50.293,19.531,39.551,0
1507332101.219,32.715,32.227,52.246,33.203,24.902,0
1507332101.223,35.645,42.480,41.992,42.480,39.062,0
1507332101.227,37.598,48.828,2.441,31.738,16.113,0
1507332101.231,45.898,45.410,13.184,47.363,32.715,0
1507332101.234,33.691,37.598,38.574,45.410,41.504,0
1507332101.238,44.922,30.273,63.477,37.109,29.785,0
1507332101.242,46.387,30.273,61.035,25.391,22.949,0
1507332101.246,26.855,48.828,3.418,18.066,16.602,0
1507332101.250,25.391,40.039,5.371,34.180,56.152,0
1507332101.254,25.391,38.574,54.688,31.738,42.480,0
1507332101.258,38.086,44.922,49.805,40.039,0.977,0
1507332101.262,54.688,32.227,36.621,47.363,21.484,0
1507332101.266,31.738,46.875,65.918,28.320,67.871,0
1507332101.270,29.297,51.270,44.434,38.574,31.738,0
1507332101.273,52.734,45.410,14.160,63.477,-35.645,0
1507332101.277,42.969,49.805,33.203,40.527,-0.977,0
1507332101.281,21.484,48.828,56.641,14.160,46.875,0
1507332101.285,15.137,28.809,41.016,19.531,38.574,0
1507332101.289,35.645,34.668,24.414,41.992,28.809,0
1507332101.293,25.391,35.645,52.246,28.809,14.648,0
1507332101.297,11.719,43.945,63.477,13.184,20.020,0
1507332101.301,45.410,47.363,55.176,33.691,19.531,0
1507332101.305,37.109,34.180,39.551,21.484,23.926,0
1507332101.309,30.273,36.133,29.297,32.715,39.551,0
1507332101.313,45.410,48.828,32.715,40.527,31.738,0
1507332101.316,56.641,62.988,35.156,41.504,13.672,0
1507332101.320,58.594,41.504,29.785,57.129,6.836,0
1507332101.324,40.039,45.898,15.625,50.781,35.645,0
1507332101.328,26.855,43.945,50.293,37.598,50.781,0
1507332101.332,28.809,38.574,31.738,34.668,24.902,0
1507332101.336,37.109,41.504,-19.043,42.969,17.090,0
1507332101.340,33.691,34.668,23.438,31.250,52.734,0
1507332101.344,38.574,30.762,85.449,3.906,55.664,0
1507332101.348,51.270,44.434,65.918,32.227,48.828,0
1507332101.352,24.902,63.965,62.500,43.457,44.922,0
1507332101.356,20.020,41.504,70.801,28.320,25.391,0
1507332101.359,31.738,23.438,2.930,38.086,27.344,0
1507332101.363,53.223,53.223,-31.738,62.012,21.484,0
1507332101.367,42.480,60.059,12.207,30.762,22.949,0
1507332101.371,32.715,41.016,68.359,27.344,44.434,0
1507332101.375,56.152,46.387,70.312,54.688,39.551,0
1507332101.379,39.062,51.270,56.152,35.645,17.090,0
1507332101.383,29.297,44.922,62.988,29.297,38.574,0
1507332101.387,55.664,57.617,34.180,44.434,42.969,0
1507332101.391,51.270,37.109,38.574,40.527,31.738,0
1507332101.395,22.949,34.180,71.777,33.203,40.527,0
1507332101.398,32.227,53.223,42.969,36.621,34.180,0
1507332101.402,51.758,41.016,19.531,38.574,27.832,0
1507332101.406,44.922,32.715,26.367,31.738,31.250,0
1507332101.410,37.598,38.086,-1.953,25.879,45.898,0
1507332101.414,34.668,43.945,24.414,37.109,37.598,0
1507332101.418,25.879,46.875,60.059,37.598,41.016,0
1507332101.422,25.391,40.527,27.832,18.555,43.457,0
1507332101.426,38.574,49.805,41.504,20.508,37.598,0
1507332101.430,37.109,48.828,67.383,23.926,33.203,0
1507332101.434,39.062,37.109,70.312,29.785,29.297,0
1507332101.438,41.504,47.852,54.199,35.645,34.668,0
1507332101.441,32.715,39.062,58.105,13.672,35.645,0
1507332101.445,34.668,29.785,38.574,31.250,49.316,0
1507332101.449,37.598,45.410,-14.160,38.086,43.945,0
1507332101.453,44.434,57.617,-32.715,36.133,38.086,0
1507332101.457,22.949,74.707,3.418,22.949,34.180,0
1507332101.461,16.113,38.086,53.711,14.648,34.668,0
1507332101.465,26.855,27.832,47.852,22.949,28.320,0
1507332101.469,39.062,53.223,46.875,28.320,-1.953,0
1507332101.473,37.109,50.293,52.734,36.133,7.324,0
1507332101.477,44.434,42.969,43.457,39.062,61.523,0
1507332101.481,53.711,42.969,48.828,30.762,44.434,0
1507332101.484,40.527,38.086,57.617,39.551,18.066,0
1507332101.488,34.668,33.203,51.270,49.316,40.039,0
1507332101.492,32.227,37.109,31.738,32.715,61.035,0
1507332101.496,30.762,41.992,50.293,21.484,33.691,0
1507332101.500,38.086,41.992,31.250,46.387,31.738,0
1507332101.504,39.062,44.922,20.996,57.617,11.230,0
1507332101.508,30.273,48.340,42.969,32.227,19.531,0
1507332101.512,47.852,45.410,29.785,41.992,37.598,0
1507332101.516,55.176,57.617,16.602,61.035,-2.441,0
1507332101.520,29.785,52.246,50.293,34.180,19.043,0
1507332101.523,43.945,37.598,41.504,40.039,45.898,0
1507332101.527,39.062,33.203,9.766,46.387,39.551,0
1507332101.531,22.461,48.340,26.855,41.992,25.391,0
1507332101.535,37.109,58.105,54.688,41.504,34.180,0
1507332101.539,46.387,34.668,101.074,18.555,44.434,0
1507332101.543,49.805,40.039,61.523,43.457,28.809,0
1507332101.547,45.410,37.109,3.418,62.500,34.180,0
1507332101.551,35.156,40.527,31.738,41.504,43.457,0
1507332101.555,50.781,49.316,71.289,45.898,43.457,0
1507332101.559,55.176,43.945,45.410,55.176,13.672,0
1507332101.563,39.551,37.598,30.273,45.410,18.555,0
1507332101.566,46.875,39.062,26.367,48.828,64.941,0
1507332101.570,41.504,36.621,37.109,41.016,57.617,0
1507332101.574,38.574,37.109,56.641,22.461,26.367,0
1507332101.578,40.527,43.457,33.691,44.434,30.762,0
1507332101.582,38.574,46.387,41.992,49.316,41.504,0
1507332101.586,30.762,53.223,75.684,26.367,21.973,0
1507332101.590,44.922,47.363,43.945,32.227,4.883,0
1507332101.594,53.223,45.410,17.578,32.227,-11.719,0
1507332101.598,37.109,51.270,36.621,20.508,16.113,0
1507332101.602,39.062,44.434,23.438,49.316,2.441,0
1507332101.606,43.945,37.109,4.395,56.641,-10.254,0
1507332101.609,50.781,42.969,27.832,37.109,30.762,0
1507332101.613,56.152,55.176,63.477,47.363,31.738,0
1507332101.617,43.945,41.504,71.289,36.621,31.738,0
1507332101.621,47.852,44.922,46.387,37.109,18.066,0
1507332101.625,52.246,54.199,43.945,34.668,17.090,0
1507332101.629,41.992,47.852,58.594,21.484,36.133,0
1507332101.633,36.133,40.527,46.387,30.273,15.625,0
1507332101.637,37.109,40.527,46.387,32.715,7.812,0
1507332101.641,37.109,49.316,36.133,40.039,9.766,0
1507332101.645,29.297,41.504,33.691,57.617,7.812,0
1507332101.648,35.156,41.992,42.969,61.035,5.371,0
1507332101.652,62.500,52.246,13.672,67.871,31.250,0
1507332101.656,50.781,55.176,1.465,41.016,53.711,0
1507332101.660,48.340,55.664,14.648,36.133,1.953,0
1507332101.664,56.641,54.199,32.715,57.617,0.977,0
1507332101.668,34.668,59.570,67.871,43.457,37.109,0
1507332101.672,35.645,46.875,69.824,47.363,58.594,0
1507332101.676,42.969,48.340,42.480,46.875,42.480,0
1507332101.680,42.969,50.781,19.531,47.363,35.156,0
1507332101.684,43.457,36.133,33.203,50.293,44.434,0
1507332101.688,54.199,40.527,56.152,50.781,23.438,0
1507332101.691,50.293,50.781,49.805,37.598,4.395,0
1507332101.695,31.250,47.363,50.293,22.461,1.465,0
1507332101.699,45.410,32.715,25.391,43.945,25.391,0
1507332101.703,55.664,39.062,-11.719,55.664,39.062,0
1507332101.707,27.344,40.039,50.293,34.668,32.715,0
1507332101.711,25.391,36.621,101.562,35.156,43.457,0
1507332101.715,39.062,49.805,82.520,42.480,39.062,0
1507332101.719,33.691,54.199,43.945,40.039,19.043,0
1507332101.723,31.738,49.805,12.207,39.062,30.273,0
1507332101.727,34.180,40.039,14.648,28.320,30.762,0
1507332101.731,41.504,33.691,39.062,41.992,40.527,0
1507332101.734,41.016,39.551,39.062,49.316,41.016,0
1507332101.738,44.922,43.945,17.578,53.223,12.695,0
1507332101.742,34.180,37.598,45.410,42.969,11.230,0
1507332101.746,39.062,36.133,75.195,37.109,59.570,0
1507332101.750,39.062,41.992,61.523,37.598,41.016,0
1507332101.754,30.762,36.133,35.645,22.949,20.508,0
1507332101.758,34.668,45.898,19.043,29.785,24.902,0
1507332101.762,28.320,59.082,46.875,29.297,16.602,0
1507332101.766,34.668,40.527,63.477,32.227,33.691,0
1507332101.770,41.016,33.691,52.246,44.922,31.250,0
1507332101.773,44.434,49.805,44.434,38.574,22.949,0
1507332101.777,37.109,40.527,38.574,20.020,25.391,0
1507332101.781,41.504,35.645,56.152,42.480,0.488,0
1507332101.785,51.270,46.875,68.359,51.758,10.254,0
1507332101.789,54.199,40.039,59.570,32.227,49.805,0
1507332101.793,65.918,41.016,8.789,50.781,55.664,0
1507332101.797,71.289,59.082,-53.223,73.242,20.020,0
1507332101.801,55.664,54.688,-0.977,52.734,29.297,0
1507332101.805,51.758,45.410,81.055,43.945,44.434,0
1507332101.809,52.734,42.480,96.680,44.434,20.996,0
1507332101.813,55.664,49.316,66.406,31.738,29.297,0
1507332101.816,45.410,56.152,43.457,32.715,25.879,0
1507332101.820,42.480,40.039,62.012,22.949,22.949,0
1507332101.824,61.523,59.082,40.039,37.598,23.438,0
1507332101.828,72.266,71.289,26.367,48.340,1.465,0
1507332101.832,71.777,34.668,70.312,28.809,-31.250,0
1507332101.836,72.754,34.668,26.855,43.457,-19.531,0
1507332101.840,68.848,44.434,8.301,59.082,0.488,0
1507332101.844,51.270,48.340,25.391,43.457,-29.297,0
1507332101.848,58.105,45.410,35.645,44.922,-18.066,0
1507332101.852,65.918,28.320,62.500,40.039,16.602,0
1507332101.856,67.383,42.969,70.312,32.715,16.113,0
1507332101.859,53.223,64.941,51.270,35.156,43.945,0
1507332101.863,39.551,41.504,40.527,43.457,72.754,0
1507332101.867,41.504,28.809,12.695,27.344,47.852,0
1507332101.871,54.688,38.086,-4.883,30.762,33.203,0
1507332101.875,63.965,40.527,57.129,54.199,23.438,0
1507332101.879,37.598,36.621,78.613,30.273,54.199,0
1507332101.883,42.969,42.480,48.340,32.715,52.734,0
1507332101.887,60.547,55.664,27.344,48.828,9.766,0
1507332101.891,59.570,46.875,58.594,47.852,2.441,0
1507332101.895,56.152,47.363,61.523,43.945,21.973,0
1507332101.898,54.688,48.340,26.855,48.828,47.363,0
1507332101.902,55.176,39.062,-4.395,52.734,15.625,0
1507332101.906,47.363,38.574,-20.996,42.480,12.695,0
1507332101.910,52.246,44.434,2.930,63.965,25.391,0
1507332101.914,35.156,54.688,51.758,56.152,19.043,0
1507332101.918,17.578,40.527,109.375,25.391,26.855,0
1507332101.922,26.855,42.480,88.379,30.762,39.551,0
1507332101.926,42.480,56.641,45.410,49.805,51.758,0
1507332101.930,37.598,45.410,36.133,43.457,26.367,0
1507332101.934,37.598,45.410,27.832,48.340,4.883,0
1507332101.938,41.016,46.875,28.809,65.430,29.785,0
1507332101.941,51.270,49.316,17.090,72.754,34.668,0
1507332101.945,45.898,42.480,54.199,48.828,48.828,0
1507332101.949,41.992,41.016,56.641,39.062,21.973,0
1507332101.953,45.410,45.410,20.508,55.664,1.465,0
1507332101.957,26.367,43.945,29.297,35.645,47.363,0
1507332101.961,40.527,45.410,28.320,48.828,31.250,0
1507332101.965,46.387,42.480,33.203,60.059,36.621,0
1507332101.969,41.016,42.969,17.578,49.316,23.438,0
1507332101.973,46.875,49.805,-20.020,51.758,2.930,0
1507332101.977,44.922,52.734,-0.488,58.105,10.742,0
1507332101.981,37.109,46.387,51.270,43.457,3.906,0
1507332101.984,30.273,39.062,89.355,24.902,-3.906,0
1507332101.988,29.297,35.156,44.922,41.016,13.672,0
1507332101.992,38.574,38.574,-8.301,42.480,21.484,0
1507332101.996,42.480,37.598,11.719,33.691,27.344,0
1507332102.000,32.227,53.223,42.969,33.203,40.039,0
1507332102.004,36.621,58.105,70.801,34.180,11.719,0
1507332102.008,57.129,37.598,57.617,48.340,-5.859,0
1507332102.012,50.293,36.133,46.875,52.246,-0.977,0
1507332102.016,36.133,44.922,54.688,35.645,26.855,0
1507332102.020,35.645,36.133,35.156,33.691,27.832,0
1507332102.023,41.992,36.621,15.137,50.293,0.488,0
1507332102.027,47.363,48.828,33.691,45.410,-7.812,0
1507332102.031,39.062,45.410,57.129,34.668,18.555,0
1507332102.035,31.250,44.434,50.293,39.551,14.648,0
1507332102.039,41.992,46.875,25.879,43.457,9.277,0
1507332102.043,41.992,45.410,28.809,38.574,20.508,0
1507332102.047,37.109,41.016,20.508,33.691,23.926,0
1507332102.051,32.227,40.527,20.020,31.250,16.602,0
1507332102.055,28.320,47.363,-16.602,37.598,16.113,0
1507332102.059,30.273,35.156,7.812,29.297,38.574,0
1507332102.063,21.484,25.391,77.637,19.531,41.992,0
1507332102.066,24.902,41.504,54.688,34.180,16.113,0
1507332102.070,39.551,44.922,48.340,37.109,-8.789,0
1507332102.074,55.664,46.875,14.648,37.598,34.180,0
1507332102.078,57.129,43.945,15.137,43.457,43.457,0
1507332102.082,50.293,22.461,49.805,38.086,20.508,0
1507332102.086,44.434,27.832,54.688,43.945,29.785,0
1507332102.090,38.574,41.016,39.062,31.250,51.758,0
1507332102.094,45.898,46.875,19.531,39.062,21.484,0
1507332102.098,38.574,44.922,37.109,41.016,15.137,0
1507332102.102,33.691,39.551,8.789,32.715,38.574,0
1507332102.106,36.133,41.504,16.602,46.387,49.316,0
1507332102.109,41.504,49.805,40.527,48.828,28.809,0
1507332102.113,47.363,50.293,43.457,49.805,-5.371,0
1507332102.117,34.180,34.668,64.453,38.086,38.086,0
1507332102.121,29.785,33.691,52.734,35.156,46.875,0
1507332102.125,47.852,49.805,50.781,41.992,15.625,0
1507332102.129,50.293,54.688,51.758,34.180,16.113,0
1507332102.133,45.410,49.805,29.785,42.969,5.371,0
1507332102.137,45.410,41.016,18.555,53.223,23.926,0
1507332102.141,51.270,43.945,14.160,49.805,28.320,0
1507332102.145,48.340,50.293,21.973,36.621,7.324,0
1507332102.148,42.969,46.875,41.992,39.062,29.785,0
1507332102.152,41.016,43.945,49.805,46.875,40.527,0
1507332102.156,20.996,34.180,69.336,17.090,15.625,0
1507332102.160,27.832,42.969,67.383,26.367,41.992,0
1507332102.164,38.086,60.547,15.625,37.109,36.621,0
1507332102.168,23.926,63.965,7.324,17.090,32.715,0
1507332102.172,27.344,50.293,40.039,17.090,23.438,0
1507332102.176,32.715,30.273,59.570,7.812,23.926,0
1507332102.180,44.434,60.059,17.578,25.879,49.805,0
1507332102.184,64.941,52.734,7.812,56.152,38.574,0
1507332102.188,51.758,23.926,49.316,48.828,40.039,0
1507332102.191,42.969,39.551,36.621,37.109,33.203,0
1507332102.195,43.945,44.922,34.180,39.062,39.062,0
1507332102.199,40.527,42.969,55.176,33.691,41.992,0
1507332102.203,39.551,46.387,49.316,32.715,10.254,0
1507332102.207,43.457,48.828,27.344,46.875,9.766,0
1507332102.211,62.988,42.480,16.602,61.035,41.992,0
1507332102.215,45.898,43.945,40.527,47.363,40.039,0
1507332102.219,31.738,42.480,60.547,27.344,19.043,0
1507332102.223,29.785,31.250,73.242,12.207,36.621,0
1507332102.227,27.832,31.738,51.758,18.066,40.527,0
1507332102.231,42.969,41.504,27.832,27.344,18.555,0
1507332102.234,25.391,41.016,27.832,20.020,29.297,0
1507332102.238,39.062,35.156,16.602,37.598,36.621,0
1507332102.242,46.387,39.551,26.367,49.316,53.223,0
1507332102.246,51.758,45.410,41.992,62.988,53.711,0
1507332102.250,55.664,37.598,54.688,51.758,20.508,0
1507332102.254,60.547,47.363,50.781,46.875,29.297,0
1507332102.258,60.547,48.828,39.551,39.062,13.184,0
1507332102.262,48.828,43.457,41.992,34.668,-22.461,0
1507332102.266,56.152,54.199,12.207,54.199,-3.906,0
1507332102.270,53.711,50.293,14.648,39.062,29.297,0
1507332102.273,36.621,49.316,58.105,26.367,24.414,0
1507332102.277,28.809,47.363,76.172,29.297,15.137,0
1507332102.281,35.156,31.250,64.941,30.762,12.207,0
1507332102.285,32.715,27.832,41.504,26.855,41.016,0
1507332102.289,31.250,31.250,48.340,25.391,45.898,0
1507332102.293,31.738,43.457,19.043,33.691,32.227,0
1507332102.297,27.832,55.664,7.812,20.508,30.762,0
1507332102.301,47.363,47.852,41.992,38.086,27.832,0
1507332102.305,38.574,38.574,48.340,40.039,24.414,0
1507332102.309,30.273,43.945,44.434,33.691,3.906,0
1507332102.313,48.340,49.805,54.688,40.039,19.043,0
1507332102.316,41.504,47.363,58.105,37.109,32.227,0
1507332102.320,52.246,47.852,41.504,50.781,17.578,0
1507332102.324,62.012,38.574,46.875,48.340,-0.488,0
1507332102.328,43.945,33.203,34.668,26.367,13.184,0
1507332102.332,48.828,44.922,0.000,32.227,41.992,0
1507332102.336,46.387,38.574,47.852,39.551,34.180,0
1507332102.340,37.109,33.203,70.312,43.457,27.832,0
1507332102.344,53.711,40.039,46.875,62.012,40.527,0
1507332102.348,51.758,49.316,46.875,57.617,53.711,0
1507332102.352,29.785,46.875,25.879,38.574,33.691,0
1507332102.356,30.762,58.105,4.883,41.504,-7.812,0
1507332102.359,47.852,61.035,20.508,41.504,18.066,0
1507332102.363,46.875,41.016,45.898,34.668,57.617,0
1507332102.367,39.551,25.391,74.707,18.555,42.480,0
1507332102.371,47.852,26.367,70.801,24.414,48.340,0
1507332102.375,32.715,44.434,55.664,33.691,48.340,0
1507332102.379,23.438,43.457,41.504,29.297,45.410,0
1507332102.383,51.270,43.945,18.555,47.852,41.992,0
1507332102.387,42.480,48.340,32.715,49.316,26.367,0
1507332102.391,43.457,61.035,15.625,51.270,18.066,0
1507332102.395,55.664,48.828,14.648,50.293,25.391,0
1507332102.398,47.852,33.691,42.480,47.852,-9.277,0
1507332102.402,50.293,34.180,48.340,40.527,-6.836,0
1507332102.406,44.434,42.969,55.176,31.250,60.547,0
1507332102.410,45.410,39.062,58.105,43.945,35.645,0
1507332102.414,58.594,42.480,44.434,63.965,22.461,0
1507332102.418,57.129,48.828,38.086,58.105,39.551,0
1507332102.422,45.898,43.945,49.316,53.223,28.809,0
1507332102.426,42.480,45.410,54.688,57.617,25.391,0
1507332102.430,47.852,45.410,11.230,43.945,44.922,0
1507332102.434,51.270,51.758,-7.812,30.762,50.293,0
1507332102.438,41.016,51.758,13.672,25.879,36.621,0
1507332102.441,37.598,43.457,33.691,26.367,39.551,0
1507332102.445,54.199,41.992,60.059,48.828,8.301,0
1507332102.449,55.664,47.852,64.453,48.828,31.738,0
1507332102.453,45.898,42.969,72.754,45.898,61.035,0
1507332102.457,50.293,40.527,58.594,42.480,33.691,0
1507332102.461,48.828,43.457,20.996,39.551,23.926,0
1507332102.465,41.016,55.176,9.277,42.480,32.715,0
1507332102.469,41.504,48.340,43.457,31.250,39.062,0
1507332102.473,37.109,39.551,51.758,43.945,52.246,0
1507332102.477,49.805,46.387,40.039,42.480,35.156,0
1507332102.481,57.617,46.387,25.391,49.805,15.137,0
1507332102.484,43.457,44.434,33.691,50.293,14.160,0
1507332102.488,41.016,56.641,39.551,41.992,14.160,0
1507332102.492,58.105,42.969,45.898,52.734,16.113,0
1507332102.496,46.387,31.738,56.641,39.062,24.902,0
1507332102.500,42.480,35.645,28.320,30.273,-2.930,0
1507332102.504,54.199,42.480,25.879,41.016,8.301,0
1507332102.508,44.922,52.734,40.527,47.363,32.715,0
1507332102.512,38.574,47.363,45.410,47.852,27.344,0
1507332102.516,38.574,43.457,65.430,32.227,33.691,0
1507332102.520,49.316,42.480,42.480,38.574,24.414,0
1507332102.523,54.199,41.992,31.738,54.688,22.461,0
1507332102.527,47.852,46.875,21.973,31.738,19.531,0
1507332102.531,47.363,43.457,35.645,38.574,12.695,0
1507332102.535,36.133,44.922,60.547,30.273,16.602,0
1507332102.539,52.246,52.734,-3.418,41.504,3.418,0
1507332102.543,53.711,46.387,3.418,46.387,28.320,0
1507332102.547,31.738,38.086,45.898,37.598,31.738,0
1507332102.551,41.016,41.016,42.969,48.828,19.043,0
1507332102.555,46.387,52.734,42.480,48.340,32.227,0
1507332102.559,44.434,46.387,18.555,43.457,28.320,0
1507332102.563,47.363,40.527,41.504,38.086,53.711,0
1507332102.566,49.316,44.434,75.195,53.711,49.316,0
1507332102.570,62.500,55.176,26.367,67.871,30.273,0
1507332102.574,64.453,49.805,13.672,43.945,19.043,0
1507332102.578,63.965,33.203,51.270,46.387,12.695,0
1507332102.582,52.246,44.922,60.547,50.293,29.785,0
1507332102.586,47.363,43.457,53.711,53.223,55.176,0
1507332102.590,43.945,41.016,42.480,42.480,32.715,0
1507332102.594,49.805,51.270,48.340,31.250,11.719,0
1507332102.598,35.156,49.316,65.918,34.180,26.367,0
1507332102.602,34.668,44.434,49.316,33.203,53.711,0
1507332102.606,63.965,31.738,18.555,60.547,47.363,0
1507332102.609,47.852,39.062,9.766,43.457,-6.348,0
1507332102.613,41.992,48.828,23.438,35.645,22.461,0
1507332102.617,54.199,46.387,28.809,55.664,44.434,0
1507332102.621,45.410,50.781,43.945,42.969,14.160,0
1507332102.625,42.480,41.992,56.641,44.434,12.695,0
1507332102.629,37.598,42.969,67.871,33.203,30.762,0
1507332102.633,37.598,41.992,68.359,25.391,54.688,0
1507332102.637,38.574,51.758,18.066,20.996,17.090,0
1507332102.641,46.387,54.688,21.484,38.574,-13.672,0
1507332102.645,46.387,37.109,44.434,56.152,17.090,0
1507332102.648,36.133,41.992,26.855,43.457,35.645,0
1507332102.652,40.039,39.062,65.918,40.527,24.902,0
1507332102.656,21.484,33.203,79.102,31.738,12.695,0
1507332102.660,32.227,30.762,49.316,38.574,16.113,0
1507332102.664,39.551,49.316,46.875,34.668,19.531,0
1507332102.668,38.086,58.594,40.527,20.020,22.461,0
1507332102.672,44.434,37.598,1.953,30.762,23.438,0
1507332102.676,41.992,39.551,-8.789,42.480,1.953,0
1507332102.680,38.574,28.320,82.520,24.902,-2.930,0
1507332102.684,36.621,42.480,73.242,27.344,1.465,0
1507332102.688,51.758,62.500,23.926,55.664,3.906,0
1507332102.691,61.523,37.109,66.406,53.711,22.949,0
1507332102.695,62.500,34.180,60.059,46.875,18.555,0
1507332102.699,37.598,38.086,48.828,47.363,10.254,0
1507332102.703,27.832,33.691,47.363,50.293,36.133,0
1507332102.707,42.969,38.574,20.020,61.035,43.457,0
1507332102.711,34.180,45.898,31.250,50.293,19.043,0
1507332102.715,26.855,51.270,51.270,40.039,28.320,0
1507332102.719,38.574,46.875,38.086,39.551,39.062,0
1507332102.723,55.176,52.246,34.668,45.410,7.324,0
1507332102.727,64.941,45.410,71.289,50.293,-10.254,0
1507332102.731,53.711,33.691,47.852,46.875,21.973,0
1507332102.734,46.875,69.824,25.879,53.223,68.848,0
1507332102.738,53.223,62.012,57.129,60.059,69.336,0
1507332102.742,59.570,34.180,47.852,50.781,10.742,0
1507332102.746,45.898,50.781,28.320,40.039,19.043,0
1507332102.750,47.852,42.969,26.367,40.527,62.500,0
1507332102.754,42.480,33.203,40.527,24.902,32.227,0
1507332102.758,52.734,41.992,45.898,47.363,27.832,0
1507332102.762,51.758,42.480,39.062,62.500,19.043,0
1507332102.766,39.551,37.109,52.246,41.504,9.277,0
1507332102.770,41.992,38.086,50.781,40.039,2.930,0
1507332102.773,28.809,38.086,41.016,27.832,-6.348,0
1507332102.777,40.039,43.457,30.762,44.434,17.090,0
1507332102.781,47.363,45.410,43.457,66.895,37.109,0
1507332102.785,40.039,46.875,38.086,50.781,38.086,0
1507332102.789,47.363,54.688,-8.301,32.227,48.340,0
1507332102.793,53.711,43.945,22.461,26.855,53.223,0
1507332102.797,42.480,36.133,40.039,24.414,39.062,0
1507332102.801,29.297,46.387,13.184,24.414,17.578,0
1507332102.805,32.227,37.598,48.828,34.180,11.230,0
1507332102.809,39.062,40.527,71.777,35.645,35.156,0
1507332102.813,32.715,45.410,53.223,13.184,46.387,0
1507332102.816,29.785,38.086,63.477,21.973,23.926,0
1507332102.820,35.156,46.387,59.570,36.621,14.160,0
1507332102.824,59.570,48.340,38.574,50.293,43.457,0
1507332102.828,42.480,41.504,59.082,35.156,74.707,0
1507332102.832,27.832,37.598,58.105,18.066,34.668,0
1507332102.836,29.785,41.992,20.996,24.414,17.578,0
1507332102.840,32.227,49.805,-4.395,40.039,35.645,0
1507332102.844,41.504,40.527,11.719,36.621,-2.441,0
1507332102.848,49.805,31.250,49.316,37.109,16.602,0
1507332102.852,39.062,36.133,79.102,45.898,38.574,0
1507332102.856,28.320,40.527,78.125,41.016,31.738,0
1507332102.859,26.367,39.551,47.852,42.969,10.254,0
1507332102.863,24.902,38.574,44.922,32.227,-5.371,0
1507332102.867,30.762,40.527,57.129,26.367,32.715,0
