timestamps,TP9,AF7,AF8,TP10,Right AUX,Marker0
1483718801.453,18.066,38.574,23.438,24.414,14.160,0
1483718801.457,12.207,26.855,10.254,13.672,15.137,0
1483718801.460,20.020,5.371,16.113,12.207,34.668,0
1483718801.464,28.320,28.320,24.902,10.742,35.156,0
1483718801.468,20.508,66.895,29.785,7.324,36.133,0
1483718801.472,25.391,82.031,28.320,27.832,34.668,0
1483718801.476,27.832,83.496,30.762,26.855,54.688,0
1483718801.480,26.367,50.781,30.273,24.902,61.035,0
1483718801.484,30.273,15.137,20.508,28.809,16.113,0
1483718801.488,36.133,47.852,16.113,29.297,2.441,0
1483718801.492,31.250,92.285,10.254,26.855,17.578,0
1483718801.496,33.203,87.402,20.996,26.367,32.715,0
1483718801.500,34.180,79.590,22.949,34.668,28.320,0
1483718801.503,28.320,59.082,15.625,15.137,41.992,0
1483718801.507,38.086,54.199,21.484,14.160,55.664,0
1483718801.511,24.902,58.105,19.531,16.602,33.203,0
1483718801.515,22.949,40.039,22.461,19.043,3.418,0
1483718801.519,37.598,45.898,22.461,20.020,-2.930,0
1483718801.523,37.109,61.523,14.160,21.484,20.996,0
1483718801.527,36.621,71.777,29.297,23.438,39.551,0
1483718801.531,35.156,52.246,42.480,6.348,27.832,0
1483718801.535,31.738,35.156,32.227,4.395,-11.230,0
1483718801.539,30.762,47.852,31.250,18.066,14.160,0
1483718801.543,47.852,43.945,41.504,37.109,80.078,0
1483718801.546,52.246,35.156,50.293,58.594,63.965,0
1483718801.550,50.781,57.129,57.129,47.363,17.578,0
1483718801.554,50.293,58.594,52.734,24.902,30.762,0
1483718801.558,36.133,30.273,42.969,26.855,54.199,0
1483718801.562,39.551,26.855,52.246,45.898,28.320,0
1483718801.566,50.293,43.945,60.059,50.293,15.137,0
1483718801.570,46.387,41.992,45.898,43.457,21.484,0
1483718801.574,46.387,42.969,39.062,34.668,24.414,0
1483718801.578,41.016,32.227,47.363,31.738,2.441,0
1483718801.582,42.969,6.348,43.457,41.992,-2.930,0
1483718801.585,45.410,37.109,38.574,46.875,61.035,0
1483718801.589,37.109,59.570,31.250,41.504,69.336,0
1483718801.593,40.039,52.246,33.203,43.457,44.922,0
1483718801.597,53.223,58.594,38.574,55.176,22.461,0
1483718801.601,62.500,59.082,33.203,63.477,41.504,0
1483718801.605,60.547,28.809,33.691,63.965,50.781,0
1483718801.609,61.035,34.180,35.645,62.012,60.547,0
1483718801.613,62.988,54.199,35.645,57.129,59.082,0
1483718801.617,56.152,52.734,38.086,62.988,27.344,0
1483718801.621,52.246,30.762,37.109,62.988,20.508,0
1483718801.625,62.012,-1.465,36.621,61.523,8.301,0
1483718801.628,68.359,11.230,38.086,60.547,44.922,0
1483718801.632,53.711,33.203,41.992,38.574,48.340,0
1483718801.636,49.805,35.156,41.016,29.785,21.973,0
1483718801.640,55.664,53.223,43.457,53.711,47.852,0
1483718801.644,46.875,83.008,52.734,63.477,62.012,0
1483718801.648,40.527,87.891,39.551,52.246,44.434,0
1483718801.652,41.992,67.383,30.273,48.828,28.809,0
1483718801.656,46.387,40.527,36.133,47.852,33.203,0
1483718801.660,51.270,42.480,39.062,49.805,50.781,0
1483718801.664,47.363,53.711,43.457,41.504,62.988,0
1483718801.668,41.504,51.758,47.852,43.457,9.766,0
1483718801.671,53.711,45.410,54.199,57.129,-8.301,0
1483718801.675,55.176,34.668,53.223,51.270,67.383,0
1483718801.679,37.109,41.016,44.922,41.992,56.152,0
1483718801.683,35.645,34.668,49.805,41.992,0.000,0
1483718801.687,42.969,44.434,57.617,41.992,9.766,0
1483718801.691,45.410,60.059,58.594,52.246,56.152,0
1483718801.695,34.180,62.012,57.617,44.434,46.387,0
1483718801.699,32.715,52.734,53.223,37.109,10.254,0
1483718801.703,37.109,42.969,55.176,35.645,25.391,0
1483718801.707,46.387,51.270,55.176,46.875,52.734,1
1483718801.710,54.199,55.176,48.340,67.383,40.039,0
1483718801.714,37.598,24.414,45.898,47.852,8.301,0
1483718801.718,31.738,15.625,50.781,37.598,-2.930,0
1483718801.722,38.086,51.270,47.363,29.297,32.227,0
1483718801.726,38.574,54.199,35.156,10.742,64.941,0
1483718801.730,40.527,54.688,37.109,13.672,52.734,0
1483718801.734,49.805,64.941,35.645,26.367,37.598,0
1483718801.738,49.316,35.156,44.922,22.949,51.270,0
1483718801.742,41.016,45.898,49.316,25.879,63.477,0
1483718801.746,34.180,70.801,48.340,45.410,52.246,0
1483718801.750,36.133,55.664,48.828,39.551,18.066,0
1483718801.753,42.969,49.316,37.598,23.438,11.230,0
1483718801.757,34.668,11.230,35.156,20.508,17.090,0
1483718801.761,34.668,-6.348,42.969,29.297,26.855,0
1483718801.765,27.832,46.875,42.480,32.227,72.754,0
1483718801.769,19.043,74.707,39.551,32.715,47.363,0
1483718801.773,38.574,38.086,49.316,40.527,18.066,0
1483718801.777,30.762,7.812,46.387,45.898,44.434,0
1483718801.781,14.648,25.879,29.785,41.016,45.410,0
1483718801.785,26.367,44.922,33.691,30.273,24.902,0
1483718801.789,29.297,24.414,41.016,27.344,38.574,0
1483718801.793,25.879,17.578,38.574,29.785,51.270,0
1483718801.796,27.832,54.688,36.621,22.949,19.531,0
1483718801.800,33.203,56.152,42.480,21.973,8.789,0
1483718801.804,36.621,48.340,43.457,25.879,35.156,0
1483718801.808,34.180,64.941,37.109,20.508,60.547,0
1483718801.812,29.297,62.988,39.551,34.180,65.430,0
1483718801.816,27.344,48.340,45.410,51.758,14.160,0
1483718801.820,26.855,40.527,51.270,31.738,-8.789,0
1483718801.824,20.996,35.645,31.738,32.715,50.293,0
1483718801.828,33.691,51.758,22.949,42.969,93.750,0
1483718801.832,39.551,54.199,48.340,44.434,23.438,0
1483718801.835,42.480,28.320,59.570,73.242,-16.602,0
1483718801.839,57.129,28.809,45.898,85.938,30.273,0
1483718801.843,62.012,45.898,40.039,71.289,53.223,0
1483718801.847,47.852,27.344,42.969,58.105,33.203,0
1483718801.851,37.109,8.789,52.246,62.988,-23.438,0
1483718801.855,44.434,8.789,57.129,76.172,22.949,0
1483718801.859,52.246,35.156,57.129,56.641,83.008,0
1483718801.863,50.781,55.664,60.547,54.688,42.480,0
1483718801.867,43.457,42.969,69.824,59.570,-12.207,0
1483718801.871,41.016,42.480,58.105,55.664,21.973,0
1483718801.875,47.852,28.809,48.340,62.988,65.430,0
1483718801.878,47.363,27.344,49.316,57.617,32.227,0
1483718801.882,40.527,38.574,44.922,28.320,28.809,0
1483718801.886,36.133,31.738,50.293,9.766,30.762,0
1483718801.890,52.246,41.016,49.316,37.109,21.484,0
1483718801.894,58.594,50.293,46.387,52.734,33.691,0
1483718801.898,57.617,39.551,49.805,62.012,41.016,0
1483718801.902,56.152,23.926,54.688,53.223,27.344,0
1483718801.906,47.363,21.484,50.293,33.203,2.441,0
1483718801.910,57.617,28.809,51.270,36.133,-1.465,0
1483718801.914,66.895,45.898,49.805,50.293,10.254,0
1483718801.918,54.688,44.434,54.688,55.176,25.391,0
1483718801.921,65.430,-2.441,59.082,58.594,53.223,0
1483718801.925,78.613,27.344,45.410,60.059,47.363,0
1483718801.929,57.617,87.402,38.574,57.617,9.277,0
1483718801.933,41.016,73.730,28.809,42.480,27.344,0
1483718801.937,46.387,47.852,30.762,28.320,50.781,0
1483718801.941,54.199,42.480,42.969,28.320,52.246,0
1483718801.945,52.734,55.664,46.875,50.293,76.172,0
1483718801.949,58.105,54.688,50.293,65.430,57.617,0
1483718801.953,61.523,46.387,50.293,48.340,31.250,0
1483718801.957,53.711,14.648,53.711,42.969,43.457,0
1483718801.960,58.105,19.531,55.176,43.457,64.941,0
1483718801.964,67.383,69.824,56.641,59.082,53.711,0
1483718801.968,51.758,65.430,50.781,51.758,47.852,0
1483718801.972,44.434,32.715,39.062,43.945,72.266,0
1483718801.976,44.922,26.855,45.410,55.176,79.102,0
1483718801.980,48.828,38.086,52.246,45.898,49.805,0
1483718801.984,45.898,56.152,52.246,41.016,7.812,0
1483718801.988,33.691,41.504,42.480,25.391,6.348,0
1483718801.992,21.484,33.203,40.039,25.879,60.547,0
1483718801.996,26.367,54.688,46.875,39.062,47.852,0
1483718802.000,33.691,64.941,53.711,40.527,-11.230,0
1483718802.003,35.156,58.594,48.828,45.410,24.902,0
1483718802.007,33.691,35.645,54.199,41.016,52.246,0
1483718802.011,23.438,12.207,55.176,29.785,31.250,0
1483718802.015,27.832,10.742,40.039,30.273,24.902,0
1483718802.019,39.062,22.949,37.598,18.555,57.617,0
1483718802.023,32.715,32.715,44.922,10.742,90.820,0
1483718802.027,22.949,6.348,42.480,19.531,64.941,0
1483718802.031,27.344,-1.953,47.363,27.832,29.297,0
1483718802.035,36.621,27.832,53.223,49.316,15.625,0
1483718802.039,41.504,16.113,50.781,47.852,27.344,0
1483718802.043,40.527,3.906,52.734,23.438,18.066,0
1483718802.046,39.062,33.203,44.922,9.277,6.348,0
1483718802.050,42.480,49.805,37.109,23.438,34.668,0
1483718802.054,43.945,49.316,43.457,33.691,13.672,0
1483718802.058,36.621,41.992,39.062,10.254,47.852,0
1483718802.062,37.598,53.711,28.320,2.441,85.938,0
1483718802.066,39.062,62.988,31.738,9.766,35.156,0
1483718802.070,34.668,55.176,39.062,0.488,21.973,0
1483718802.074,36.133,49.316,39.062,13.672,41.016,0
1483718802.078,37.598,42.480,31.738,30.273,49.316,0
1483718802.082,36.621,5.859,29.297,22.461,46.875,0
1483718802.085,34.180,5.859,39.551,13.184,18.066,0
1483718802.089,50.293,43.457,34.668,18.066,25.391,0
1483718802.093,54.199,56.152,36.621,6.836,79.102,0
1483718802.097,34.180,53.223,36.621,-1.953,68.848,0
1483718802.101,31.250,47.363,29.297,10.254,50.781,0
1483718802.105,43.945,43.457,30.762,23.926,55.664,0
1483718802.109,45.898,38.086,38.086,11.230,53.223,0
1483718802.113,34.668,23.926,39.062,3.906,52.734,0
1483718802.117,41.504,36.133,36.621,19.043,5.371,0
1483718802.121,46.387,55.664,36.621,34.668,18.555,0
1483718802.125,40.527,6.836,35.645,39.062,61.035,0
1483718802.128,40.527,20.508,28.809,26.367,45.898,0
1483718802.132,47.852,72.266,25.879,33.203,2.930,0
1483718802.136,51.758,65.430,38.086,38.086,-9.766,0
1483718802.140,47.363,93.750,33.691,19.531,33.691,0
1483718802.144,43.457,81.543,26.855,19.531,57.617,0
1483718802.148,42.969,51.270,33.691,20.508,21.973,0
1483718802.152,41.992,47.852,33.691,27.344,0.488,0
1483718802.156,34.668,47.363,30.273,38.574,44.922,0
1483718802.160,38.086,57.617,41.992,41.992,69.336,0
1483718802.164,35.645,41.504,39.062,40.039,18.066,0
1483718802.168,38.086,36.621,30.273,45.898,18.555,0
1483718802.171,35.645,42.480,41.992,46.875,48.340,0
1483718802.175,25.879,12.695,41.504,34.180,23.926,0
1483718802.179,22.949,44.922,27.344,27.832,-4.395,0
1483718802.183,23.926,80.078,25.879,29.785,-11.719,0
1483718802.187,27.832,60.059,28.809,26.855,26.855,0
1483718802.191,26.367,64.941,29.785,13.184,21.484,0
1483718802.195,30.273,76.172,36.133,24.902,-12.207,0
1483718802.199,20.508,45.898,31.250,28.320,25.391,0
1483718802.203,16.602,8.789,24.414,12.695,24.902,0
1483718802.207,15.137,19.043,22.949,12.207,14.648,0
1483718802.210,23.438,29.297,32.227,26.855,39.062,0
1483718802.214,41.016,41.992,31.738,38.574,41.504,0
1483718802.218,21.973,51.758,24.414,29.785,19.043,0
1483718802.222,10.742,44.434,26.367,20.996,3.906,0
1483718802.226,24.902,46.875,33.691,20.020,14.648,0
1483718802.230,28.809,35.156,40.527,31.250,15.625,0
1483718802.234,29.297,47.852,32.227,33.691,14.160,0
1483718802.238,31.738,62.500,31.738,24.414,10.742,0
1483718802.242,29.297,62.500,30.273,28.320,25.879,0
1483718802.246,33.203,42.969,25.391,27.344,34.668,0
1483718802.250,37.109,13.672,27.344,35.156,7.324,0
1483718802.253,40.527,41.504,30.762,43.457,-5.371,0
1483718802.257,43.945,46.875,27.344,41.016,-0.977,0
1483718802.261,41.504,41.992,21.484,38.086,0.977,0
1483718802.265,35.645,52.246,24.902,19.043,-28.320,0
1483718802.269,45.410,60.547,18.555,26.855,-71.289,0
1483718802.273,52.246,54.199,16.602,39.062,-41.016,0
1483718802.277,55.176,48.828,33.203,45.410,-6.836,0
1483718802.281,61.523,65.430,38.086,51.758,-25.879,0
1483718802.285,60.547,56.152,35.645,44.922,-24.902,0
1483718802.289,54.688,35.645,24.902,51.758,-4.395,0
1483718802.293,63.477,59.082,25.879,72.754,25.879,0
1483718802.296,63.965,72.754,34.180,65.918,0.488,0
1483718802.300,57.617,70.312,30.762,58.594,-53.711,0
1483718802.304,70.801,57.129,32.715,61.035,-16.113,0
1483718802.308,69.824,25.879,34.668,46.387,16.602,0
1483718802.312,53.711,24.414,39.551,59.570,-29.297,0
1483718802.316,59.570,37.109,51.758,66.406,-34.668,0
1483718802.320,72.266,20.996,44.922,56.641,-12.695,0
1483718802.324,63.965,22.949,33.691,47.363,-1.465,0
1483718802.328,62.500,38.574,36.133,32.715,-44.434,0
1483718802.332,48.340,37.598,38.086,42.480,-60.547,0
1483718802.335,37.598,45.898,38.086,49.805,5.859,0
1483718802.339,33.691,34.180,41.016,36.621,-1.465,0
1483718802.343,38.574,16.113,41.504,29.297,-33.691,0
1483718802.347,43.945,2.930,42.480,17.578,-19.043,0
1483718802.351,45.410,20.020,45.898,18.555,9.277,0
1483718802.355,57.129,50.781,43.945,35.156,2.930,0
1483718802.359,52.734,41.992,38.086,45.898,-2.930,0
1483718802.363,37.598,29.297,37.598,31.250,-20.996,0
1483718802.367,38.574,13.672,42.969,21.973,-31.738,0
1483718802.371,44.434,31.738,43.457,26.855,-32.227,0
1483718802.375,43.457,59.570,33.203,33.203,-45.898,0
1483718802.378,36.133,55.664,36.133,33.691,-16.602,0
1483718802.382,39.551,42.969,38.574,33.203,-21.484,0
1483718802.386,46.875,49.805,33.203,37.109,-26.855,0
1483718802.390,39.551,47.852,28.809,36.133,-8.789,0
1483718802.394,45.410,61.035,32.227,29.785,12.207,0
1483718802.398,51.758,62.988,36.133,22.949,10.254,0
1483718802.402,35.645,23.926,27.832,22.461,1.953,0
1483718802.406,35.156,35.156,17.578,35.645,20.996,0
1483718802.410,35.645,68.848,23.926,42.969,55.664,0
1483718802.414,32.227,42.480,36.133,32.227,46.875,0
1483718802.418,47.852,14.160,28.809,26.367,-8.789,0
1483718802.421,47.363,26.855,22.461,29.297,9.277,0
1483718802.425,43.945,59.082,30.762,35.156,72.754,0
1483718802.429,30.762,76.172,23.926,28.809,85.449,0
1483718802.433,29.297,62.012,20.996,25.391,57.617,0
1483718802.437,39.551,47.363,24.414,26.367,51.758,0
1483718802.441,32.715,54.199,18.066,26.855,70.312,0
1483718802.445,17.090,73.730,19.531,17.578,65.918,0
1483718802.449,16.602,57.617,17.578,15.625,60.059,0
1483718802.453,30.273,43.457,15.625,32.715,42.480,0
1483718802.457,31.250,35.645,23.926,44.434,57.617,0
1483718802.460,33.691,29.785,24.414,34.180,68.359,0
1483718802.464,38.574,45.898,34.668,43.945,50.293,0
1483718802.468,36.621,50.781,26.855,52.246,68.359,0
1483718802.472,29.785,51.758,16.602,25.879,110.840,0
1483718802.476,30.762,65.430,20.508,30.762,98.145,0
1483718802.480,40.039,85.938,21.973,35.645,65.918,0
1483718802.484,39.551,53.223,22.461,37.598,74.707,0
1483718802.488,26.855,34.180,27.832,45.898,85.938,0
1483718802.492,34.668,64.941,33.203,51.270,121.582,0
1483718802.496,32.715,66.406,27.344,48.340,121.582,0
1483718802.500,25.391,42.969,26.855,33.691,89.844,0
1483718802.503,28.320,30.762,27.832,31.250,94.727,0
1483718802.507,19.531,47.852,19.043,18.555,87.891,0
1483718802.511,16.113,48.828,20.996,-1.465,72.754,0
1483718802.515,23.438,43.457,28.320,10.742,117.188,0
1483718802.519,24.414,33.691,39.062,16.602,121.582,0
1483718802.523,28.320,8.789,38.086,21.484,85.449,0
1483718802.527,31.738,24.414,31.250,37.109,79.590,0
1483718802.531,38.574,68.848,31.738,42.480,96.680,0
1483718802.535,48.340,89.844,30.762,54.199,97.168,0
1483718802.539,37.598,68.359,29.297,45.410,69.336,0
1483718802.543,37.598,65.918,37.598,44.434,80.566,0
1483718802.546,36.621,54.199,46.387,50.293,101.074,0
1483718802.550,25.879,27.832,38.086,58.105,71.777,0
1483718802.554,30.273,23.926,41.992,58.105,47.363,0
1483718802.558,28.809,27.344,40.039,60.547,68.359,0
1483718802.562,23.926,29.785,49.316,51.758,85.449,0
1483718802.566,21.484,29.785,60.059,41.992,55.664,0
1483718802.570,21.484,51.270,45.898,58.105,43.945,0
1483718802.574,24.902,30.273,35.645,73.730,72.754,0
1483718802.578,21.973,20.508,40.039,48.340,46.387,0
1483718802.582,32.715,58.105,55.176,37.109,2.441,0
1483718802.585,54.199,48.828,50.293,53.223,29.297,0
1483718802.589,31.738,7.324,40.039,40.039,44.922,0
1483718802.593,24.902,39.062,35.156,41.504,36.133,0
1483718802.597,42.969,62.988,42.480,57.129,35.645,0
1483718802.601,37.598,55.664,49.805,72.266,38.086,0
1483718802.605,38.086,37.598,41.992,56.152,76.660,0
1483718802.609,37.109,25.391,41.992,37.109,79.102,0
1483718802.613,47.363,54.199,42.480,34.668,37.598,0
1483718802.617,45.410,56.152,46.387,27.832,16.602,0
1483718802.621,31.738,12.207,46.387,32.715,37.109,0
1483718802.625,41.016,-3.418,40.039,48.340,49.316,0
1483718802.628,53.711,20.020,50.781,50.781,35.645,0
1483718802.632,52.734,37.598,43.945,50.293,23.926,0
1483718802.636,56.641,60.059,37.598,51.270,11.719,0
1483718802.640,65.918,71.289,42.969,51.270,24.414,0
1483718802.644,57.129,40.039,33.691,37.109,41.992,0
1483718802.648,63.477,34.668,34.180,45.410,34.668,0
1483718802.652,57.129,40.527,37.598,58.105,39.551,0
1483718802.656,52.246,45.898,34.668,50.293,41.016,0
1483718802.660,60.059,63.965,34.668,44.922,27.344,0
1483718802.664,58.594,47.852,39.551,50.293,20.996,0
1483718802.668,60.059,48.828,46.387,51.758,21.484,0
1483718802.671,76.172,52.734,48.340,64.453,16.602,0
1483718802.675,79.102,56.152,44.434,63.965,16.113,0
1483718802.679,63.965,54.199,39.551,55.176,55.176,0
1483718802.683,59.570,29.785,37.109,58.105,44.922,0
1483718802.687,59.082,42.480,37.598,53.223,6.348,0
1483718802.691,50.293,60.547,37.109,38.086,7.812,0
1483718802.695,52.734,64.453,39.551,43.457,27.344,0
1483718802.699,54.688,57.129,40.527,68.359,10.254,0
1483718802.703,52.734,44.922,43.457,66.895,3.418,0
1483718802.707,59.570,50.293,47.363,63.477,8.789,0
1483718802.710,59.570,65.918,54.688,58.594,42.480,0
1483718802.714,45.410,68.848,56.641,48.828,35.156,0
1483718802.718,48.828,47.852,49.805,57.617,-19.531,0
1483718802.722,47.363,24.902,50.781,52.246,12.207,0
1483718802.726,30.762,6.348,48.340,47.363,67.383,0
1483718802.730,42.969,28.809,45.410,73.730,32.715,0
1483718802.734,49.805,38.086,41.504,79.590,19.043,0
1483718802.738,39.551,12.207,42.969,52.734,17.578,0
1483718802.742,46.387,40.527,51.270,42.969,20.020,0
1483718802.746,45.898,57.129,54.688,60.547,40.527,0
1483718802.750,39.062,35.156,55.664,56.641,-2.441,0
1483718802.753,40.039,44.922,51.758,46.875,-27.344,0
1483718802.757,39.062,64.453,42.969,44.922,1.465,0
1483718802.761,43.945,64.941,41.504,48.340,18.555,0
1483718802.765,47.852,63.477,40.039,53.711,10.742,0
1483718802.769,53.223,53.711,34.668,60.547,44.922,0
1483718802.773,52.246,61.035,41.992,57.129,47.363,0
1483718802.777,44.922,53.223,43.457,39.551,37.598,0
1483718802.781,45.898,37.598,33.203,40.039,14.648,0
1483718802.785,44.922,41.504,35.645,41.504,2.441,0
1483718802.789,47.852,23.438,39.062,41.016,36.133,0
1483718802.793,50.293,-0.977,49.316,41.992,34.668,0
1483718802.796,43.457,38.086,47.363,30.273,-5.859,0
1483718802.800,45.410,41.504,40.527,9.766,6.836,0
1483718802.804,56.152,54.688,59.082,24.414,33.691,0
1483718802.808,43.945,78.613,55.176,44.922,24.902,0
1483718802.812,33.691,70.312,34.180,54.688,34.668,0
1483718802.816,40.527,47.852,33.203,37.598,44.434,0
1483718802.820,36.621,30.273,39.551,23.438,21.484,0
1483718802.824,39.551,66.895,34.180,33.691,9.277,0
1483718802.828,44.434,60.059,29.297,29.785,21.484,0
1483718802.832,40.039,55.664,38.086,38.574,-5.859,0
1483718802.835,36.621,59.082,44.922,41.016,-26.855,0
1483718802.839,51.270,53.711,35.156,41.016,-4.395,0
1483718802.843,60.059,54.199,35.156,48.340,31.738,0
1483718802.847,53.711,57.617,46.875,62.988,39.551,0
1483718802.851,40.039,52.734,41.016,56.152,17.090,0
1483718802.855,29.785,17.578,34.668,43.457,1.953,0
1483718802.859,40.527,23.926,34.668,43.457,31.250,0
1483718802.863,48.828,66.406,36.133,41.016,25.879,0
1483718802.867,37.598,74.219,42.480,32.715,8.789,0
1483718802.871,28.320,53.711,42.480,46.387,16.113,0
1483718802.875,37.109,46.875,50.781,62.012,21.484,0
1483718802.878,35.156,41.016,52.246,49.805,35.156,0
1483718802.882,34.180,26.855,36.621,51.270,-9.766,0
1483718802.886,41.992,51.758,40.039,53.223,-29.297,0
1483718802.890,33.691,62.500,35.156,35.645,32.715,0
1483718802.894,23.926,36.621,23.438,24.414,20.020,0
1483718802.898,13.672,12.695,29.785,25.879,5.371,0
1483718802.902,12.207,19.531,35.156,33.691,21.973,0
1483718802.906,31.738,41.016,43.457,45.410,51.270,0
1483718802.910,33.691,36.621,49.805,41.504,77.148,0
1483718802.914,31.738,34.180,49.805,29.297,32.715,0
1483718802.918,22.949,31.738,49.805,32.227,2.930,0
1483718802.921,20.996,3.906,50.781,44.922,32.227,0
1483718802.925,36.133,18.066,50.781,57.617,20.996,0
1483718802.929,35.156,54.199,45.898,45.898,-6.348,0
1483718802.933,23.926,46.875,37.598,27.344,11.230,0
1483718802.937,23.926,43.945,44.922,26.367,53.223,0
1483718802.941,41.992,26.367,47.363,49.805,54.688,0
1483718802.945,54.199,34.668,52.246,56.641,34.180,0
1483718802.949,49.805,34.180,62.500,39.062,29.297,0
1483718802.953,41.016,22.461,52.246,35.645,13.184,0
1483718802.957,49.316,30.762,34.180,52.734,43.945,0
1483718802.960,48.828,21.973,34.180,47.852,65.430,0
1483718802.964,52.246,43.457,46.387,35.156,39.062,2
1483718802.968,60.547,61.035,55.176,46.875,44.922,0
1483718802.972,62.988,77.148,56.641,54.688,25.879,0
1483718802.976,64.941,76.660,52.734,37.109,-23.438,0
1483718802.980,58.594,52.734,43.945,33.691,-21.484,0
1483718802.984,61.035,47.852,31.250,58.594,5.859,0
1483718802.988,63.477,51.758,35.645,59.570,4.883,0
1483718802.992,65.430,32.227,41.016,55.176,1.953,0
1483718802.996,65.918,28.320,40.039,70.312,26.367,0
1483718803.000,56.641,66.895,45.410,59.082,44.434,0
1483718803.003,53.223,61.523,54.199,48.828,3.418,0
1483718803.007,51.758,39.551,52.734,55.664,20.508,0
1483718803.011,45.410,41.016,41.992,56.641,55.664,0
1483718803.015,37.598,35.156,39.551,39.062,11.719,0
1483718803.019,38.086,49.316,41.016,39.062,9.277,0
1483718803.023,40.039,57.617,46.875,43.457,29.785,0
1483718803.027,34.668,48.828,53.223,48.828,52.246,0
1483718803.031,33.691,44.434,46.387,43.457,30.762,0
1483718803.035,32.715,35.156,45.898,24.902,-35.156,0
1483718803.039,29.297,17.578,50.781,32.227,-33.203,0
1483718803.043,31.250,28.320,45.898,29.785,27.832,0
1483718803.046,25.879,41.992,44.434,17.090,1.953,0
1483718803.050,19.531,40.039,40.527,14.648,-25.391,0
1483718803.054,21.484,39.551,49.316,25.879,9.277,0
1483718803.058,8.301,29.297,54.199,16.113,26.855,0
1483718803.062,2.930,24.902,50.293,8.301,33.203,0
1483718803.066,10.254,34.180,53.223,18.066,31.250,0
1483718803.070,3.906,46.387,46.387,3.418,20.996,0
1483718803.074,3.418,15.625,48.828,1.953,44.922,0
1483718803.078,9.766,-20.508,52.734,11.719,56.641,0
1483718803.082,9.766,2.441,46.387,0.488,27.832,0
1483718803.085,21.484,43.457,45.898,6.348,15.137,0
1483718803.089,22.949,39.062,48.340,2.930,32.715,0
1483718803.093,9.766,25.391,47.363,-12.207,41.992,0
1483718803.097,7.324,25.879,42.480,-4.883,41.016,0
1483718803.101,29.297,47.852,40.527,12.207,24.902,0
1483718803.105,37.109,51.270,43.945,6.836,22.949,0
1483718803.109,18.066,31.250,47.363,3.418,33.203,0
1483718803.113,17.090,47.363,50.293,37.109,13.184,0
1483718803.117,27.344,49.316,57.129,49.316,10.742,0
1483718803.121,33.203,41.016,57.129,34.180,16.602,0
1483718803.125,33.203,56.152,55.664,24.414,0.000,0
1483718803.128,26.855,55.664,54.199,26.855,4.883,0
1483718803.132,29.785,20.508,49.805,27.344,6.348,0
1483718803.136,23.926,5.859,46.875,20.996,-12.207,0
1483718803.140,18.555,21.973,45.898,17.578,17.578,0
1483718803.144,17.578,20.020,45.898,20.996,33.203,0
1483718803.148,19.531,37.598,48.828,25.879,13.672,0
1483718803.152,25.391,38.574,41.016,18.555,40.527,0
1483718803.156,20.508,35.645,33.691,18.066,49.805,0
1483718803.160,20.508,36.621,49.316,31.738,42.480,0
1483718803.164,17.578,31.738,63.965,26.367,41.504,0
1483718803.168,7.324,16.113,60.059,10.254,19.043,0
1483718803.171,15.137,0.977,47.852,16.602,15.625,0
1483718803.175,16.113,38.574,45.898,13.672,61.523,0
1483718803.179,7.812,37.598,43.945,0.488,85.449,0
1483718803.183,20.508,20.996,38.086,12.207,56.152,0
1483718803.187,23.926,44.922,38.086,18.066,35.156,0
1483718803.191,22.461,37.109,59.570,29.297,68.359,0
1483718803.195,31.738,29.785,58.594,41.504,81.543,0
1483718803.199,29.785,43.945,39.062,18.555,52.246,0
1483718803.203,22.949,46.387,47.363,6.836,37.598,0
1483718803.207,24.414,35.645,58.105,30.273,14.648,0
1483718803.210,29.297,19.043,60.059,27.832,2.930,0
1483718803.214,41.992,25.879,46.387,35.645,1.465,0
1483718803.218,41.504,46.387,47.363,58.594,19.043,0
1483718803.222,39.551,47.852,54.688,52.734,64.941,0
1483718803.226,42.480,51.270,53.711,54.199,58.594,0
1483718803.230,36.621,53.223,58.105,52.734,14.160,0
1483718803.234,42.969,46.875,46.387,39.062,13.672,0
1483718803.238,47.852,25.391,39.551,37.109,28.320,0
1483718803.242,35.156,30.762,39.062,27.832,10.254,0
1483718803.246,31.250,44.922,41.504,38.574,15.625,0
1483718803.250,43.945,29.297,48.828,42.480,32.715,0
1483718803.253,51.758,33.203,56.152,41.504,11.719,0
1483718803.257,59.082,49.316,55.176,58.594,-22.461,0
1483718803.261,68.359,60.059,41.992,55.664,-2.930,0
1483718803.265,68.848,56.641,45.898,50.781,16.113,0
1483718803.269,64.941,49.805,45.410,47.852,10.742,0
1483718803.273,57.617,64.453,27.832,45.410,26.855,0
1483718803.277,49.805,47.852,36.621,55.664,32.227,0
1483718803.281,40.039,50.293,43.945,41.504,35.156,0
1483718803.285,43.945,75.684,38.086,37.598,39.551,0
1483718803.289,44.434,62.988,33.691,43.945,47.363,0
1483718803.293,56.641,48.828,36.621,43.945,44.922,0
1483718803.296,69.336,61.523,35.645,38.574,42.969,0
1483718803.300,56.641,65.430,27.832,29.785,15.625,0
1483718803.304,53.223,56.152,31.250,39.551,20.996,0
1483718803.308,61.523,46.387,35.645,44.434,38.574,0
1483718803.312,48.340,37.598,25.391,41.992,33.203,0
1483718803.316,37.598,49.805,29.297,28.809,11.719,0
1483718803.320,52.246,69.824,33.691,26.367,-6.348,0
1483718803.324,52.734,64.941,41.992,38.086,25.391,0
1483718803.328,37.109,44.434,52.734,33.203,26.367,0
1483718803.332,26.367,20.508,48.828,14.160,27.832,0
1483718803.335,40.039,43.457,49.805,20.508,19.043,0
1483718803.339,58.594,58.594,45.410,35.645,14.160,0
1483718803.343,41.992,15.625,36.621,27.832,35.156,0
1483718803.347,24.414,40.039,38.574,27.832,25.879,0
1483718803.351,33.691,81.543,39.551,29.785,-2.441,0
1483718803.355,40.527,73.730,45.898,23.926,36.621,0
1483718803.359,29.297,44.922,47.852,8.789,73.730,0
1483718803.363,28.809,14.648,36.133,26.367,34.668,0
1483718803.367,24.902,47.363,39.062,32.715,3.418,0
1483718803.371,23.438,54.199,47.852,11.719,41.016,0
1483718803.375,42.480,36.133,47.852,24.414,49.316,0
1483718803.378,41.992,46.387,42.480,36.621,31.250,0
1483718803.382,26.855,44.434,35.156,38.574,43.457,0
1483718803.386,20.508,33.691,35.156,35.156,28.320,0
1483718803.390,20.996,14.160,41.016,33.691,31.738,0
1483718803.394,23.438,8.301,41.016,37.598,30.273,0
1483718803.398,37.109,27.344,40.039,24.902,11.230,0
1483718803.402,35.645,39.551,39.062,9.277,22.949,0
1483718803.406,28.320,36.133,39.062,30.762,27.344,0
1483718803.410,38.086,37.598,46.875,41.992,12.207,0
1483718803.414,41.016,33.691,46.875,36.621,18.066,0
1483718803.418,35.156,20.020,37.109,34.180,60.059,0
1483718803.421,25.391,35.156,30.762,18.555,27.832,0
1483718803.425,32.227,42.969,32.227,29.297,24.902,0
1483718803.429,33.691,6.348,34.180,23.438,49.805,0
1483718803.433,16.602,22.461,41.504,15.137,22.949,0
1483718803.437,10.742,66.895,45.898,21.484,18.555,0
1483718803.441,20.996,71.289,48.828,3.906,24.414,0
1483718803.445,30.762,57.129,44.434,9.766,20.508,0
1483718803.449,24.414,53.223,32.227,22.461,-1.465,0
1483718803.453,13.672,53.711,33.691,15.625,7.812,0
1483718803.457,13.672,51.270,36.133,9.766,34.668,0
1483718803.460,17.578,41.016,43.945,11.230,25.879,0
1483718803.464,15.137,20.508,49.805,25.391,-4.395,3
1483718803.468,4.883,27.344,39.551,28.320,-29.785,0
1483718803.472,-0.488,22.949,31.250,0.000,-0.977,0
1483718803.476,9.277,21.484,44.434,-2.930,58.105,0
1483718803.480,14.648,50.293,44.922,19.531,38.574,0
1483718803.484,4.883,46.387,36.621,13.184,0.000,0
1483718803.488,0.977,33.203,36.621,0.488,20.996,0
1483718803.492,3.906,41.504,33.203,2.441,61.035,0
1483718803.496,11.230,47.852,31.250,20.508,37.109,0
1483718803.500,18.066,37.109,33.691,17.578,-20.508,0
1483718803.503,15.137,32.227,36.133,12.695,20.508,0
1483718803.507,15.625,54.688,36.133,29.297,77.637,0
1483718803.511,13.184,62.012,46.875,23.438,56.641,0
1483718803.515,10.254,37.109,40.527,24.414,17.090,0
1483718803.519,24.902,36.621,26.367,30.762,39.062,0
1483718803.523,32.715,43.945,18.555,20.996,54.199,0
1483718803.527,29.785,38.086,27.832,35.156,38.574,0
1483718803.531,35.645,48.340,47.363,53.711,42.480,0
1483718803.535,26.855,48.828,36.621,40.039,19.043,0
1483718803.539,18.066,21.973,25.879,31.738,43.457,0
1483718803.543,27.832,23.926,28.320,34.668,35.156,0
1483718803.546,29.785,38.574,39.062,26.855,-6.836,0
1483718803.550,30.273,45.410,42.969,39.551,21.484,0
1483718803.554,39.062,53.711,34.668,51.758,43.457,0
1483718803.558,32.227,17.578,31.738,41.016,40.527,0
1483718803.562,29.785,9.277,33.203,53.223,60.547,0
1483718803.566,38.086,16.113,43.457,52.734,44.922,0
1483718803.570,40.039,41.992,36.621,39.551,35.156,0
1483718803.574,44.922,75.195,26.367,42.969,45.898,0
1483718803.578,49.316,67.871,37.109,43.457,62.988,0
1483718803.582,43.945,74.219,40.039,48.828,58.594,0
1483718803.585,42.480,66.406,28.809,64.453,20.996,0
1483718803.589,39.062,39.062,20.996,44.922,10.742,0
1483718803.593,45.898,44.434,30.273,30.762,36.133,0
1483718803.597,44.434,50.293,33.691,26.367,57.129,0
1483718803.601,29.785,36.133,26.367,16.602,40.527,0
1483718803.605,24.414,37.109,27.344,19.531,34.668,0
1483718803.609,25.879,49.805,29.785,15.137,62.988,0
1483718803.613,24.414,17.090,18.555,19.531,58.594,0
1483718803.617,20.996,4.395,20.508,16.113,31.250,0
1483718803.621,36.133,26.855,33.691,7.324,20.020,0
1483718803.625,49.316,18.555,35.645,29.785,48.828,0
1483718803.628,35.156,40.527,31.250,36.621,32.227,0
1483718803.632,27.344,66.895,27.832,23.438,-14.160,0
1483718803.636,29.297,63.965,26.855,26.855,20.020,0
1483718803.640,26.367,31.738,31.738,24.414,70.312,0
1483718803.644,30.762,34.668,25.391,28.320,41.504,0
1483718803.648,41.992,63.965,28.320,28.809,-18.066,0
1483718803.652,41.016,60.547,41.992,14.648,6.348,0
1483718803.656,31.738,51.270,26.855,20.508,70.312,0
1483718803.660,43.457,41.016,20.508,33.691,59.570,0
1483718803.664,48.340,45.898,33.203,18.555,4.395,0
1483718803.668,38.086,41.504,24.902,14.160,-2.930,0
1483718803.671,49.805,43.457,22.949,20.508,25.879,0
1483718803.675,42.969,61.035,23.926,19.043,29.785,0
1483718803.679,22.461,48.828,21.484,17.090,25.879,0
1483718803.683,20.020,15.137,20.508,15.137,32.227,0
1483718803.687,18.066,29.785,26.367,18.066,36.621,0
1483718803.691,28.320,69.824,25.391,13.184,39.062,0
1483718803.695,26.367,14.648,18.555,-2.441,28.809,0
1483718803.699,30.273,10.742,27.832,11.230,22.461,0
1483718803.703,34.180,90.820,26.855,20.020,32.227,0
1483718803.707,30.273,86.914,25.879,10.742,25.391,0
1483718803.710,42.969,51.270,33.203,6.348,29.297,0
1483718803.714,39.551,45.898,30.273,2.930,36.133,0
1483718803.718,25.879,53.711,33.203,13.672,42.969,0
1483718803.722,22.461,65.918,27.832,22.461,53.711,0
1483718803.726,30.273,69.824,27.344,38.574,30.762,0
1483718803.730,32.715,42.969,38.086,29.297,0.977,0
1483718803.734,39.551,50.781,38.086,19.043,-19.043,0
1483718803.738,41.992,64.453,34.180,36.133,6.836,0
1483718803.742,29.297,62.012,37.109,25.879,23.438,0
1483718803.746,38.086,58.105,28.809,19.531,5.371,0
1483718803.750,52.734,53.711,25.879,35.645,6.836,0
1483718803.753,51.758,48.340,43.945,35.645,24.902,0
1483718803.757,74.219,44.922,42.480,41.504,35.156,0
1483718803.761,71.777,44.922,33.691,48.828,20.508,0
1483718803.765,44.434,32.715,43.945,30.762,7.812,0
1483718803.769,48.340,59.570,38.086,42.969,-1.465,0
1483718803.773,68.848,92.285,30.762,70.312,10.742,0
1483718803.777,67.871,91.309,39.551,67.871,25.879,0
1483718803.781,50.293,66.895,35.156,66.895,-5.859,0
1483718803.785,59.082,48.340,40.039,64.941,-35.645,0
1483718803.789,71.289,44.922,49.316,59.570,20.020,0
1483718803.793,63.965,44.434,51.270,47.363,44.922,0
1483718803.796,60.547,58.594,47.852,38.086,10.742,0
1483718803.800,58.105,50.781,44.434,53.711,-7.324,0
1483718803.804,63.477,40.527,53.711,71.777,0.977,0
1483718803.808,57.129,60.059,58.594,74.707,22.949,0
1483718803.812,52.246,61.035,43.945,47.363,20.996,0
1483718803.816,52.246,29.297,33.203,37.598,18.066,0
1483718803.820,43.945,40.039,33.203,43.945,21.484,0
1483718803.824,47.852,75.684,53.223,34.668,27.344,0
1483718803.828,45.898,44.922,54.688,24.902,2.930,0
1483718803.832,38.086,24.902,37.109,27.344,-9.766,0
1483718803.835,42.480,46.387,39.551,42.480,15.137,0
1483718803.839,44.922,54.199,49.805,48.828,10.742,0
1483718803.843,32.227,56.641,51.758,21.484,18.555,0
1483718803.847,39.551,41.016,49.316,22.461,11.230,0
1483718803.851,45.410,30.762,42.969,33.691,21.973,0
1483718803.855,28.809,37.109,42.480,45.898,33.203,0
1483718803.859,36.133,50.293,39.551,48.828,24.414,0
1483718803.863,47.363,49.805,36.133,36.621,15.137,0
1483718803.867,49.316,61.523,35.156,41.016,22.949,0
1483718803.871,49.805,82.520,35.156,33.691,42.969,0
1483718803.875,53.711,62.988,35.645,37.109,35.645,0
1483718803.878,53.223,61.523,35.156,35.156,42.480,0
1483718803.882,43.945,60.059,42.969,41.504,20.508,0
1483718803.886,59.082,33.691,46.387,51.758,-4.883,0
1483718803.890,69.336,46.387,43.945,56.152,27.344,0
1483718803.894,56.152,29.297,41.504,37.109,49.805,0
1483718803.898,54.199,54.199,39.062,33.203,17.090,0
1483718803.902,65.430,90.820,45.410,52.734,-9.277,0
1483718803.906,62.500,84.473,41.016,48.828,43.945,0
1483718803.910,60.547,84.961,35.156,33.691,73.730,0
1483718803.914,68.359,83.496,34.668,24.902,30.273,0
1483718803.918,62.012,73.242,39.062,24.414,-2.930,0
1483718803.921,52.734,60.059,41.992,21.973,9.766,0
1483718803.925,62.012,41.504,43.945,38.574,67.383,0
1483718803.929,57.617,30.762,44.434,56.641,60.547,0
1483718803.933,41.504,47.852,43.457,40.039,22.949,0
1483718803.937,41.016,27.832,43.945,41.016,28.809,0
1483718803.941,38.574,38.086,34.668,42.480,56.641,0
1483718803.945,34.668,77.148,39.062,35.156,41.504,0
1483718803.949,33.203,55.664,42.969,31.250,7.812,0
1483718803.953,24.414,29.785,40.527,17.578,29.785,0
1483718803.957,29.785,42.480,39.551,39.062,41.504,0
1483718803.960,40.527,40.527,39.551,55.176,23.926,0
1483718803.964,32.715,55.664,47.852,49.805,-1.465,0
1483718803.968,22.461,74.219,42.480,52.246,0.488,4
1483718803.972,30.762,38.086,35.645,44.434,30.273,0
1483718803.976,31.250,33.691,45.410,33.691,11.230,0
1483718803.980,34.180,41.016,40.039,39.551,-6.836,0
1483718803.984,50.781,23.438,28.809,44.922,24.414,0
1483718803.988,35.645,15.137,26.855,45.410,35.156,0
1483718803.992,33.691,26.855,39.551,58.105,31.738,0
1483718803.996,35.645,48.828,49.316,53.223,49.805,0
1483718804.000,34.180,45.410,49.805,57.129,33.691,0
1483718804.003,45.410,42.969,41.016,62.012,8.301,0
1483718804.007,35.645,52.246,37.598,41.504,21.484,0
1483718804.011,38.086,38.086,42.969,52.734,14.648,0
1483718804.015,41.992,38.574,32.227,52.734,37.598,0
1483718804.019,36.133,52.734,22.949,53.223,12.207,0
1483718804.023,41.992,66.406,26.855,60.547,-13.184,0
1483718804.027,60.547,82.520,42.969,67.871,26.367,0
1483718804.031,62.500,74.219,59.082,78.613,20.020,0
1483718804.035,60.547,56.641,58.105,75.684,0.977,0
1483718804.039,58.594,54.688,47.363,68.359,10.742,0
1483718804.043,47.852,29.785,35.645,55.664,51.758,0
1483718804.046,52.734,20.996,24.414,49.316,52.246,0
1483718804.050,51.758,60.547,19.531,48.828,43.945,0
1483718804.054,41.504,85.938,24.414,43.945,35.156,0
1483718804.058,54.688,87.891,30.762,45.898,50.781,0
1483718804.062,69.336,98.633,38.574,50.293,55.176,0
1483718804.066,59.082,69.824,43.457,53.223,1.953,0
1483718804.070,39.551,62.012,43.457,47.363,-3.906,0
1483718804.074,42.480,68.359,38.574,48.340,35.156,0
1483718804.078,46.875,50.293,41.504,43.945,66.406,0
1483718804.082,46.387,58.105,57.129,48.340,53.223,0
1483718804.085,62.012,67.383,59.082,71.289,21.973,0
1483718804.089,63.477,51.270,48.828,64.941,41.504,0
1483718804.093,67.871,49.805,52.246,63.965,62.012,0
1483718804.097,63.477,49.316,41.504,63.965,8.789,0
1483718804.101,47.363,36.133,35.156,52.734,-3.906,0
1483718804.105,52.246,14.160,43.457,59.570,57.617,0
1483718804.109,51.270,6.836,43.457,60.059,83.496,0
1483718804.113,34.180,57.129,35.156,54.199,38.086,0
1483718804.117,31.250,54.688,39.551,42.480,1.465,0
1483718804.121,41.992,47.852,52.734,35.645,42.480,0
1483718804.125,45.898,82.520,54.688,44.922,62.988,0
1483718804.128,47.852,77.148,42.480,58.594,43.457,0
1483718804.132,38.086,45.898,44.434,36.133,38.086,0
1483718804.136,38.574,47.852,49.316,28.809,14.648,0
1483718804.140,48.340,43.457,44.434,55.664,20.508,0
1483718804.144,42.480,32.227,40.527,41.992,41.504,0
1483718804.148,35.156,40.527,40.527,19.531,25.391,0
1483718804.152,40.039,44.922,31.250,19.531,25.391,0
1483718804.156,49.316,50.293,33.691,19.531,37.598,0
1483718804.160,54.688,41.016,46.875,11.719,28.320,0
1483718804.164,34.180,21.973,33.691,4.883,28.809,0
1483718804.168,26.367,38.574,20.020,22.949,30.762,0
1483718804.171,24.902,35.645,26.855,27.832,32.715,0
1483718804.175,23.926,10.742,39.062,23.926,15.625,0
1483718804.179,35.156,50.293,41.992,16.602,7.324,0
1483718804.183,44.922,68.359,32.227,18.066,36.621,0
1483718804.187,49.316,55.176,38.574,10.742,28.809,0
1483718804.191,52.734,62.988,43.945,11.719,37.109,0
1483718804.195,51.270,44.434,22.949,19.531,62.012,0
1483718804.199,35.645,44.922,13.184,23.438,40.039,0
1483718804.203,21.484,57.617,20.508,14.648,-0.977,0
1483718804.207,22.461,54.688,19.531,2.930,-4.883,0
1483718804.210,27.344,47.852,25.391,20.020,61.035,0
1483718804.214,36.621,26.855,29.785,23.926,54.688,0
1483718804.218,27.344,27.832,19.531,27.832,17.578,0
1483718804.222,24.414,49.316,31.738,46.387,48.828,0
1483718804.226,34.180,61.035,46.387,39.551,68.359,0
1483718804.230,27.832,34.180,39.062,19.531,43.457,0
1483718804.234,31.250,25.391,29.785,25.391,6.836,0
1483718804.238,37.109,30.762,27.832,41.016,-31.738,0
1483718804.242,27.832,30.762,27.344,49.805,14.648,0
1483718804.246,17.578,54.688,27.344,36.133,44.922,0
1483718804.250,20.996,43.457,37.598,38.574,-7.324,0
1483718804.253,25.391,25.391,43.945,33.691,-1.465,0
1483718804.257,31.738,42.480,29.297,46.387,51.758,0
1483718804.261,31.738,60.547,27.344,62.988,38.086,0
1483718804.265,41.992,51.758,37.109,59.570,-3.906,0
1483718804.269,38.086,45.410,35.156,64.941,29.297,0
1483718804.273,24.902,30.273,34.180,66.895,41.504,0
1483718804.277,30.762,20.508,42.969,70.801,14.160,0
1483718804.281,32.227,40.039,35.645,73.730,5.371,0
1483718804.285,31.738,51.270,26.367,56.152,4.883,0
1483718804.289,44.922,70.312,36.133,43.457,38.086,0
1483718804.293,41.016,72.754,35.645,54.199,22.461,0
1483718804.296,31.250,52.734,37.598,60.059,10.742,0
1483718804.300,24.902,41.504,36.133,41.992,44.922,0
1483718804.304,22.949,41.504,28.809,42.969,23.926,0
1483718804.308,33.203,26.367,31.738,49.316,30.762,0
1483718804.312,39.062,10.742,36.133,52.246,48.340,0
1483718804.316,37.109,41.992,40.527,54.199,7.324,0
1483718804.320,28.320,51.270,42.969,41.016,19.043,0
1483718804.324,38.574,18.066,46.875,36.621,45.410,0
1483718804.328,39.551,31.738,36.621,30.273,56.641,0
1483718804.332,33.691,65.430,24.902,47.363,47.852,0
1483718804.335,38.574,70.801,40.527,58.594,22.949,0
1483718804.339,42.969,45.410,37.598,48.340,25.391,0
1483718804.343,37.109,37.598,27.832,43.457,15.625,0
1483718804.347,33.203,48.828,39.551,23.438,24.414,0
1483718804.351,42.969,46.387,35.645,32.227,15.625,0
1483718804.355,54.199,41.504,27.344,58.105,0.488,0
1483718804.359,61.523,37.598,30.762,49.805,34.668,0
1483718804.363,51.758,38.574,32.715,36.133,44.434,0
1483718804.367,43.945,53.223,27.344,54.688,18.555,0
1483718804.371,48.340,64.941,33.691,69.336,-12.695,0
1483718804.375,51.270,50.781,34.668,65.918,15.625,0
1483718804.378,60.547,44.434,33.203,42.480,20.508,0
1483718804.382,49.805,47.852,38.086,15.625,7.812,0
1483718804.386,44.922,61.035,27.344,36.621,35.156,0
1483718804.390,53.223,58.594,25.879,56.152,46.387,0
1483718804.394,50.293,37.598,27.344,42.480,61.523,0
1483718804.398,52.734,37.598,25.879,48.828,13.672,0
1483718804.402,58.594,21.484,37.109,61.523,-9.766,0
1483718804.406,57.129,42.969,36.133,70.801,57.129,0
1483718804.410,53.711,64.941,32.227,74.219,49.805,0
1483718804.414,51.758,31.738,36.133,55.176,22.949,0
1483718804.418,51.758,39.062,42.480,39.062,31.250,0
1483718804.421,46.387,60.059,42.480,42.969,67.383,0
1483718804.425,47.852,59.570,33.691,46.387,69.824,0
1483718804.429,51.270,48.828,34.180,49.316,39.062,0
1483718804.433,41.992,33.203,38.086,61.523,15.625,0
1483718804.437,34.180,38.086,34.668,50.293,25.391,0
1483718804.441,41.992,44.922,31.738,44.922,49.805,0
1483718804.445,43.945,41.504,38.086,57.617,56.152,0
1483718804.449,31.738,53.223,50.293,50.293,77.148,0
1483718804.453,28.809,48.828,47.363,31.250,67.383,0
1483718804.457,31.250,38.574,40.527,25.391,31.250,0
1483718804.460,35.645,42.480,41.504,44.922,41.016,0
1483718804.464,30.762,34.180,41.992,60.547,68.359,0
1483718804.468,26.855,45.410,46.875,56.641,46.875,5
1483718804.472,30.273,40.039,49.805,51.270,13.672,0
1483718804.476,27.832,21.484,55.176,51.758,-4.883,0
1483718804.480,28.809,30.762,50.781,44.922,2.930,0
1483718804.484,32.227,38.574,43.945,40.039,12.695,0
1483718804.488,42.969,52.734,51.270,46.387,-19.043,0
1483718804.492,32.227,45.410,52.734,36.621,17.578,0
1483718804.496,24.414,30.273,49.805,34.668,60.059,0
1483718804.500,41.504,41.504,55.176,40.527,36.621,0
1483718804.503,33.691,28.320,46.387,25.879,36.621,0
1483718804.507,22.461,-2.930,36.621,22.949,57.129,0
1483718804.511,18.555,14.648,39.062,27.344,61.523,0
1483718804.515,22.461,21.973,38.086,53.711,50.781,0
1483718804.519,36.133,27.344,40.039,64.941,39.551,0
1483718804.523,45.410,62.500,38.086,47.852,33.691,0
1483718804.527,38.574,65.430,40.039,44.922,40.039,0
1483718804.531,41.992,60.059,40.039,53.711,-0.488,0
1483718804.535,54.688,33.203,44.434,55.176,-42.969,0
1483718804.539,58.105,20.508,45.898,55.664,1.465,0
1483718804.543,46.387,47.363,44.922,41.504,71.289,0
1483718804.546,42.480,46.387,56.152,46.875,57.129,0
1483718804.550,45.898,40.527,46.875,48.828,2.441,0
1483718804.554,35.156,47.852,35.156,48.828,14.648,0
1483718804.558,35.156,50.293,45.410,61.523,75.684,0
1483718804.562,41.504,34.180,46.387,48.828,51.758,0
1483718804.566,47.363,39.551,43.945,52.246,-1.465,0
1483718804.570,50.293,50.293,55.176,62.012,-3.906,0
1483718804.574,39.062,32.227,53.223,64.453,29.297,0
1483718804.578,26.855,28.320,41.504,52.734,46.875,0
1483718804.582,30.762,47.852,43.457,49.316,32.715,0
1483718804.585,34.668,57.617,60.059,32.715,17.578,0
1483718804.589,40.527,54.199,62.988,40.039,35.156,0
1483718804.593,51.270,47.363,47.363,57.617,21.973,0
1483718804.597,38.574,38.086,42.480,37.109,21.973,0
1483718804.601,39.551,36.621,49.316,35.645,53.711,0
1483718804.605,41.504,37.598,49.316,37.109,41.016,0
1483718804.609,28.809,39.551,37.598,32.227,34.668,0
1483718804.613,38.574,37.109,29.785,24.902,38.086,0
1483718804.617,38.086,40.527,30.762,14.160,23.438,0
1483718804.621,33.203,37.109,29.785,19.531,9.277,0
1483718804.625,32.715,49.805,43.945,35.645,16.602,0
1483718804.628,23.926,52.246,42.480,30.762,61.523,0
1483718804.632,29.297,63.965,41.016,25.879,59.082,0
1483718804.636,35.156,75.684,73.242,40.039,23.926,0
1483718804.640,36.133,62.988,67.383,47.363,39.551,0
1483718804.644,30.762,46.387,43.457,47.363,59.570,0
1483718804.648,30.762,20.996,44.922,48.340,38.086,0
1483718804.652,27.344,18.555,38.574,58.594,15.137,0
1483718804.656,27.344,29.297,41.504,50.781,46.875,0
1483718804.660,23.438,37.109,47.852,42.969,61.523,0
1483718804.664,26.367,59.082,42.969,38.086,16.113,0
1483718804.668,40.039,65.918,54.688,42.969,-7.324,0
1483718804.671,37.109,32.715,60.547,50.781,4.395,0
1483718804.675,44.434,46.387,57.617,50.781,41.992,0
1483718804.679,48.828,66.406,57.617,52.734,59.570,0
1483718804.683,30.762,40.039,56.152,49.805,47.363,0
1483718804.687,20.020,-3.418,55.664,45.898,26.367,0
1483718804.691,34.668,7.324,54.199,44.434,25.391,0
1483718804.695,41.504,40.527,50.293,40.039,14.160,0
1483718804.699,46.387,52.246,50.293,48.340,-1.953,0
1483718804.703,52.246,48.828,48.828,51.270,5.371,0
1483718804.707,43.457,49.316,46.875,40.527,11.719,0
1483718804.710,52.734,61.523,53.711,42.969,1.465,0
1483718804.714,64.453,56.152,44.922,48.340,-30.273,0
1483718804.718,55.176,61.523,35.156,54.688,-4.395,0
1483718804.722,52.734,46.875,43.457,57.129,24.414,0
1483718804.726,58.594,25.879,40.527,39.062,18.555,0
1483718804.730,55.176,38.086,34.668,37.109,19.531,0
1483718804.734,55.664,44.434,25.879,38.574,10.742,0
1483718804.738,61.035,33.691,20.508,25.391,4.883,0
1483718804.742,59.082,32.715,30.273,33.691,7.324,0
1483718804.746,69.824,64.453,34.180,51.758,3.418,0
1483718804.750,72.754,71.289,34.180,50.781,-10.254,0
1483718804.753,69.336,58.105,28.320,40.527,-24.414,0
1483718804.757,66.895,53.223,30.273,39.062,-20.508,0
1483718804.761,56.152,56.152,27.344,33.691,-21.484,0
1483718804.765,55.176,51.270,24.414,34.668,-30.273,0
1483718804.769,58.105,44.922,26.855,31.250,-10.254,0
1483718804.773,56.152,63.477,28.809,27.344,-5.859,0
1483718804.777,57.617,83.984,38.086,50.293,-7.324,0
1483718804.781,69.824,74.707,40.039,61.035,-8.301,0
1483718804.785,70.312,55.664,36.621,53.223,-22.461,0
1483718804.789,59.570,57.617,45.410,53.711,-2.441,0
1483718804.793,56.152,55.664,50.781,62.012,29.297,0
1483718804.796,57.129,54.199,34.668,61.523,33.691,0
1483718804.800,61.523,56.152,40.527,67.871,4.883,0
1483718804.804,66.406,46.387,53.223,66.406,-7.812,0
1483718804.808,51.758,18.066,43.945,50.293,6.348,0
1483718804.812,41.992,13.184,41.016,29.297,-8.301,0
1483718804.816,45.410,44.434,41.992,25.391,-22.461,0
1483718804.820,47.363,52.734,50.293,38.086,0.977,0
1483718804.824,48.340,34.180,53.711,43.457,46.387,0
1483718804.828,51.270,33.203,52.246,36.621,54.688,0
1483718804.832,54.688,47.363,53.223,44.922,5.371,0
1483718804.835,49.316,42.480,35.645,57.129,12.207,0
1483718804.839,50.781,29.297,30.762,51.270,78.613,0
1483718804.843,49.805,43.457,29.297,37.109,52.246,0
1483718804.847,56.641,65.918,32.227,42.480,21.484,0
1483718804.851,62.500,76.172,46.875,45.410,30.762,0
1483718804.855,61.523,58.105,40.527,45.410,40.039,0
1483718804.859,64.941,41.016,25.391,40.527,52.734,0
1483718804.863,47.363,34.668,29.785,34.668,42.969,0
1483718804.867,46.387,22.949,34.668,45.410,43.945,0
1483718804.871,54.688,37.598,22.949,54.199,60.059,0
1483718804.875,50.293,58.594,21.973,44.922,85.938,0
1483718804.878,43.945,55.664,24.414,14.648,106.934,0
1483718804.882,37.598,25.391,10.254,7.812,75.684,0
1483718804.886,41.504,33.203,5.371,18.555,58.105,0
1483718804.890,41.016,51.270,18.555,28.809,53.223,0
1483718804.894,41.016,37.598,27.832,28.320,28.809,0
1483718804.898,43.457,37.109,26.855,12.207,38.574,0
1483718804.902,37.109,34.668,26.855,18.066,63.477,0
1483718804.906,27.832,30.762,30.762,12.207,48.340,0
1483718804.910,19.531,31.250,17.578,-20.508,20.020,0
1483718804.914,20.996,31.250,3.418,-21.973,54.688,0
1483718804.918,20.020,41.504,22.949,-7.324,55.176,0
1483718804.921,20.508,45.898,37.598,-16.113,48.340,0
1483718804.925,22.461,31.738,20.020,-1.953,70.801,0
1483718804.929,19.043,37.598,11.719,12.695,73.242,0
1483718804.933,17.090,34.180,17.578,-2.441,65.918,0
1483718804.937,12.207,27.344,25.879,0.977,66.406,0
1483718804.941,6.836,49.316,22.461,8.789,39.062,0
1483718804.945,11.719,62.012,16.602,3.906,33.691,0
1483718804.949,12.207,30.762,17.578,-6.836,49.805,0
1483718804.953,13.672,2.930,25.391,0.000,12.695,0
1483718804.957,16.602,24.414,26.367,6.348,14.160,0
1483718804.960,23.438,36.133,17.090,4.395,51.270,0
1483718804.964,24.902,29.297,23.926,8.789,50.293,0
1483718804.968,14.648,25.391,35.156,16.602,30.273,0
1483718804.972,18.066,35.156,34.668,21.484,34.668,0
1483718804.976,20.996,38.574,36.133,30.273,52.734,0
1483718804.980,13.184,29.785,35.156,30.762,44.922,0
1483718804.984,11.719,41.504,37.109,29.297,25.391,0
1483718804.988,6.836,27.344,44.434,33.203,41.992,0
1483718804.992,6.836,31.738,30.762,29.785,71.777,0
1483718804.996,20.996,69.336,31.250,27.832,60.059,0
1483718805.000,24.902,56.641,41.992,20.996,18.555,0
1483718805.003,26.367,40.527,41.992,35.645,9.277,0
1483718805.007,26.367,55.664,39.062,51.270,55.176,0
1483718805.011,21.973,53.223,35.156,41.504,53.711,0
1483718805.015,30.762,31.738,32.715,37.109,30.273,0
1483718805.019,40.527,31.250,30.762,46.387,53.223,0
1483718805.023,39.062,41.016,26.367,41.504,82.520,0
1483718805.027,37.109,64.453,25.391,33.203,80.078,0
1483718805.031,41.504,64.453,31.738,37.109,44.922,0
1483718805.035,54.199,40.527,29.785,44.434,39.551,0
1483718805.039,53.223,46.875,31.250,39.062,36.133,0
1483718805.043,50.293,61.035,40.039,42.969,14.160,0
1483718805.046,54.199,54.688,39.062,45.898,12.695,0
1483718805.050,47.852,44.434,32.715,39.551,48.828,0
1483718805.054,41.992,10.742,25.879,32.715,83.008,0
1483718805.058,47.852,1.465,24.414,33.691,71.777,0
1483718805.062,61.523,49.316,29.297,37.109,42.480,0
1483718805.066,63.965,63.477,29.785,27.344,63.965,0
1483718805.070,67.871,41.504,26.367,41.016,49.805,0
1483718805.074,65.430,58.105,27.344,50.781,27.832,0
1483718805.078,52.246,69.824,25.879,43.945,51.270,0
1483718805.082,57.129,66.895,27.832,52.734,45.898,0
1483718805.085,68.359,96.191,33.203,58.594,-3.418,0
1483718805.089,69.336,98.145,30.762,54.688,-10.742,0
1483718805.093,64.453,85.938,22.949,55.664,50.781,0
1483718805.097,68.359,74.707,32.227,54.199,75.195,0
1483718805.101,59.570,47.852,34.668,50.293,52.734,0
1483718805.105,49.316,32.227,26.367,48.340,55.664,0
1483718805.109,56.152,40.527,37.109,39.551,55.176,0
1483718805.113,60.059,39.551,44.922,41.016,43.457,0
1483718805.117,62.012,41.016,34.668,45.410,20.996,0
1483718805.121,65.918,63.477,35.156,40.039,1.953,0
1483718805.125,74.707,66.895,37.109,44.434,29.297,0
1483718805.128,64.941,49.805,38.086,61.523,13.184,0
1483718805.132,46.387,30.762,36.621,61.035,3.418,0
1483718805.136,41.016,21.973,30.762,36.621,46.387,0
1483718805.140,50.293,39.551,41.992,38.574,57.617,0
1483718805.144,48.828,52.246,40.039,50.781,66.406,0
1483718805.148,47.363,27.344,37.109,33.203,1.465,0
1483718805.152,49.316,31.738,40.039,41.504,-32.715,0
1483718805.156,41.992,46.387,34.668,36.621,52.734,0
1483718805.160,41.504,40.527,36.133,14.648,52.246,0
1483718805.164,42.480,36.621,35.156,18.555,-19.531,0
1483718805.168,45.898,33.691,40.527,24.414,13.672,0
1483718805.171,50.293,42.969,43.457,18.066,41.016,0
1483718805.175,43.457,64.941,41.504,29.785,50.293,0
1483718805.179,49.805,79.590,40.527,51.270,34.668,0
1483718805.183,55.664,80.566,39.551,42.969,5.371,0
1483718805.187,45.898,50.293,35.156,40.527,36.133,0
1483718805.191,33.203,24.414,31.738,39.551,9.277,0
1483718805.195,31.738,22.949,30.762,23.926,3.418,0
1483718805.199,37.598,33.203,27.832,41.992,21.484,0
1483718805.203,37.109,48.340,30.762,34.180,12.207,0
1483718805.207,31.738,42.969,28.320,26.855,9.277,0
1483718805.210,31.250,44.922,29.297,47.363,4.395,0
1483718805.214,42.969,71.777,39.551,62.012,14.648,0
1483718805.218,42.480,47.852,46.387,62.012,3.418,0
1483718805.222,21.484,11.230,47.363,32.715,-6.348,0
1483718805.226,33.203,29.785,40.527,27.832,11.719,0
1483718805.230,49.316,47.852,35.645,26.855,31.250,0
1483718805.234,36.621,41.504,37.109,16.602,33.203,0
1483718805.238,32.227,32.715,35.645,31.250,-3.906,0
1483718805.242,17.578,35.645,27.344,19.531,-21.484,0
1483718805.246,18.066,26.367,23.438,21.484,-9.766,0
1483718805.250,34.180,17.090,36.133,35.156,1.465,0
1483718805.253,30.762,28.809,38.086,19.531,-0.488,0
1483718805.257,15.625,31.250,26.855,16.602,38.574,0
1483718805.261,4.883,24.414,27.832,17.578,53.223,0
1483718805.265,16.113,38.086,39.062,24.414,6.836,0
1483718805.269,20.996,51.270,46.875,35.156,-16.602,0
1483718805.273,3.418,37.109,48.340,18.066,18.066,0
1483718805.277,15.625,24.414,41.016,16.113,58.105,0
1483718805.281,23.438,30.273,40.527,19.531,17.578,0
1483718805.285,-1.465,26.855,43.457,11.719,-20.508,0
1483718805.289,0.488,36.621,41.992,13.672,18.066,0
1483718805.293,18.555,34.668,47.852,11.719,52.734,0
1483718805.296,22.949,15.137,51.758,23.438,21.973,0
1483718805.300,16.113,28.809,56.152,23.438,-29.297,0
1483718805.304,14.160,27.832,51.270,20.508,17.090,0
1483718805.308,23.926,26.855,46.875,16.113,80.078,0
1483718805.312,20.996,44.922,43.945,9.277,89.355,0
1483718805.316,11.719,25.879,46.387,22.949,56.641,0
1483718805.320,15.625,20.508,52.734,26.367,48.340,0
1483718805.324,20.996,32.715,49.805,14.648,78.125,0
1483718805.328,13.184,10.742,46.875,16.113,73.242,0
1483718805.332,5.859,7.812,40.039,18.555,51.270,0
1483718805.335,20.020,44.922,40.527,10.254,77.148,0
1483718805.339,29.297,46.387,42.480,19.531,92.285,0
1483718805.343,35.645,39.062,45.898,38.574,71.777,0
1483718805.347,31.738,54.688,62.012,12.207,42.969,0
1483718805.351,17.090,57.129,43.457,14.648,56.152,0
1483718805.355,31.250,49.805,23.438,53.711,74.219,0
1483718805.359,48.340,12.695,28.320,53.711,54.199,0
1483718805.363,44.434,5.371,34.668,44.922,37.598,0
1483718805.367,41.016,31.738,41.016,31.738,25.879,0
1483718805.371,40.527,29.297,38.574,28.320,51.270,0
1483718805.375,32.715,35.156,38.574,35.645,57.129,0
1483718805.378,44.922,48.340,31.738,51.758,31.250,0
1483718805.382,57.129,52.734,28.809,61.035,61.035,0
1483718805.386,52.734,54.688,38.086,48.828,20.508,0
1483718805.390,42.969,49.316,41.992,46.875,1.953,0
1483718805.394,45.898,32.227,35.156,49.316,54.199,0
1483718805.398,49.805,25.391,33.691,36.133,60.547,0
1483718805.402,40.039,49.805,47.852,37.598,29.785,0
1483718805.406,39.062,55.664,52.246,54.688,26.855,0
1483718805.410,47.363,60.547,45.410,62.988,39.062,0
1483718805.414,44.434,57.617,40.527,44.922,35.156,0
1483718805.418,35.156,4.883,37.598,26.367,0.977,0
1483718805.421,30.762,15.137,39.062,31.250,-9.766,0
1483718805.425,26.855,53.711,39.062,26.367,30.762,0
1483718805.429,32.715,37.598,49.316,8.789,50.293,0
1483718805.433,40.527,39.062,52.734,22.949,45.410,0
1483718805.437,34.668,60.059,39.551,33.691,41.992,0
1483718805.441,34.180,66.895,45.410,43.945,58.594,0
1483718805.445,33.203,3.418,51.758,56.152,58.594,0
1483718805.449,18.066,-22.949,37.109,44.434,21.484,0
1483718805.453,15.137,35.156,27.832,39.551,3.418,0
1483718805.457,12.207,41.504,33.203,28.320,27.832,0
1483718805.460,4.883,30.273,43.945,9.766,29.785,0
1483718805.464,6.348,27.832,37.109,15.625,17.578,0
1483718805.468,11.719,28.320,25.879,16.113,16.113,0
1483718805.472,22.461,43.457,42.480,17.090,24.902,0
1483718805.476,21.973,52.246,45.898,23.438,19.043,0
1483718805.480,25.879,37.109,38.574,20.996,21.973,0
1483718805.484,24.414,24.902,32.715,10.254,19.043,0
1483718805.488,25.879,26.855,28.809,4.883,10.254,0
1483718805.492,29.297,5.859,41.992,21.484,23.438,0
1483718805.496,17.578,8.301,28.320,30.273,21.973,0
1483718805.500,27.344,40.039,22.461,36.133,19.531,0
1483718805.503,36.621,35.645,31.250,50.293,21.973,0
1483718805.507,37.109,37.598,28.320,47.852,-0.977,0
1483718805.511,33.203,37.598,32.227,39.062,-12.695,0
1483718805.515,31.738,22.949,39.062,33.203,4.395,0
1483718805.519,35.645,49.805,36.133,38.086,30.762,0
1483718805.523,33.691,53.711,29.785,34.668,29.297,0
1483718805.527,30.762,38.574,23.926,37.109,14.160,0
1483718805.531,39.062,62.012,31.738,57.129,27.344,0
1483718805.535,39.551,55.176,34.180,43.945,11.230,0
1483718805.539,30.273,20.508,27.832,30.762,7.324,0
1483718805.543,25.879,8.789,26.855,35.645,28.809,0
1483718805.546,36.621,29.785,30.273,27.832,23.926,0
1483718805.550,45.410,35.156,43.945,46.875,13.672,0
1483718805.554,40.039,27.832,35.156,47.363,16.113,0
1483718805.558,33.203,41.016,25.879,25.391,39.551,0
1483718805.562,34.180,56.152,33.691,28.809,35.156,0
1483718805.566,39.062,62.012,35.156,41.992,16.113,0
1483718805.570,35.156,39.551,35.645,37.109,27.832,0
1483718805.574,37.109,19.043,36.133,28.320,56.152,0
1483718805.578,20.996,19.531,27.832,25.391,92.285,0
1483718805.582,7.324,14.160,20.996,23.438,59.082,0
1483718805.585,13.672,17.578,36.621,24.414,21.484,0
1483718805.589,18.066,49.805,37.598,26.367,82.520,0
1483718805.593,20.020,67.383,25.391,32.715,78.613,0
1483718805.597,19.531,74.707,29.297,51.758,15.625,0
1483718805.601,21.973,39.551,36.133,41.504,-4.883,0
1483718805.605,15.625,7.324,42.480,31.738,62.988,0
1483718805.609,18.066,5.859,36.133,41.504,91.309,0
1483718805.613,27.832,0.488,22.461,27.344,49.316,0
1483718805.617,24.414,21.484,13.672,32.227,43.945,0
1483718805.621,27.832,48.340,18.066,45.898,53.223,0
1483718805.625,29.785,54.688,25.391,30.273,66.895,0
1483718805.628,32.715,55.664,32.715,23.438,62.988,0
1483718805.632,33.203,36.133,33.691,21.484,48.828,0
1483718805.636,35.645,36.621,25.391,40.039,58.105,0
1483718805.640,28.320,54.688,25.879,38.086,60.547,0
1483718805.644,22.949,42.480,31.738,34.180,59.082,0
1483718805.648,30.273,30.762,35.156,51.270,55.664,0
1483718805.652,25.391,26.367,37.109,42.969,53.711,0
1483718805.656,23.438,4.883,39.551,33.691,25.879,0
1483718805.660,27.832,20.508,32.715,39.062,17.090,0
1483718805.664,40.039,77.148,32.227,40.039,66.895,0
1483718805.668,43.457,50.293,34.180,49.316,78.613,0
1483718805.671,32.715,23.438,36.133,52.734,29.785,0
1483718805.675,29.297,37.109,35.156,35.645,37.109,0
1483718805.679,37.598,29.785,33.691,36.621,65.430,0
1483718805.683,47.363,43.457,40.527,43.457,66.406,0
1483718805.687,61.035,44.434,41.992,56.641,79.102,0
1483718805.691,57.617,41.504,43.945,56.152,51.758,0
1483718805.695,56.641,44.922,43.945,54.199,34.668,0
1483718805.699,59.082,57.617,36.133,62.500,24.902,0
1483718805.703,51.270,32.227,29.297,62.500,-47.852,0
1483718805.707,46.875,-1.953,30.762,50.293,-13.672,0
1483718805.710,55.664,3.418,32.715,47.363,21.973,0
1483718805.714,67.383,28.809,38.574,53.223,-12.695,0
1483718805.718,67.871,32.715,51.270,44.434,-13.184,0
1483718805.722,69.336,28.320,49.316,64.941,-2.441,0
1483718805.726,71.289,59.570,40.039,83.984,10.254,0
1483718805.730,62.012,62.500,36.133,70.801,-3.418,0
1483718805.734,52.734,56.152,30.273,47.852,-14.160,0
1483718805.738,55.176,58.594,17.578,41.016,-18.555,0
1483718805.742,58.594,41.016,20.020,41.992,9.277,0
1483718805.746,59.082,38.086,29.297,51.270,8.789,0
1483718805.750,59.570,33.203,28.809,55.664,-15.137,0
1483718805.753,60.059,31.738,27.344,57.617,7.324,0
1483718805.757,57.129,52.734,25.391,61.035,28.320,0
1483718805.761,59.082,43.457,32.227,43.945,24.414,0
1483718805.765,50.781,19.531,33.203,14.648,26.855,0
1483718805.769,37.598,40.039,24.902,8.301,12.695,0
1483718805.773,38.574,65.430,23.926,21.973,25.879,0
1483718805.777,42.969,48.828,30.762,25.391,30.273,0
1483718805.781,51.758,31.738,22.461,37.109,-6.348,0
1483718805.785,49.316,42.480,31.738,49.805,-2.441,0
1483718805.789,39.551,47.363,40.527,27.832,15.625,0
1483718805.793,32.715,31.250,20.020,8.789,-6.836,0
1483718805.796,26.855,19.531,17.578,23.926,-1.465,0
1483718805.800,20.508,31.250,23.926,30.762,26.367,0
1483718805.804,18.555,42.969,23.438,34.180,25.391,0
1483718805.808,27.832,28.809,28.809,35.156,30.273,0
1483718805.812,35.156,13.672,28.809,21.973,33.203,0
1483718805.816,28.809,34.180,24.902,4.395,11.719,0
1483718805.820,24.902,41.016,23.438,11.230,7.324,0
1483718805.824,24.902,27.344,33.203,10.742,37.109,0
1483718805.828,24.902,49.805,36.621,-1.465,29.785,0
1483718805.832,28.809,56.152,23.926,-4.395,6.348,0
1483718805.835,17.090,38.086,16.602,-10.742,-4.395,0
1483718805.839,15.625,50.781,25.391,4.883,-2.930,0
1483718805.843,22.949,55.664,47.852,21.973,33.203,0
1483718805.847,27.344,36.133,46.875,30.273,32.715,0
1483718805.851,32.227,20.508,29.785,27.832,3.418,0
1483718805.855,35.645,-8.789,28.320,17.090,28.320,0
1483718805.859,29.785,-5.859,40.039,17.090,71.289,0
1483718805.863,25.879,41.016,31.250,18.066,60.547,0
1483718805.867,29.297,74.707,22.461,23.926,29.297,0
1483718805.871,29.785,51.270,23.926,16.602,33.203,0
1483718805.875,34.180,38.574,23.926,26.855,75.195,0
1483718805.878,33.203,56.152,36.133,41.992,58.594,0
1483718805.882,32.227,58.105,45.898,38.574,20.996,0
1483718805.886,41.992,37.598,38.574,54.199,8.789,0
1483718805.890,53.223,37.598,36.133,51.758,39.062,0
1483718805.894,50.781,44.434,43.945,41.504,51.270,0
1483718805.898,38.574,35.156,38.086,39.551,6.836,0
1483718805.902,33.691,45.410,28.809,29.785,24.902,0
1483718805.906,34.668,58.105,26.855,23.438,59.082,0
1483718805.910,35.645,40.039,33.691,27.832,33.691,0
1483718805.914,44.434,36.621,32.227,35.645,2.441,0
1483718805.918,59.082,42.480,38.086,47.363,13.184,0
1483718805.921,50.781,21.484,33.203,42.480,48.340,0
1483718805.925,47.852,9.277,33.203,41.016,30.273,0
1483718805.929,48.340,20.508,44.434,41.992,-3.418,0
1483718805.933,41.504,60.547,45.410,34.668,0.000,0
1483718805.937,47.852,68.848,49.805,41.504,42.969,0
1483718805.941,46.387,36.621,45.410,31.738,61.523,0
1483718805.945,36.621,18.555,40.039,12.207,33.203,0
1483718805.949,31.738,35.645,37.598,21.484,27.344,0
1483718805.953,48.340,62.988,45.410,52.246,36.621,0
1483718805.957,55.664,40.527,55.664,61.523,41.504,0
1483718805.960,30.762,12.207,50.293,16.602,48.828,0
1483718805.964,22.949,10.742,47.852,0.000,56.152,0
1483718805.968,29.297,35.645,44.434,12.207,50.293,0
1483718805.972,42.969,24.414,48.828,22.949,20.020,0
1483718805.976,49.805,-5.371,48.340,30.762,24.414,0
1483718805.980,32.715,22.949,47.852,29.297,39.551,0
1483718805.984,28.320,41.992,59.082,43.945,31.250,0
1483718805.988,42.969,40.527,52.246,24.414,19.531,0
1483718805.992,51.270,41.504,49.805,28.320,47.363,0
1483718805.996,48.340,41.992,65.918,35.645,56.641,0
1483718806.000,52.734,-6.836,59.570,23.926,34.668,0
1483718806.003,49.316,-35.156,48.340,17.578,27.344,0
1483718806.007,44.434,20.020,42.969,19.531,17.578,0
1483718806.011,55.176,52.246,43.945,47.363,34.180,0
1483718806.015,60.059,54.199,52.734,57.129,18.555,0
1483718806.019,36.621,54.199,43.945,41.992,-3.418,0
1483718806.023,33.691,63.477,47.852,41.992,56.641,0
1483718806.027,54.199,73.242,55.664,50.781,65.430,0
1483718806.031,56.641,54.688,42.969,45.410,9.766,0
1483718806.035,54.199,6.348,39.551,46.387,14.648,0
1483718806.039,50.293,1.465,36.621,41.992,52.246,0
1483718806.043,44.434,31.738,30.762,42.480,69.824,0
1483718806.046,49.805,42.969,39.551,48.828,39.062,0
1483718806.050,54.199,40.039,36.133,49.805,7.812,0
1483718806.054,50.781,35.645,28.320,40.527,29.785,0
1483718806.058,50.293,49.805,25.391,23.926,54.199,0
1483718806.062,41.504,46.387,21.484,16.602,52.734,0
1483718806.066,41.016,22.461,31.250,31.250,15.137,0
1483718806.070,48.828,15.137,33.203,42.480,-1.953,0
1483718806.074,45.410,30.273,26.855,33.691,32.227,0
1483718806.078,42.480,61.035,26.367,34.668,31.250,0
1483718806.082,41.992,63.477,33.691,47.852,6.836,0
1483718806.085,45.410,24.414,33.691,45.410,37.109,0
1483718806.089,49.316,17.578,34.180,35.156,54.688,0
1483718806.093,45.898,41.016,25.391,32.715,12.207,0
1483718806.097,29.785,48.340,12.695,25.879,35.645,0
1483718806.101,33.203,47.852,18.555,24.414,59.082,0
1483718806.105,34.180,42.969,17.090,28.809,49.316,0
1483718806.109,26.855,54.199,28.320,32.227,51.270,0
1483718806.113,27.832,39.062,38.574,19.531,31.250,0
1483718806.117,16.113,17.578,28.320,6.348,38.086,0
1483718806.121,14.648,8.301,21.973,19.043,50.293,0
1483718806.125,28.809,17.578,31.250,37.598,26.367,0
1483718806.128,23.438,35.645,34.180,44.922,-2.441,0
1483718806.132,18.066,24.902,25.879,21.973,16.602,0
1483718806.136,26.367,21.973,29.297,-1.465,32.227,0
1483718806.140,19.531,23.926,42.480,9.277,19.043,0
1483718806.144,16.602,32.227,48.340,18.066,39.062,0
1483718806.148,22.461,19.043,39.062,20.508,22.949,0
1483718806.152,17.090,6.348,32.715,35.645,28.809,0
1483718806.156,24.414,14.160,37.109,47.852,71.289,0
1483718806.160,17.090,9.277,32.227,27.344,62.012,0
1483718806.164,8.301,-1.953,24.902,26.855,22.949,0
1483718806.168,17.090,15.625,24.414,33.691,-8.789,0
1483718806.171,25.879,61.035,36.133,26.367,15.625,0
1483718806.175,31.250,64.941,42.480,32.715,47.852,0
1483718806.179,20.020,23.438,27.344,31.250,50.781,0
1483718806.183,10.254,-10.742,29.297,25.879,28.320,0
1483718806.187,20.020,-3.418,36.621,22.461,27.344,0
1483718806.191,16.602,22.949,41.504,19.531,72.266,0
1483718806.195,13.184,33.691,32.715,20.508,26.855,0
1483718806.199,35.156,60.059,27.832,28.809,-20.020,0
1483718806.203,45.898,52.246,37.109,31.250,22.949,0
1483718806.207,31.250,29.297,30.762,38.086,33.203,0
1483718806.210,20.020,35.156,26.367,36.621,28.320,0
1483718806.214,28.320,27.344,26.367,39.062,2.441,0
1483718806.218,29.785,25.879,29.297,44.922,13.184,0
1483718806.222,34.668,24.414,34.668,49.805,41.504,0
1483718806.226,34.668,29.785,35.156,41.992,43.457,0
1483718806.230,36.621,28.809,38.086,17.090,10.254,0
1483718806.234,47.363,40.039,40.039,41.504,2.441,0
1483718806.238,40.039,23.926,35.156,47.852,42.480,0
1483718806.242,35.645,5.371,32.227,31.738,41.016,0
1483718806.246,44.434,39.062,38.574,36.621,26.855,0
1483718806.250,43.457,35.645,40.039,18.066,7.812,0
1483718806.253,41.504,41.992,32.715,25.879,13.184,0
1483718806.257,48.340,49.805,26.367,28.809,24.414,0
1483718806.261,45.898,30.273,28.320,25.879,11.719,0
1483718806.265,46.387,39.551,27.344,36.133,30.273,0
1483718806.269,45.410,13.184,34.180,23.438,63.477,0
1483718806.273,40.527,-4.883,39.062,5.859,56.641,0
1483718806.277,41.992,32.227,30.273,14.160,40.039,0
1483718806.281,54.199,46.875,29.297,25.879,45.898,0
1483718806.285,53.711,34.180,28.320,32.227,31.250,0
1483718806.289,36.621,35.156,26.367,26.855,48.340,0
1483718806.293,28.320,41.016,31.250,23.926,58.594,0
1483718806.296,31.250,27.344,35.645,24.414,49.805,0
1483718806.300,36.621,20.020,41.504,22.949,37.109,0
1483718806.304,37.109,41.992,47.363,22.949,19.531,0
1483718806.308,33.691,42.480,39.062,21.484,31.250,0
1483718806.312,31.250,28.809,49.316,30.762,49.316,0
1483718806.316,36.133,37.598,52.734,45.410,37.109,0
1483718806.320,48.340,36.133,43.945,46.875,3.418,0
1483718806.324,42.480,9.277,42.969,42.480,41.504,0
1483718806.328,21.484,4.883,34.180,39.551,89.844,0
1483718806.332,19.043,23.926,33.691,38.574,38.086,0
1483718806.335,28.320,18.066,34.180,39.062,1.953,0
1483718806.339,28.809,20.996,44.434,33.691,42.969,0
1483718806.343,34.668,49.805,50.293,39.062,46.875,0
1483718806.347,39.551,43.457,45.410,51.270,24.414,0
1483718806.351,38.086,17.578,54.688,35.645,12.207,0
1483718806.355,43.945,28.320,43.457,41.504,47.852,0
1483718806.359,42.969,18.555,32.715,55.176,48.828,0
1483718806.363,36.133,-0.488,36.133,50.293,30.762,0
1483718806.367,42.480,2.930,36.133,46.387,23.438,0
1483718806.371,37.598,26.855,37.109,39.551,28.809,0
1483718806.375,34.668,51.270,40.039,28.320,78.613,0
1483718806.378,37.109,38.086,44.434,22.949,56.641,0
1483718806.382,51.758,53.711,46.875,60.059,32.715,0
1483718806.386,56.152,57.129,46.875,58.105,63.965,0
1483718806.390,34.668,28.320,33.203,37.598,67.383,0
1483718806.394,39.551,22.949,29.297,49.316,61.523,0
1483718806.398,45.410,3.906,39.062,37.598,53.711,0
1483718806.402,37.109,18.066,23.926,36.621,55.664,0
1483718806.406,41.504,52.246,16.602,34.668,76.660,0
1483718806.410,45.410,51.758,27.832,22.461,43.945,0
1483718806.414,43.457,47.852,26.855,32.227,30.273,0
1483718806.418,49.805,47.363,21.484,33.691,43.457,0
1483718806.421,46.387,33.691,31.250,35.645,31.250,0
1483718806.425,47.852,49.316,50.781,43.457,41.992,0
1483718806.429,52.246,58.594,39.062,41.992,52.246,0
1483718806.433,45.898,23.438,21.973,20.508,43.457,0
1483718806.437,43.457,-6.836,28.320,13.672,38.086,0
1483718806.441,36.133,4.395,41.016,41.016,36.621,0
1483718806.445,31.738,24.414,35.156,55.176,44.434,0
1483718806.449,30.273,28.809,31.738,28.320,53.711,0
1483718806.453,26.855,46.387,38.574,33.691,11.719,0
1483718806.457,37.109,58.594,43.945,51.758,41.992,0
1483718806.460,30.762,51.270,41.992,34.180,78.125,0
1483718806.464,20.508,35.645,29.297,14.648,29.297,0
1483718806.468,20.996,14.648,30.273,20.996,-5.859,0
1483718806.472,17.578,11.719,42.969,18.066,35.645,0
1483718806.476,21.973,22.949,37.598,11.719,67.871,0
1483718806.480,15.625,10.742,34.180,23.438,35.645,0
1483718806.484,15.137,20.996,43.457,15.625,29.297,0
1483718806.488,27.344,59.082,40.039,28.809,58.594,0
1483718806.492,19.531,40.527,34.668,35.645,68.848,0
1483718806.496,8.301,29.785,30.762,24.414,71.289,0
1483718806.500,15.137,85.449,31.738,29.785,4.883,0
1483718806.503,20.996,97.656,34.668,24.902,-5.371,0
1483718806.507,14.648,66.895,34.180,35.156,44.434,0
1483718806.511,9.277,71.289,29.785,19.531,40.039,0
1483718806.515,18.066,83.984,22.461,5.371,16.113,0
1483718806.519,32.227,80.566,34.668,18.555,38.574,0
1483718806.523,29.297,85.938,51.270,42.480,56.152,0
1483718806.527,20.996,69.336,44.922,53.711,69.336,0
1483718806.531,39.551,30.273,37.598,45.410,61.523,0
1483718806.535,45.898,26.855,33.203,42.480,58.105,0
1483718806.539,29.785,63.965,28.809,58.105,53.223,0
1483718806.543,43.457,75.684,31.250,60.547,48.828,0
1483718806.546,52.734,66.406,36.133,50.781,75.684,0
1483718806.550,48.340,66.895,41.016,48.340,72.266,0
1483718806.554,47.363,52.246,32.715,35.156,73.730,0
1483718806.558,50.781,33.203,27.344,43.945,72.266,0
1483718806.562,53.223,37.109,29.785,65.430,61.523,0
1483718806.566,62.012,38.086,30.762,65.918,70.801,0
1483718806.570,60.059,56.641,31.738,68.848,83.008,0
1483718806.574,62.012,74.707,31.738,66.895,85.449,0
1483718806.578,67.383,61.523,25.879,52.734,106.445,0
1483718806.582,57.617,69.336,25.391,44.434,101.562,0
1483718806.585,66.895,82.031,37.598,69.336,69.336,0
1483718806.589,71.289,73.730,39.062,78.613,63.965,0
1483718806.593,61.523,76.660,29.785,76.172,98.145,0
1483718806.597,55.664,83.496,22.949,68.848,80.566,0
1483718806.601,53.711,63.477,16.602,52.246,71.289,0
1483718806.605,57.129,50.781,30.762,65.430,89.844,0
1483718806.609,54.688,29.785,45.410,61.035,102.539,0
1483718806.613,45.898,28.320,34.668,40.527,111.816,0
1483718806.617,40.527,51.270,38.574,52.734,64.453,0
1483718806.621,31.738,46.387,39.551,63.965,51.270,0
1483718806.625,33.203,45.898,34.180,46.875,96.191,0
1483718806.628,41.016,40.527,28.809,32.227,82.520,0
1483718806.632,55.664,44.922,29.297,35.156,27.832,0
1483718806.636,50.293,34.668,40.527,27.344,34.180,0
1483718806.640,35.645,16.113,44.922,32.227,99.609,0
1483718806.644,41.992,52.246,50.781,46.875,73.242,0
1483718806.648,49.316,57.617,41.504,38.574,37.109,0
1483718806.652,55.176,38.086,31.738,42.480,73.242,0
1483718806.656,57.617,55.176,35.156,59.082,77.637,0
1483718806.660,45.410,58.594,35.645,49.805,67.383,0
1483718806.664,52.246,44.434,39.551,40.527,52.734,0
1483718806.668,68.359,42.480,47.363,59.082,37.598,0
1483718806.671,73.730,46.387,49.316,79.102,34.668,0
1483718806.675,76.172,17.090,32.227,83.984,55.176,0
1483718806.679,80.566,18.555,29.785,81.543,34.180,0
1483718806.683,79.102,50.293,34.668,70.801,12.695,0
1483718806.687,63.965,49.805,30.762,56.641,75.195,0
1483718806.691,61.035,46.387,24.414,56.641,86.914,0
1483718806.695,72.754,45.898,35.156,71.289,56.152,0
1483718806.699,76.172,56.152,47.852,56.641,44.922,0
1483718806.703,71.289,50.293,40.039,32.227,56.641,0
1483718806.707,75.684,37.109,32.715,51.758,65.918,0
1483718806.710,75.195,28.320,34.668,48.828,79.590,0
1483718806.714,70.801,49.805,32.227,51.270,53.711,0
1483718806.718,71.289,70.801,28.320,53.711,35.156,0
1483718806.722,78.613,42.969,30.762,35.156,52.734,0
1483718806.726,78.125,38.574,32.227,48.340,42.969,0
1483718806.730,66.406,58.594,35.156,56.152,55.176,0
1483718806.734,58.594,55.664,32.227,52.734,52.734,0
1483718806.738,50.293,62.500,30.273,42.969,22.461,0
1483718806.742,48.828,61.035,38.086,45.898,37.598,0
1483718806.746,45.410,37.598,38.574,50.781,79.590,0
1483718806.750,34.668,36.133,29.785,33.203,66.895,0
1483718806.753,26.367,43.457,27.344,33.691,29.297,0
1483718806.757,30.273,45.898,29.785,49.316,62.500,0
1483718806.761,28.320,31.250,37.109,53.711,85.938,0
1483718806.765,23.438,49.316,41.504,49.805,53.711,0
1483718806.769,33.203,62.500,39.551,55.664,46.875,0
1483718806.773,30.273,41.992,43.457,59.570,47.852,0
1483718806.777,19.043,40.527,47.852,53.711,65.430,0
1483718806.781,20.020,14.160,38.574,45.898,50.781,0
1483718806.785,36.621,49.805,37.109,44.922,-16.602,0
1483718806.789,39.551,68.359,45.898,39.062,36.621,0
1483718806.793,25.391,30.273,33.203,32.715,73.730,0
1483718806.796,22.461,9.277,27.832,33.203,25.391,0
1483718806.800,22.949,9.766,37.598,24.902,36.133,0
1483718806.804,27.344,60.059,33.203,39.551,77.637,0
1483718806.808,26.367,81.055,34.180,36.133,81.543,0
1483718806.812,20.996,68.848,50.293,38.086,66.895,0
1483718806.816,22.461,61.523,54.199,43.457,49.805,0
1483718806.820,28.320,46.875,43.945,26.855,30.273,0
1483718806.824,36.133,38.574,37.598,23.926,67.871,0
1483718806.828,38.574,45.898,40.527,30.762,57.617,0
1483718806.832,44.434,42.480,49.316,52.246,35.156,0
1483718806.835,64.453,49.316,47.363,62.988,62.988,0
1483718806.839,57.129,42.969,47.852,50.781,45.410,0
1483718806.843,38.086,16.113,53.223,52.246,39.551,0
1483718806.847,48.828,25.879,47.363,52.246,43.945,0
1483718806.851,59.570,33.691,46.875,66.895,71.777,0
1483718806.855,53.711,23.438,42.480,53.711,77.637,0
1483718806.859,60.547,46.875,46.875,54.688,41.016,0
1483718806.863,70.801,64.941,65.918,79.102,2.441,0
1483718806.867,53.711,42.969,45.410,57.617,20.996,0
1483718806.871,49.316,31.250,30.273,33.691,58.105,0
1483718806.875,43.457,37.109,32.227,26.367,23.926,0
1483718806.878,27.832,49.805,32.715,31.738,26.855,0
1483718806.882,43.945,66.406,38.086,43.945,42.480,0
1483718806.886,61.523,57.617,41.992,41.992,15.137,0
1483718806.890,54.688,52.246,30.762,31.738,49.805,0
1483718806.894,56.641,66.895,20.996,17.090,59.570,0
1483718806.898,55.176,60.547,26.367,13.672,11.719,0
1483718806.902,50.293,29.297,38.574,34.180,4.395,0
1483718806.906,44.434,12.695,44.922,37.109,17.578,0
1483718806.910,53.223,20.996,37.109,48.828,30.273,0
1483718806.914,56.152,36.621,37.109,54.199,8.301,0
1483718806.918,46.387,41.016,38.574,37.598,-29.785,0
1483718806.921,56.152,43.945,45.410,46.387,-8.301,0
1483718806.925,59.570,58.105,47.852,50.781,25.391,0
1483718806.929,50.781,76.660,47.363,39.062,15.625,0
1483718806.933,52.246,79.590,52.246,32.715,10.742,0
1483718806.937,59.082,57.129,50.781,42.969,2.930,0
1483718806.941,60.547,38.086,57.617,58.594,34.668,0
1483718806.945,58.105,27.344,62.012,63.965,61.035,0
1483718806.949,58.105,13.672,59.570,55.176,41.504,0
1483718806.953,57.617,14.160,61.523,48.340,38.574,0
1483718806.957,52.734,20.996,59.082,40.039,43.457,0
1483718806.960,46.387,35.156,59.082,41.504,31.250,0
1483718806.964,46.387,55.176,62.988,37.598,-13.184,0
1483718806.968,47.363,60.059,56.641,40.039,-24.414,0
1483718806.972,42.969,70.312,62.012,51.758,4.395,0
1483718806.976,44.922,68.359,66.406,73.242,3.906,0
1483718806.980,49.805,34.668,60.059,69.824,-9.277,0
1483718806.984,43.945,1.953,61.523,41.504,-27.832,0
1483718806.988,44.434,38.086,56.641,47.852,-31.250,0
1483718806.992,42.969,55.664,51.758,56.641,8.301,0
1483718806.996,26.855,16.602,50.293,51.758,9.277,0
1483718807.000,30.762,28.320,45.898,37.109,-20.508,0
1483718807.003,39.551,53.711,53.223,28.809,-39.551,0
1483718807.007,37.598,58.594,68.359,50.293,-21.973,0
1483718807.011,42.480,44.922,68.848,54.688,-9.277,0
1483718807.015,35.645,30.273,64.941,45.410,-31.250,0
1483718807.019,39.551,51.270,61.035,56.152,-15.625,0
1483718807.023,55.664,74.707,63.477,62.012,-20.508,0
1483718807.027,50.781,73.730,69.824,64.941,-29.297,0
1483718807.031,39.062,48.828,64.453,62.012,-24.414,0
1483718807.035,47.363,23.926,48.828,52.246,-20.508,0
1483718807.039,53.223,39.551,46.387,41.992,-39.551,0
1483718807.043,45.410,49.316,44.922,30.762,-18.066,0
1483718807.046,46.875,52.246,37.598,27.832,12.695,0
1483718807.050,51.758,51.270,50.293,49.805,-35.645,0
1483718807.054,44.922,34.668,58.105,57.129,-34.668,0
1483718807.058,42.969,37.598,58.105,49.805,3.906,0
1483718807.062,41.504,58.594,56.641,43.945,8.789,0
1483718807.066,38.086,26.855,55.176,17.578,-11.719,0
1483718807.070,32.715,8.301,51.758,2.441,-26.855,0
1483718807.074,34.668,69.824,49.805,15.625,13.184,0
1483718807.078,41.016,74.219,63.477,22.461,35.645,0
1483718807.082,23.926,48.340,55.176,23.926,-6.836,0
1483718807.085,20.020,40.527,44.922,25.879,6.836,0
1483718807.089,21.973,31.738,53.711,30.762,38.574,0
1483718807.093,9.277,28.320,55.176,37.109,48.828,0
1483718807.097,7.324,25.879,65.430,36.621,16.602,0
1483718807.101,15.625,29.785,73.730,37.598,-3.906,0
1483718807.105,20.996,45.410,65.430,46.387,30.273,0
1483718807.109,10.742,49.316,50.781,44.922,49.316,0
1483718807.113,11.230,41.504,45.898,35.156,-4.395,0
1483718807.117,24.902,18.555,47.852,36.621,-56.152,0
1483718807.121,29.297,2.441,46.387,44.434,9.766,0
1483718807.125,27.344,45.898,42.969,39.551,39.062,0
1483718807.128,17.578,66.895,43.457,33.203,5.859,0
1483718807.132,24.414,49.805,44.434,29.297,-17.578,0
1483718807.136,32.227,32.715,42.480,43.945,-8.789,0
1483718807.140,20.020,12.695,39.062,62.500,29.785,0
1483718807.144,18.555,9.277,45.410,50.781,23.438,0
1483718807.148,36.621,29.297,53.711,30.273,-20.996,0
1483718807.152,40.039,40.039,36.133,14.648,-8.301,0
1483718807.156,40.039,51.270,27.832,37.109,20.996,0
1483718807.160,32.715,41.016,36.133,38.574,20.996,0
1483718807.164,43.945,46.875,24.414,32.227,28.809,0
1483718807.168,63.477,70.312,9.766,49.316,13.672,0
1483718807.171,62.988,47.363,23.438,51.758,17.578,0
1483718807.175,54.688,39.062,29.785,52.734,46.875,0
1483718807.179,43.457,54.199,13.184,41.992,21.484,0
1483718807.183,37.598,66.406,19.043,35.156,-12.207,0
1483718807.187,41.504,40.527,21.484,29.785,6.836,0
1483718807.191,46.387,25.879,13.672,30.762,-5.859,0
1483718807.195,41.016,25.879,19.531,41.016,24.902,0
1483718807.199,40.039,18.555,29.297,42.480,40.039,0
1483718807.203,43.945,41.504,25.879,40.039,-2.930,0
1483718807.207,40.039,44.434,20.996,45.410,17.578,0
1483718807.210,39.551,37.598,29.297,55.176,63.965,0
1483718807.214,46.875,48.340,35.156,38.086,55.664,0
1483718807.218,42.969,41.992,24.902,38.574,15.625,0
1483718807.222,31.250,29.297,20.020,34.180,6.836,0
1483718807.226,28.320,24.902,29.785,26.855,62.988,0
1483718807.230,30.273,8.301,33.691,36.621,59.082,0
1483718807.234,33.203,41.504,36.621,29.297,24.414,0
1483718807.238,33.203,38.574,40.039,21.484,28.809,0
1483718807.242,27.832,-21.973,38.574,9.277,54.688,0
1483718807.246,30.762,26.855,34.180,-0.488,42.480,0
1483718807.250,31.250,80.078,32.715,21.484,-21.484,0
1483718807.253,20.020,73.730,22.461,25.391,-14.648,0
1483718807.257,36.621,74.219,31.738,40.039,29.785,0
1483718807.261,35.156,51.270,41.992,34.180,13.184,0
1483718807.265,14.160,9.766,19.043,19.531,20.508,0
1483718807.269,13.672,33.691,15.137,37.598,55.176,0
1483718807.273,22.461,57.129,21.484,44.434,21.484,0
1483718807.277,28.320,49.805,33.691,27.832,32.227,0
1483718807.281,33.203,50.293,41.992,17.090,31.738,0
1483718807.285,47.852,35.645,30.273,38.574,13.672,0
1483718807.289,40.039,29.785,20.020,45.410,10.254,0
1483718807.293,28.809,25.879,19.531,34.180,-3.418,0
1483718807.296,39.062,29.297,20.996,46.875,-1.953,0
1483718807.300,49.316,37.598,28.809,65.430,9.766,0
1483718807.304,48.828,24.902,28.809,58.105,28.809,0
1483718807.308,46.387,39.062,25.879,63.477,9.766,0
1483718807.312,51.270,62.988,30.273,60.547,14.648,0
1483718807.316,45.898,57.617,34.180,36.621,22.949,0
1483718807.320,55.176,55.176,32.715,44.922,17.578,0
1483718807.324,58.105,61.035,29.785,54.199,31.250,0
1483718807.328,39.062,31.250,24.414,54.688,62.988,0
1483718807.332,39.551,28.320,22.461,41.016,23.438,0
1483718807.335,43.457,74.219,15.137,30.762,-16.113,0
1483718807.339,37.109,95.215,16.602,38.086,-17.578,0
1483718807.343,48.340,83.984,23.926,43.457,-6.836,0
1483718807.347,55.664,72.266,17.090,35.156,15.625,0
1483718807.351,43.457,68.359,13.184,23.926,-5.859,0
1483718807.355,50.781,58.594,16.113,37.598,-7.812,0
1483718807.359,63.477,45.898,20.996,41.016,20.508,0
1483718807.363,50.293,56.152,23.438,41.504,31.738,0
1483718807.367,39.062,41.016,40.039,42.969,-4.395,0
1483718807.371,34.668,40.527,37.598,41.016,-26.855,0
1483718807.375,43.945,68.848,20.020,34.180,3.906,0
1483718807.378,47.852,73.730,25.391,10.742,37.598,0
1483718807.382,44.434,63.477,28.320,7.324,-19.043,0
1483718807.386,36.133,45.410,25.879,26.855,-43.457,0
1483718807.390,40.039,50.293,25.391,47.852,26.855,0
1483718807.394,43.945,30.762,27.344,52.246,48.828,0
1483718807.398,34.668,11.719,33.691,44.922,9.277,0
1483718807.402,33.203,16.602,39.551,41.992,-1.465,0
1483718807.406,41.992,-6.836,43.457,46.875,20.020,0
1483718807.410,49.805,24.902,48.828,48.340,22.461,0
1483718807.414,43.457,59.570,40.527,45.410,4.395,0
1483718807.418,40.039,40.039,30.762,32.715,-14.160,0
1483718807.421,41.992,56.152,32.715,16.113,3.906,0
1483718807.425,39.062,51.758,34.180,11.719,6.836,0
1483718807.429,32.715,23.926,25.391,23.438,-28.320,0
1483718807.433,24.902,19.531,26.855,18.066,-22.461,0
1483718807.437,17.090,28.320,29.297,11.230,29.297,0
1483718807.441,19.531,29.297,28.320,8.301,25.879,0
1483718807.445,17.090,24.902,31.738,-2.441,-23.438,0
1483718807.449,24.414,33.691,33.203,7.812,2.930,0
1483718807.453,37.598,40.039,37.109,16.113,23.926,0
1483718807.457,27.832,-1.953,34.180,-1.465,18.066,0
1483718807.460,23.926,-26.855,24.902,6.348,50.781,0
1483718807.464,32.227,25.391,14.160,20.508,43.457,0
1483718807.468,36.133,76.660,16.113,21.484,22.461,0
1483718807.472,29.785,63.477,18.555,14.160,43.457,0
1483718807.476,21.973,15.625,10.254,9.277,40.039,0
1483718807.480,35.645,23.438,15.137,16.602,51.270,0
1483718807.484,37.109,40.527,26.367,19.531,43.945,0
1483718807.488,38.086,31.738,24.414,27.832,-14.160,0
1483718807.492,39.062,26.367,10.254,20.508,1.465,0
1483718807.496,37.109,36.621,9.766,21.973,54.199,0
1483718807.500,48.828,64.453,19.043,44.922,38.574,0
1483718807.503,42.969,46.875,19.043,42.969,11.719,0
1483718807.507,43.457,-1.465,16.602,42.969,31.250,0
1483718807.511,58.105,38.086,25.879,41.992,44.922,0
1483718807.515,49.805,82.031,34.180,33.691,27.344,0
1483718807.519,28.809,66.895,20.996,39.062,24.414,0
1483718807.523,38.086,46.387,21.973,43.457,38.574,0
1483718807.527,44.434,42.969,29.785,41.016,44.434,0
1483718807.531,41.016,60.059,29.785,41.504,21.973,0
1483718807.535,46.387,61.523,32.227,41.992,-29.785,0
1483718807.539,46.387,64.453,36.621,37.109,-23.926,0
1483718807.543,37.598,44.434,21.973,46.387,29.785,0
1483718807.546,31.250,24.902,25.391,56.152,46.875,0
1483718807.550,34.180,43.457,39.062,52.734,14.648,0
1483718807.554,38.086,46.875,43.457,55.664,19.531,0
1483718807.558,43.457,31.250,46.875,48.340,41.016,0
1483718807.562,46.875,24.902,37.598,45.410,11.230,0
1483718807.566,41.992,38.574,42.480,56.152,-20.020,0
1483718807.570,35.156,49.805,57.129,53.223,6.836,0
1483718807.574,39.062,38.574,41.504,41.016,22.461,0
1483718807.578,43.945,64.453,30.762,34.668,-8.789,0
1483718807.582,37.109,56.641,41.504,34.180,-24.902,0
1483718807.585,36.621,34.180,36.133,42.480,-24.414,0
1483718807.589,34.668,47.852,29.297,40.527,12.695,0
1483718807.593,40.039,64.453,25.391,52.734,15.625,0
1483718807.597,44.434,60.059,31.738,45.898,0.977,0
1483718807.601,28.809,42.480,32.715,11.719,14.648,0
1483718807.605,22.949,37.598,23.926,11.719,27.832,0
1483718807.609,33.203,42.969,24.902,23.926,49.316,0
1483718807.613,24.902,52.246,17.578,16.113,30.273,0
1483718807.617,27.344,41.504,6.836,13.184,14.648,0
1483718807.621,43.945,69.824,22.949,33.691,21.484,0
1483718807.625,39.062,100.586,33.691,32.227,1.465,0
1483718807.628,36.621,71.777,23.438,20.020,5.859,0
1483718807.632,43.945,55.176,36.621,11.230,-0.488,0
1483718807.636,35.156,47.363,30.273,22.461,13.184,0
1483718807.640,22.949,79.102,15.625,27.344,53.223,0
1483718807.644,24.902,78.125,25.391,29.785,30.762,0
1483718807.648,32.715,46.875,29.785,39.551,17.090,0
1483718807.652,29.297,49.805,22.949,21.484,20.996,0
1483718807.656,24.902,52.734,22.949,21.973,19.043,0
1483718807.660,30.762,83.984,28.320,33.691,36.621,0
1483718807.664,30.762,87.402,26.367,28.809,5.859,0
1483718807.668,28.320,17.578,25.879,22.461,0.000,0
1483718807.671,17.578,-18.066,27.344,20.020,41.016,0
1483718807.675,10.742,37.598,28.809,7.812,47.363,0
1483718807.679,11.719,90.820,27.832,6.348,40.039,0
1483718807.683,24.414,89.844,32.227,23.926,5.371,0
1483718807.687,21.484,72.754,31.738,27.832,-15.625,0
1483718807.691,15.625,68.848,25.391,18.555,50.781,0
1483718807.695,25.391,75.195,28.809,18.555,58.594,0
1483718807.699,21.484,76.660,31.250,17.090,19.531,0
1483718807.703,4.395,31.738,17.578,2.930,7.324,0
1483718807.707,15.137,-4.395,3.418,8.789,26.855,0
1483718807.710,27.832,22.461,10.742,6.836,29.785,0
1483718807.714,18.066,54.199,20.996,-3.418,-5.859,0
1483718807.718,7.324,51.758,11.719,7.324,6.348,0
1483718807.722,18.066,34.180,13.184,16.602,49.316,0
1483718807.726,33.691,14.648,28.809,35.645,46.387,0
1483718807.730,33.203,42.480,42.480,42.969,30.762,0
1483718807.734,30.762,92.285,30.762,41.992,32.227,0
1483718807.738,36.621,71.777,10.742,33.691,43.945,0
1483718807.742,41.016,48.340,9.766,24.414,56.641,0
1483718807.746,37.598,53.711,18.066,40.039,26.367,0
1483718807.750,38.086,43.945,21.973,44.922,5.371,0
1483718807.753,36.621,47.363,13.184,43.457,16.602,0
1483718807.757,41.504,57.129,20.996,37.598,26.367,0
1483718807.761,62.988,34.180,22.949,43.457,21.484,0
1483718807.765,67.871,37.109,26.367,48.340,42.480,0
1483718807.769,58.105,35.156,24.414,33.691,36.133,0
1483718807.773,53.223,29.297,21.484,22.461,32.227,0
1483718807.777,41.992,44.922,34.180,12.695,29.785,0
1483718807.781,46.875,51.758,43.945,26.855,14.648,0
1483718807.785,51.270,11.719,38.574,43.945,8.789,0
1483718807.789,53.711,10.254,42.969,57.617,23.926,0
1483718807.793,79.102,75.684,63.477,86.426,47.852,0
1483718807.796,81.543,63.965,72.266,84.961,46.875,0
1483718807.800,72.754,43.945,64.453,79.102,26.855,0
1483718807.804,58.594,63.965,58.594,66.895,11.719,0
1483718807.808,48.340,42.969,62.012,57.129,39.551,0
1483718807.812,63.965,28.320,63.477,73.242,60.059,0
1483718807.816,58.594,40.039,68.848,66.406,8.789,0
1483718807.820,42.969,41.992,75.684,61.523,1.465,0
1483718807.824,51.758,50.293,76.660,89.844,42.480,0
1483718807.828,54.688,54.199,66.895,100.098,23.438,0
1483718807.832,54.199,47.363,55.664,96.191,2.930,0
1483718807.835,55.664,18.066,53.711,93.262,8.301,0
1483718807.839,57.617,-1.953,57.617,92.285,13.184,0
1483718807.843,60.547,30.273,71.777,88.379,21.973,0
1483718807.847,52.246,34.668,68.359,79.102,-14.160,0
1483718807.851,36.621,25.879,46.875,73.242,-34.668,0
1483718807.855,39.551,36.133,47.363,70.801,29.785,0
1483718807.859,54.688,81.543,55.664,66.895,43.945,0
1483718807.863,59.570,78.125,48.828,69.336,15.137,0
1483718807.867,43.945,37.598,36.133,74.707,7.812,0
1483718807.871,41.504,20.996,39.551,80.566,24.902,0
1483718807.875,50.781,0.488,53.223,76.172,35.645,0
1483718807.878,48.828,26.855,53.223,53.711,16.113,0
1483718807.882,46.875,47.363,50.293,56.152,18.555,0
1483718807.886,59.082,54.199,40.527,94.238,39.062,0
1483718807.890,65.918,71.777,36.621,94.238,20.508,0
1483718807.894,60.059,75.195,48.340,94.727,9.766,0
1483718807.898,62.012,58.594,45.898,106.445,-9.766,0
1483718807.902,69.824,49.805,49.316,111.816,-13.672,0
1483718807.906,59.082,38.574,45.898,92.285,29.785,0
1483718807.910,46.875,19.043,33.691,64.941,15.137,0
1483718807.914,56.641,9.277,43.457,59.570,0.488,0
1483718807.918,58.594,16.113,53.223,53.223,44.434,0
1483718807.921,51.270,27.344,56.152,57.617,48.828,0
1483718807.925,42.480,-9.766,53.223,61.523,22.461,0
1483718807.929,44.434,2.930,47.852,53.711,7.324,0
1483718807.933,39.551,51.758,43.457,52.734,18.066,0
1483718807.937,42.480,66.895,45.898,51.758,6.836,0
1483718807.941,52.734,51.758,50.293,64.941,5.371,0
1483718807.945,42.480,30.273,49.805,62.012,53.711,0
1483718807.949,31.250,40.527,45.410,46.875,32.715,0
1483718807.953,29.785,27.344,43.457,42.969,-8.789,0
1483718807.957,36.621,27.344,48.340,54.199,5.371,0
1483718807.960,34.668,49.805,50.293,62.500,34.180,0
1483718807.964,26.367,38.574,50.781,55.176,8.301,0
1483718807.968,31.738,26.367,61.035,52.734,-22.949,0
1483718807.972,36.621,-0.488,34.668,51.270,24.414,0
1483718807.976,40.039,-11.719,21.973,46.387,42.969,0
1483718807.980,42.969,33.203,39.551,36.133,-1.465,0
1483718807.984,34.668,54.199,33.203,26.855,-11.230,0
1483718807.988,29.297,43.945,28.320,23.438,21.484,0
1483718807.992,20.508,45.898,28.809,22.461,40.527,0
1483718807.996,21.484,53.223,33.203,40.527,27.344,0
1483718808.000,24.902,43.457,39.062,36.133,-6.836,0
1483718808.003,32.715,41.992,41.016,23.438,-5.371,0
1483718808.007,41.504,39.551,43.945,23.926,33.691,0
1483718808.011,29.785,38.574,41.504,6.836,46.387,0
1483718808.015,28.320,20.020,24.902,23.926,17.090,0
1483718808.019,37.598,28.809,16.602,49.805,11.719,0
1483718808.023,33.691,37.109,25.879,40.039,49.805,0
1483718808.027,36.621,14.160,21.484,29.785,20.508,0
1483718808.031,41.016,11.230,24.414,21.484,-7.324,0
1483718808.035,26.855,22.949,25.879,20.508,-0.488,0
1483718808.039,31.738,40.039,17.578,23.438,9.277,0
1483718808.043,32.227,46.387,29.785,28.809,26.367,0
1483718808.046,21.973,29.785,36.133,21.484,25.391,0
1483718808.050,18.066,18.066,27.344,-10.254,39.551,0
1483718808.054,18.555,39.551,31.250,0.977,38.574,0
1483718808.058,27.344,38.574,39.551,27.344,14.648,0
1483718808.062,23.438,35.156,40.039,27.832,3.418,0
1483718808.066,15.625,19.043,38.574,22.461,23.438,0
1483718808.070,17.578,8.789,39.551,37.109,34.180,0
1483718808.074,24.414,30.273,44.434,41.504,10.742,0
1483718808.078,29.297,42.969,44.434,32.227,6.836,0
1483718808.082,20.508,21.973,46.875,33.203,-3.418,0
1483718808.085,16.602,-11.230,40.039,40.039,3.418,0
1483718808.089,27.344,-13.672,46.875,56.641,-16.113,0
1483718808.093,9.277,-25.879,53.223,40.039,34.180,0
1483718808.097,-3.418,8.301,43.457,23.926,67.383,0
1483718808.101,16.113,48.340,37.109,40.039,1.953,0
1483718808.105,17.090,23.438,36.133,34.180,18.555,0
1483718808.109,3.418,20.020,32.715,16.113,73.242,0
1483718808.113,6.348,44.434,32.227,20.020,62.500,0
1483718808.117,15.137,23.926,46.875,33.203,27.344,0
1483718808.121,5.371,11.719,47.852,28.809,10.254,0
1483718808.125,16.113,31.250,33.203,36.621,38.086,0
1483718808.128,26.367,33.203,36.621,39.551,30.762,0
1483718808.132,22.949,48.340,37.598,42.969,-21.973,0
1483718808.136,32.715,47.852,22.949,58.594,-19.531,0
1483718808.140,28.809,40.039,20.508,41.992,33.691,0
1483718808.144,21.484,33.691,28.809,33.203,32.227,0
1483718808.148,27.832,15.137,26.855,51.758,-6.836,0
1483718808.152,34.180,16.113,23.926,62.012,12.695,0
1483718808.156,28.809,49.805,27.344,48.828,33.691,0
1483718808.160,24.414,17.090,21.973,31.738,57.617,0
1483718808.164,34.668,4.883,30.273,32.715,39.062,0
1483718808.168,43.457,61.035,42.480,41.992,8.789,0
1483718808.171,28.320,75.195,48.828,42.480,41.992,0
1483718808.175,21.973,49.805,43.457,41.992,48.828,0
1483718808.179,31.738,40.039,31.738,41.992,5.371,0
1483718808.183,19.531,28.320,34.180,20.996,-10.742,0
1483718808.187,17.090,13.672,22.461,14.160,43.457,0
1483718808.191,21.484,7.812,23.926,27.832,64.453,0
1483718808.195,24.902,4.395,45.410,38.574,45.898,0
1483718808.199,26.855,32.227,52.734,63.965,28.320,0
1483718808.203,20.996,40.039,55.176,55.176,23.926,0
1483718808.207,14.160,25.391,54.199,46.875,29.297,0
1483718808.210,18.555,25.879,49.805,62.500,38.086,0
1483718808.214,29.297,21.484,59.570,60.059,24.902,0
1483718808.218,35.645,-12.207,52.734,47.852,-1.953,0
1483718808.222,30.762,3.418,38.574,45.410,43.945,0
1483718808.226,26.855,-0.488,33.203,37.598,49.316,0
1483718808.230,33.203,1.953,41.504,20.020,6.348,0
1483718808.234,45.410,62.500,43.457,30.273,23.926,0
1483718808.238,45.410,51.758,31.738,43.457,3.418,0
1483718808.242,53.223,36.133,35.156,32.715,11.230,0
1483718808.246,61.035,32.715,41.016,40.527,54.199,0
1483718808.250,58.105,55.664,45.898,57.617,28.809,0
1483718808.253,55.664,78.125,51.270,40.039,3.418,0
1483718808.257,46.387,37.109,42.969,29.297,38.086,0
1483718808.261,41.992,8.789,36.133,31.738,57.617,0
1483718808.265,38.086,19.531,29.785,25.391,-15.625,0
1483718808.269,39.062,47.852,19.531,25.391,-30.762,0
1483718808.273,35.645,46.387,28.809,29.297,39.551,0
1483718808.277,26.367,16.602,38.086,27.832,41.992,0
1483718808.281,32.227,26.855,35.156,34.180,-7.324,0
1483718808.285,42.480,45.410,45.410,41.992,-11.719,0
1483718808.289,42.480,26.367,47.852,41.504,58.594,0
1483718808.293,47.363,5.371,35.156,25.391,68.359,0
1483718808.296,34.668,12.695,41.992,5.371,17.578,0
1483718808.300,37.109,68.359,49.316,15.137,-20.996,0
1483718808.304,40.527,83.496,42.480,9.277,-2.930,0
1483718808.308,31.250,50.293,27.344,11.230,56.152,0
1483718808.312,36.621,39.062,18.555,30.273,49.316,0
1483718808.316,36.621,50.781,21.973,26.855,12.695,0
1483718808.320,28.809,44.922,29.785,14.160,14.648,0
1483718808.324,31.738,34.180,29.297,17.090,37.109,0
1483718808.328,23.438,38.086,22.461,12.207,9.277,0
1483718808.332,28.320,5.859,34.180,20.020,-29.297,0
1483718808.335,45.898,8.301,38.086,39.551,22.949,0
1483718808.339,51.270,37.109,45.898,27.832,50.293,0
1483718808.343,34.668,29.785,56.152,21.973,10.254,0
1483718808.347,14.160,37.598,31.250,23.926,3.418,0
1483718808.351,19.531,13.184,20.996,20.508,13.672,0
1483718808.355,16.602,8.301,30.762,11.719,-2.441,0
1483718808.359,15.625,34.668,33.691,16.113,18.066,0
1483718808.363,25.879,14.160,37.109,33.691,30.273,0
1483718808.367,26.855,-4.883,41.504,22.461,29.785,0
1483718808.371,21.484,0.000,41.504,-7.812,7.812,0
1483718808.375,32.227,29.297,49.316,0.000,-33.203,0
1483718808.378,37.109,47.852,39.551,20.508,6.836,0
1483718808.382,20.996,36.133,26.855,33.203,14.648,0
1483718808.386,21.484,45.898,38.574,47.363,-6.836,0
1483718808.390,39.551,58.594,43.457,38.086,-12.695,0
1483718808.394,52.734,29.785,35.645,38.574,-8.789,0
1483718808.398,43.457,-30.762,30.762,32.227,-12.695,0
1483718808.402,37.109,-29.785,27.344,20.508,-1.465,0
1483718808.406,51.270,19.531,28.320,29.297,28.320,0
1483718808.410,59.082,58.105,32.715,38.574,24.414,0
1483718808.414,62.012,62.988,30.762,36.133,21.973,0
1483718808.418,52.734,54.199,26.367,29.785,1.953,0
1483718808.421,48.340,27.344,25.391,45.410,-6.348,0
1483718808.425,53.223,22.949,34.180,51.758,41.504,0
1483718808.429,53.711,70.312,46.387,42.480,35.645,0
1483718808.433,47.363,65.918,41.016,30.762,-1.465,0
1483718808.437,44.434,55.664,31.250,29.297,18.066,0
1483718808.441,46.875,38.086,35.645,30.273,58.105,0
1483718808.445,42.480,0.488,37.598,24.414,63.965,0
1483718808.449,34.668,15.625,30.273,18.066,40.527,0
1483718808.453,30.273,37.109,30.762,16.113,44.922,0
1483718808.457,35.156,45.898,42.969,22.949,60.547,0
1483718808.460,41.016,6.348,59.082,40.039,56.641,0
1483718808.464,32.715,-19.043,54.688,41.016,-13.184,0
1483718808.468,26.855,17.578,46.387,18.555,-6.348,0
1483718808.472,35.156,37.109,42.480,32.715,44.922,0
1483718808.476,33.203,43.457,44.434,42.480,25.391,0
1483718808.480,22.949,59.570,48.340,30.762,37.109,0
1483718808.484,31.250,56.641,46.387,35.156,43.457,0
1483718808.488,35.645,41.504,45.410,24.414,53.711,0
1483718808.492,27.832,27.832,34.668,26.855,42.969,0
1483718808.496,17.090,11.719,25.879,27.832,42.969,0
1483718808.500,14.648,14.648,27.344,23.926,49.805,0
1483718808.503,26.855,36.621,29.785,32.715,38.574,0
1483718808.507,31.250,17.578,28.320,23.926,31.738,0
1483718808.511,24.902,6.836,25.879,9.766,14.160,0
1483718808.515,27.344,44.434,27.344,15.137,62.500,0
1483718808.519,39.551,27.344,34.180,35.645,61.035,0
1483718808.523,35.156,19.043,46.387,39.551,61.035,0
1483718808.527,25.391,59.082,33.203,24.414,83.496,0
1483718808.531,30.273,47.363,21.973,33.203,50.781,0
1483718808.535,22.461,38.086,32.227,40.527,44.434,0
1483718808.539,26.367,38.574,36.133,39.551,71.777,0
1483718808.543,24.414,16.113,32.715,23.438,68.359,0
1483718808.546,23.438,26.855,23.438,23.926,39.551,0
1483718808.550,27.832,38.574,26.855,39.551,12.695,0
1483718808.554,23.438,44.434,30.762,35.156,-8.301,0
1483718808.558,27.832,29.785,30.762,28.320,23.926,0
1483718808.562,33.203,15.625,32.227,28.320,36.133,0
1483718808.566,32.227,34.668,41.016,42.480,20.996,0
1483718808.570,24.902,43.457,35.645,39.062,5.859,0
1483718808.574,20.996,46.387,20.996,19.531,42.480,0
1483718808.578,21.484,33.691,21.973,14.648,65.918,0
1483718808.582,28.809,34.180,25.391,33.203,12.695,0
1483718808.585,34.180,38.086,31.250,44.922,19.043,0
1483718808.589,29.785,35.156,40.527,31.250,41.504,0
1483718808.593,21.973,46.387,32.227,25.391,36.621,0
1483718808.597,12.695,29.785,14.648,29.785,32.227,0
1483718808.601,16.113,24.414,17.090,16.602,-6.348,0
1483718808.605,15.625,46.875,18.555,11.719,24.414,0
1483718808.609,18.555,33.203,23.926,23.926,62.500,0
1483718808.613,35.645,12.695,32.715,28.809,-0.488,0
1483718808.617,31.738,13.672,29.785,19.043,-13.184,0
1483718808.621,15.625,10.254,37.109,19.531,15.625,0
1483718808.625,13.184,21.484,45.898,32.715,52.734,0
1483718808.628,27.344,41.992,34.668,33.691,24.414,0
1483718808.632,36.133,12.695,31.738,26.855,-5.859,0
1483718808.636,28.809,-7.324,37.598,18.555,38.086,0
1483718808.640,22.949,-3.418,41.504,22.949,40.039,0
1483718808.644,23.926,23.926,42.969,21.973,27.832,0
1483718808.648,19.531,53.223,32.715,19.043,29.297,0
1483718808.652,22.461,53.711,27.344,34.180,27.344,0
1483718808.656,25.879,51.270,33.203,39.062,40.527,0
1483718808.660,30.273,48.340,42.480,31.738,20.508,0
1483718808.664,28.320,43.457,37.598,20.996,8.789,0
1483718808.668,28.809,49.316,39.062,8.789,44.922,0
1483718808.671,34.668,45.898,39.062,10.254,55.176,0
1483718808.675,30.762,21.973,28.320,30.273,52.734,0
1483718808.679,43.945,14.160,26.367,41.016,68.359,0
1483718808.683,44.922,29.297,24.902,36.621,38.086,0
1483718808.687,39.062,11.719,28.320,42.969,22.949,0
1483718808.691,42.969,20.996,38.574,35.645,48.828,0
1483718808.695,48.340,37.109,38.086,26.855,38.574,0
1483718808.699,49.316,34.180,32.715,45.410,19.531,0
1483718808.703,40.039,20.996,44.922,61.035,5.371,0
1483718808.707,42.480,5.371,51.270,47.852,6.348,0
1483718808.710,37.109,35.156,43.457,45.898,44.922,0
1483718808.714,33.691,22.949,37.109,39.062,37.598,0
1483718808.718,41.016,5.371,32.715,40.039,-0.488,0
1483718808.722,32.715,33.203,47.852,28.320,7.324,0
1483718808.726,24.902,50.293,52.734,15.137,35.156,0
1483718808.730,36.133,25.391,38.574,41.504,26.367,0
1483718808.734,43.945,7.812,37.109,37.598,7.324,0
1483718808.738,31.250,16.602,43.945,23.438,7.324,0
1483718808.742,25.879,20.996,49.805,20.508,47.363,0
1483718808.746,33.691,21.973,56.641,20.020,34.668,0
1483718808.750,23.926,18.555,52.734,27.832,-34.668,0
1483718808.753,21.484,18.066,47.363,19.531,9.277,0
1483718808.757,26.855,15.137,50.781,23.926,85.449,0
1483718808.761,28.320,19.043,49.316,38.086,66.406,0
1483718808.765,32.227,10.742,44.434,20.508,36.133,0
1483718808.769,20.020,-0.977,47.852,15.625,11.719,0
1483718808.773,13.672,22.949,56.152,33.691,23.926,0
1483718808.777,14.160,14.648,62.500,32.227,44.434,0
1483718808.781,22.949,3.418,54.199,35.156,39.551,0
1483718808.785,24.414,19.531,40.039,36.621,34.180,0
1483718808.789,8.301,19.531,37.109,27.344,11.719,0
1483718808.793,12.695,4.395,42.969,27.832,-2.441,0
1483718808.796,21.973,2.441,51.270,32.227,13.672,0
1483718808.800,17.578,6.836,53.223,10.742,21.973,0
1483718808.804,6.348,23.926,50.293,0.000,27.344,0
1483718808.808,9.766,7.324,41.504,17.090,29.297,0
1483718808.812,23.438,1.953,43.457,21.973,12.207,0
1483718808.816,29.785,51.758,42.480,37.109,12.695,0
1483718808.820,24.414,53.711,36.621,35.645,29.785,0
1483718808.824,8.789,20.508,34.668,24.902,22.949,0
1483718808.828,6.348,11.230,35.645,24.902,17.578,0
1483718808.832,17.090,11.719,45.410,37.109,37.598,0
1483718808.835,14.648,18.066,46.875,32.715,33.691,0
1483718808.839,19.531,27.832,42.969,16.113,15.137,0
1483718808.843,32.227,19.043,48.340,19.043,44.434,0
1483718808.847,34.180,29.785,49.316,18.066,47.363,0
1483718808.851,31.738,42.969,58.594,33.691,0.488,0
1483718808.855,27.344,6.348,63.965,37.109,-19.531,0
1483718808.859,26.855,6.348,52.246,30.273,7.324,0
1483718808.863,30.273,19.531,45.898,23.926,35.645,0
1483718808.867,32.227,8.789,41.504,21.484,15.625,0
1483718808.871,41.504,45.410,35.156,25.391,5.859,0
1483718808.875,40.039,33.691,32.715,36.133,53.711,0
1483718808.878,48.340,10.742,44.922,46.387,35.156,0
1483718808.882,57.129,62.012,55.176,56.641,-20.508,0
1483718808.886,48.340,71.289,48.828,67.383,-12.695,0
1483718808.890,36.621,37.109,45.410,51.758,44.434,0
1483718808.894,31.250,26.367,45.410,53.223,66.406,0
1483718808.898,37.598,40.039,44.922,67.383,40.039,0
1483718808.902,47.363,48.340,51.758,78.613,33.203,0
1483718808.906,43.457,31.250,47.852,80.078,40.039,0
1483718808.910,41.504,17.090,48.828,76.172,20.020,0
1483718808.914,45.898,32.227,52.246,60.059,-13.672,0
1483718808.918,38.086,36.133,46.875,42.969,-3.418,0
1483718808.921,39.551,32.715,57.617,53.711,35.156,0
1483718808.925,38.574,40.527,56.152,46.875,20.020,0
1483718808.929,35.645,30.762,43.457,33.691,-41.504,0
1483718808.933,33.203,12.207,41.504,45.410,-23.438,0
1483718808.937,32.715,25.879,40.039,32.715,24.902,0
1483718808.941,37.109,70.312,44.434,29.297,17.578,0
1483718808.945,36.133,47.363,58.105,43.945,20.508,0
1483718808.949,35.645,33.203,53.711,28.809,57.129,0
1483718808.953,38.086,55.664,39.551,35.645,57.617,0
1483718808.957,39.062,43.945,43.457,62.012,38.574,0
1483718808.960,37.598,26.367,42.969,54.688,26.855,0
1483718808.964,43.945,30.762,37.109,41.992,14.648,0
1483718808.968,44.434,45.410,37.109,40.527,32.227,0
1483718808.972,42.480,55.176,51.270,50.781,54.688,0
1483718808.976,52.734,46.387,60.059,64.941,28.809,0
1483718808.980,59.082,2.930,45.410,47.852,32.227,0
1483718808.984,62.012,-4.395,41.992,42.480,53.223,0
1483718808.988,77.637,41.016,51.270,69.336,39.551,0
1483718808.992,70.801,40.039,31.250,67.871,38.574,0
1483718808.996,60.547,17.090,27.832,65.430,38.574,0
1483718809.000,69.824,23.926,40.527,75.684,26.367,0
1483718809.003,72.754,51.270,41.504,76.172,21.484,0
1483718809.007,73.730,69.336,45.410,73.730,32.227,0
1483718809.011,72.266,56.152,38.086,63.477,30.762,0
1483718809.015,58.105,40.527,38.086,47.852,16.113,0
1483718809.019,60.059,41.992,40.039,43.945,19.043,0
1483718809.023,71.777,34.180,34.668,44.922,41.504,0
1483718809.027,64.941,40.527,33.691,56.641,31.738,0
1483718809.031,67.871,63.477,40.039,50.781,2.441,0
1483718809.035,63.477,51.758,50.781,43.457,-2.441,0
1483718809.039,44.922,4.883,44.434,45.410,-9.766,0
1483718809.043,37.598,10.254,42.480,33.691,30.273,0
1483718809.046,27.344,20.020,47.363,20.508,39.551,0
1483718809.050,28.809,6.836,44.434,34.180,0.488,0
1483718809.054,44.434,49.316,51.270,52.246,36.621,0
1483718809.058,46.875,63.477,59.570,43.457,71.777,0
1483718809.062,32.715,27.832,35.156,32.227,31.738,0
1483718809.066,26.367,17.090,18.066,34.180,-0.977,0
1483718809.070,30.273,24.902,35.645,36.133,33.691,0
1483718809.074,22.461,30.273,37.598,39.062,22.461,0
1483718809.078,28.320,55.664,31.738,46.387,8.301,0
1483718809.082,36.621,48.340,38.574,45.410,5.859,0
1483718809.085,33.691,10.742,35.645,50.293,0.000,0
1483718809.089,36.133,30.273,36.133,51.270,18.555,0
1483718809.093,42.480,61.035,41.992,49.316,23.438,0
1483718809.097,39.062,47.852,41.016,55.176,18.555,0
1483718809.101,41.504,6.836,38.574,49.805,25.879,0
1483718809.105,47.852,-0.488,32.227,46.875,47.852,0
1483718809.109,51.270,42.480,22.949,57.129,64.941,0
1483718809.113,50.781,56.152,27.344,69.824,42.480,0
1483718809.117,62.500,65.918,41.016,73.730,20.508,0
1483718809.121,58.105,65.918,34.668,57.617,51.270,0
1483718809.125,43.457,37.598,29.785,37.109,35.645,0
1483718809.128,55.176,24.902,35.156,31.250,-13.184,0
1483718809.132,58.105,51.270,33.203,35.156,-11.719,0
1483718809.136,57.617,54.199,29.297,33.691,19.043,0
1483718809.140,51.270,27.344,33.203,18.555,42.969,0
1483718809.144,40.527,18.555,34.180,30.762,18.555,0
1483718809.148,38.086,0.000,34.668,44.434,22.949,0
1483718809.152,29.785,15.137,39.551,27.344,18.066,0
1483718809.156,35.645,49.316,29.297,25.879,7.324,0
1483718809.160,35.156,59.082,33.691,22.461,33.203,0
1483718809.164,25.391,29.785,45.410,13.672,15.625,0
1483718809.168,26.367,-8.301,30.762,11.719,-3.906,0
1483718809.171,29.785,29.785,35.156,13.184,12.695,0
1483718809.175,35.156,48.828,52.734,15.625,33.203,0
1483718809.179,21.484,53.223,57.129,14.160,23.926,0
1483718809.183,10.254,32.227,43.945,18.555,31.250,0
1483718809.187,27.344,8.789,36.133,16.113,26.367,0
1483718809.191,26.367,19.043,52.246,13.672,72.266,0
1483718809.195,18.555,25.391,51.270,23.926,77.148,0
1483718809.199,28.320,24.902,41.504,28.320,19.531,0
1483718809.203,33.691,-8.301,36.133,35.645,13.184,0
1483718809.207,41.016,2.441,41.992,44.434,41.504,0
1483718809.210,40.527,57.617,59.570,46.875,55.176,0
1483718809.214,34.668,40.039,58.105,37.109,22.461,0
1483718809.218,42.969,12.695,49.805,42.480,19.531,0
1483718809.222,52.246,31.738,40.039,48.828,55.176,0
1483718809.226,46.875,0.488,45.410,46.875,34.668,0
1483718809.230,41.992,-19.531,50.293,44.922,53.223,0
1483718809.234,48.828,50.781,55.176,52.246,58.105,0
1483718809.238,43.945,79.102,52.734,64.941,62.012,0
1483718809.242,36.621,67.383,40.039,51.758,54.199,0
1483718809.246,38.086,62.012,37.598,41.016,15.137,0
1483718809.250,38.574,44.922,26.855,35.645,10.254,0
1483718809.253,41.992,57.129,30.273,24.902,9.766,0
1483718809.257,45.410,72.754,35.645,15.137,1.953,0
1483718809.261,40.039,67.383,30.762,25.391,-6.348,0
1483718809.265,42.969,74.219,26.367,23.926,30.273,0
1483718809.269,45.410,58.105,20.508,22.949,48.828,0
1483718809.273,46.387,-6.836,15.137,34.180,49.316,0
1483718809.277,57.129,5.859,20.508,33.691,27.832,0
1483718809.281,61.035,59.082,24.414,36.621,0.488,0
1483718809.285,49.805,65.918,13.184,22.949,28.320,0
1483718809.289,41.504,68.359,10.742,5.371,42.480,0
1483718809.293,45.410,86.914,19.531,23.926,51.758,0
1483718809.296,42.480,93.750,28.809,52.246,80.566,0
1483718809.300,33.691,79.590,27.344,43.945,55.664,0
1483718809.304,41.992,82.031,15.625,24.902,20.020,0
1483718809.308,53.711,48.828,19.531,25.879,28.809,0
1483718809.312,54.199,38.086,21.973,40.527,51.758,0
1483718809.316,47.363,70.801,31.250,21.973,17.578,0
1483718809.320,46.875,73.730,29.785,14.648,0.977,0
1483718809.324,28.809,69.824,25.879,17.090,41.016,0
1483718809.328,15.625,41.016,13.672,7.812,69.336,0
1483718809.332,41.992,22.949,7.324,8.789,41.992,0
1483718809.335,50.293,64.941,20.996,0.000,8.789,0
1483718809.339,35.156,86.426,18.066,-5.859,37.109,0
1483718809.343,31.738,71.777,14.160,12.695,63.477,0
1483718809.347,28.809,49.316,22.461,17.090,23.926,0
1483718809.351,24.414,43.457,22.949,18.555,-10.254,0
1483718809.355,26.367,50.293,24.902,20.996,20.508,0
1483718809.359,20.508,61.523,27.832,15.625,50.781,0
1483718809.363,20.508,62.012,23.438,4.883,12.695,0
1483718809.367,18.555,30.762,18.555,-11.719,-6.836,0
1483718809.371,18.555,16.113,35.156,2.930,32.715,0
1483718809.375,41.016,54.199,59.570,34.180,45.410,0
1483718809.378,26.855,70.312,35.645,20.996,23.926,0
1483718809.382,12.207,61.523,11.719,9.277,-8.301,0
1483718809.386,25.879,54.688,19.043,22.949,3.906,0
1483718809.390,27.832,48.828,23.926,21.484,29.785,0
1483718809.394,28.809,53.711,25.879,23.438,26.855,0
1483718809.398,32.227,28.320,32.715,16.113,18.555,0
1483718809.402,38.574,33.203,32.715,21.484,20.020,0
1483718809.406,35.156,56.152,32.715,44.434,37.109,0
1483718809.410,38.086,42.969,30.762,51.270,16.113,0
1483718809.414,41.992,46.875,27.344,49.316,0.488,0
1483718809.418,39.062,56.152,34.668,33.203,25.879,0
1483718809.421,35.156,55.664,32.715,34.180,33.203,0
1483718809.425,44.434,55.664,33.691,41.504,24.414,0
1483718809.429,51.758,62.012,35.645,36.133,3.906,0
1483718809.433,41.016,45.898,23.926,33.691,20.020,0
1483718809.437,37.598,22.461,28.320,41.992,33.691,0
1483718809.441,37.109,34.180,35.645,34.668,22.461,0
1483718809.445,32.227,49.805,28.809,-1.953,30.273,0
1483718809.449,36.133,50.293,31.738,-0.977,30.762,0
1483718809.453,41.992,63.965,40.039,21.973,4.395,0
1483718809.457,37.109,62.500,44.922,29.785,0.488,0
1483718809.460,27.344,35.156,41.016,13.672,44.922,0
1483718809.464,20.020,32.227,34.180,15.137,23.926,0
1483718809.468,10.742,44.922,31.738,18.555,-0.977,0
1483718809.472,11.719,43.457,35.156,9.766,22.949,0
1483718809.476,8.789,34.180,34.668,1.465,49.805,0
1483718809.480,11.719,57.617,41.016,-9.766,25.391,0
1483718809.484,18.555,52.734,42.480,-9.766,23.926,0
1483718809.488,16.113,6.836,27.832,-12.207,29.785,0
1483718809.492,9.277,13.672,22.461,-8.301,30.273,0
1483718809.496,3.906,32.227,23.926,-0.977,40.039,0
1483718809.500,7.324,27.344,25.391,15.625,1.953,0
1483718809.503,17.090,35.156,31.250,30.273,37.109,0
1483718809.507,31.250,49.316,37.598,25.391,78.613,0
1483718809.511,31.250,59.570,39.062,27.344,24.902,0
1483718809.515,24.902,56.152,38.086,12.207,-7.324,0
1483718809.519,24.414,56.152,41.504,19.043,1.465,0
1483718809.523,25.879,76.172,38.574,61.035,16.602,0
1483718809.527,27.832,51.270,28.320,43.945,28.320,0
1483718809.531,39.062,16.602,24.902,11.230,15.625,0
1483718809.535,44.922,30.273,19.531,19.531,6.348,0
1483718809.539,39.062,53.223,25.879,38.574,42.480,0
1483718809.543,51.270,62.988,41.504,47.363,40.527,0
1483718809.546,46.875,51.758,39.551,34.668,11.230,0
1483718809.550,32.227,41.504,29.297,28.809,27.344,0
1483718809.554,42.969,54.199,34.180,39.062,42.480,0
1483718809.558,40.039,53.223,38.574,45.898,31.738,0
1483718809.562,33.203,41.992,34.180,41.016,46.875,0
1483718809.566,42.969,9.277,34.180,38.086,72.266,0
1483718809.570,41.504,20.020,36.133,39.551,50.781,0
1483718809.574,33.691,70.801,38.086,40.527,33.691,0
1483718809.578,34.668,71.777,39.551,51.758,42.480,0
1483718809.582,41.992,64.453,38.574,59.082,24.414,0
1483718809.585,53.223,73.730,46.875,41.016,11.719,0
1483718809.589,43.457,66.895,41.992,20.996,18.555,0
1483718809.593,22.461,59.082,30.273,15.137,28.809,0
1483718809.597,26.367,50.781,22.949,24.902,29.297,0
1483718809.601,38.086,55.664,15.625,25.879,22.949,0
1483718809.605,38.086,70.312,15.625,30.273,53.223,0
1483718809.609,31.738,59.570,25.391,27.344,77.637,0
1483718809.613,29.297,38.086,29.785,25.879,71.289,0
1483718809.617,26.367,23.438,11.230,29.297,4.395,0
1483718809.621,33.691,48.828,14.648,11.719,6.348,0
1483718809.625,38.086,42.480,29.785,9.766,63.477,0
1483718809.628,22.461,28.809,34.180,21.484,52.734,0
1483718809.632,18.066,62.012,37.109,33.691,18.555,0
1483718809.636,24.902,35.645,38.086,33.203,18.066,0
1483718809.640,29.785,31.738,44.922,23.926,48.340,0
1483718809.644,23.438,58.594,41.504,19.531,68.848,0
1483718809.648,21.484,39.551,28.809,24.414,64.453,0
1483718809.652,28.809,2.441,40.039,24.902,50.293,0
1483718809.656,20.508,6.348,39.551,15.137,51.758,0
1483718809.660,22.949,24.414,35.645,28.809,51.758,0
1483718809.664,43.457,40.039,45.898,40.527,47.852,0
1483718809.668,51.270,52.734,42.969,28.809,51.270,0
1483718809.671,42.480,58.105,41.992,33.203,42.480,0
1483718809.675,33.203,45.898,50.293,31.738,18.066,0
1483718809.679,56.152,26.367,54.688,42.480,17.578,0
1483718809.683,57.129,23.926,42.969,47.852,16.602,0
1483718809.687,45.410,12.695,36.621,20.020,32.715,0
1483718809.691,52.246,2.441,38.574,36.621,52.246,0
1483718809.695,58.105,26.855,39.551,56.641,38.574,0
1483718809.699,68.359,52.734,43.457,51.758,34.668,0
1483718809.703,69.824,59.082,43.945,51.270,46.875,0
1483718809.707,73.242,38.574,41.992,58.594,46.387,0
1483718809.710,77.148,30.762,39.062,58.105,15.625,0
1483718809.714,71.289,53.223,39.551,42.480,7.812,0
1483718809.718,64.453,46.875,33.691,37.109,27.344,0
1483718809.722,61.035,41.504,31.738,53.711,41.016,0
1483718809.726,60.059,54.199,41.992,63.965,32.227,0
1483718809.730,58.594,63.477,40.527,65.918,9.766,0
1483718809.734,61.035,50.781,41.992,74.707,18.555,0
1483718809.738,63.477,40.527,52.246,78.125,20.508,0
1483718809.742,55.176,-8.301,50.781,79.102,21.973,0
1483718809.746,42.969,-22.949,48.828,84.473,36.621,0
1483718809.750,41.504,33.203,48.828,75.684,7.812,0
1483718809.753,38.574,35.156,42.480,58.594,22.949,0
1483718809.757,31.250,33.691,46.387,50.781,55.664,0
1483718809.761,23.438,45.410,44.922,51.758,62.012,0
1483718809.765,17.090,31.738,42.480,36.621,41.504,0
1483718809.769,31.738,33.203,48.828,32.227,45.410,0
1483718809.773,36.133,37.109,61.035,51.270,47.852,0
1483718809.777,20.996,15.625,58.105,58.105,34.180,0
1483718809.781,25.391,6.348,50.781,55.664,30.762,0
1483718809.785,29.785,23.438,51.758,43.945,22.949,0
1483718809.789,21.484,22.461,61.035,54.688,39.062,0
1483718809.793,24.902,29.785,65.918,63.965,78.613,0
1483718809.796,30.273,45.898,49.805,45.410,62.500,0
1483718809.800,41.016,46.387,48.340,50.293,18.066,0
1483718809.804,29.785,32.227,52.246,52.246,32.227,0
1483718809.808,1.465,6.348,43.945,39.551,59.082,0
1483718809.812,12.207,17.090,43.457,31.250,47.852,0
1483718809.816,18.066,14.160,49.316,25.879,-12.695,0
1483718809.820,17.578,5.859,45.410,33.691,1.953,0
1483718809.824,33.203,27.344,47.363,69.824,80.566,0
1483718809.828,30.273,36.621,52.734,59.570,49.316,0
1483718809.832,31.250,20.020,47.852,40.039,20.020,0
1483718809.835,37.598,24.902,46.875,43.457,50.781,0
1483718809.839,34.180,44.922,44.434,37.598,43.945,0
1483718809.843,20.996,11.719,40.039,43.945,34.180,0
1483718809.847,19.043,-5.859,41.992,48.340,54.199,0
1483718809.851,26.855,2.441,44.434,41.992,60.059,0
1483718809.855,27.832,23.438,46.387,42.969,44.922,0
1483718809.859,28.320,46.875,41.504,44.922,36.133,0
1483718809.863,22.949,44.434,38.574,48.828,26.855,0
1483718809.867,28.809,51.270,46.875,60.547,20.508,0
1483718809.871,37.598,53.711,44.434,38.574,12.207,0
1483718809.875,31.738,41.504,35.645,18.066,15.137,0
1483718809.878,26.855,28.320,33.203,40.039,13.184,0
1483718809.882,36.133,21.484,29.297,53.223,9.277,0
1483718809.886,34.668,28.320,21.973,37.598,39.551,0
1483718809.890,33.203,33.203,22.949,43.945,42.480,0
1483718809.894,42.480,17.578,33.691,77.637,28.320,0
1483718809.898,50.781,35.156,31.738,84.473,22.949,0
1483718809.902,45.898,74.219,35.645,32.227,40.527,0
1483718809.906,30.762,59.082,46.387,11.719,63.965,0
1483718809.910,44.922,27.832,35.156,37.598,42.480,0
1483718809.914,46.387,18.555,32.227,39.551,24.902,0
1483718809.918,33.691,25.391,35.156,27.832,4.395,0
1483718809.921,32.227,17.090,38.086,37.598,46.387,0
1483718809.925,33.691,9.766,38.574,39.551,62.012,0
1483718809.929,41.504,23.926,30.762,40.527,17.090,0
1483718809.933,34.180,34.668,34.668,30.762,-0.977,0
1483718809.937,26.367,40.039,34.668,26.855,40.527,0
1483718809.941,28.320,33.691,32.715,35.156,78.613,0
1483718809.945,32.227,45.898,37.109,39.551,40.039,0
1483718809.949,19.043,41.504,35.645,37.598,60.059,0
1483718809.953,19.531,26.367,39.062,26.855,73.730,0
1483718809.957,28.809,38.086,41.504,31.738,49.316,0
1483718809.960,28.320,27.344,45.898,41.504,55.664,0
1483718809.964,30.273,41.992,50.293,30.273,29.297,0
1483718809.968,20.020,58.594,40.527,29.785,38.086,0
1483718809.972,24.902,45.898,40.039,37.109,71.777,0
1483718809.976,20.020,25.879,41.016,38.086,73.730,0
1483718809.980,22.949,11.230,34.180,31.250,42.480,0
1483718809.984,33.203,6.836,30.762,28.809,44.922,0
1483718809.988,29.297,34.668,32.227,30.762,73.242,0
1483718809.992,11.230,46.875,40.039,35.645,88.379,0
1483718809.996,4.395,45.410,30.762,67.871,67.871,0
1483718810.000,20.508,43.457,14.160,64.453,45.898,0
1483718810.003,19.043,37.109,20.020,30.762,43.945,0
1483718810.007,18.066,48.828,33.691,22.949,36.621,0
1483718810.011,32.227,56.641,27.344,35.645,47.363,0
1483718810.015,43.457,41.504,26.855,45.898,47.852,0
1483718810.019,38.574,27.832,33.203,35.156,34.180,0
1483718810.023,50.293,46.875,33.203,22.949,45.898,0
1483718810.027,47.852,46.875,41.016,27.832,65.430,0
1483718810.031,25.391,50.781,39.551,48.340,74.707,0
1483718810.035,30.273,58.594,27.344,57.129,40.527,0
1483718810.039,34.668,38.086,23.926,57.129,48.340,0
1483718810.043,40.039,21.484,31.250,54.688,73.730,0
1483718810.046,47.852,51.270,34.180,64.453,31.738,0
1483718810.050,53.711,56.641,32.227,62.988,5.371,0
1483718810.054,60.059,41.016,30.273,35.156,30.273,0
1483718810.058,60.547,53.223,32.715,35.645,61.523,0
1483718810.062,44.922,59.570,35.645,48.340,91.797,0
1483718810.066,48.828,45.410,42.969,57.617,71.777,0
1483718810.070,61.523,24.902,49.805,68.848,74.219,0
1483718810.074,51.758,31.250,35.156,49.805,117.676,0
1483718810.078,43.945,34.668,27.344,41.016,101.562,0
1483718810.082,43.457,51.758,40.527,53.711,63.965,0
1483718810.085,48.340,60.059,39.551,63.477,52.246,0
1483718810.089,40.527,43.945,35.156,57.129,71.777,0
1483718810.093,44.434,53.711,40.527,45.898,54.688,0
1483718810.097,53.711,54.199,36.621,28.809,23.926,0
1483718810.101,58.594,25.391,39.551,20.508,11.230,0
1483718810.105,56.152,35.156,45.898,14.648,57.129,0
1483718810.109,44.434,81.543,35.156,3.906,95.703,0
1483718810.113,42.969,83.984,33.203,21.973,41.016,0
1483718810.117,40.039,55.176,36.621,15.137,29.297,0
1483718810.121,32.227,24.902,32.227,4.395,73.730,0
1483718810.125,22.949,11.719,43.945,26.367,83.496,0
1483718810.128,27.344,27.344,53.711,17.578,57.617,0
1483718810.132,33.203,30.273,33.691,5.859,45.898,0
1483718810.136,35.645,18.555,32.715,31.738,50.293,0
1483718810.140,41.016,28.809,42.969,48.828,58.105,0
1483718810.144,36.621,34.180,45.410,28.809,20.508,0
1483718810.148,36.133,-1.465,50.293,17.090,-4.395,0
1483718810.152,36.133,28.320,40.039,24.902,42.969,0
1483718810.156,38.086,85.449,44.922,21.484,57.129,0
1483718810.160,33.203,69.336,48.340,18.555,14.648,0
1483718810.164,16.602,45.898,27.832,27.832,23.438,0
1483718810.168,20.996,41.504,24.902,31.738,45.898,0
1483718810.171,29.785,30.273,40.039,28.809,55.664,0
1483718810.175,34.180,36.133,38.086,24.414,79.590,0
1483718810.179,21.484,53.223,29.785,15.137,81.055,0
1483718810.183,8.789,37.598,36.621,9.766,58.594,0
1483718810.187,18.066,23.926,37.598,21.484,22.949,0
1483718810.191,19.531,32.227,34.668,30.762,52.734,0
1483718810.195,21.484,34.180,34.668,37.598,79.102,0
1483718810.199,21.484,15.137,39.062,27.344,49.316,0
1483718810.203,10.742,23.926,45.410,-1.953,17.578,0
1483718810.207,26.855,44.434,43.457,1.465,38.574,0
1483718810.210,35.156,40.039,37.109,17.090,70.312,0
1483718810.214,21.973,42.969,39.062,7.812,63.965,0
1483718810.218,20.020,52.734,42.969,18.066,32.227,0
1483718810.222,15.625,35.645,41.992,16.113,56.641,0
1483718810.226,17.090,20.020,44.434,17.090,98.145,0
1483718810.230,21.973,30.273,44.922,31.738,65.918,0
1483718810.234,12.207,20.020,45.410,23.926,43.457,0
1483718810.238,8.301,12.207,41.504,-1.953,47.363,0
1483718810.242,18.555,33.203,39.551,-10.254,83.496,0
1483718810.246,16.602,42.480,41.016,17.090,62.988,0
1483718810.250,12.695,39.062,40.527,17.578,12.207,0
1483718810.253,15.625,52.734,50.781,13.184,56.641,0
1483718810.257,18.555,58.105,51.758,22.461,108.398,0
1483718810.261,18.555,35.156,50.781,20.508,94.727,0
1483718810.265,20.996,36.133,54.688,29.297,43.457,0
1483718810.269,30.273,64.453,40.527,30.273,49.316,0
1483718810.273,33.203,57.129,41.992,25.391,86.426,0
1483718810.277,25.391,30.762,46.875,19.531,80.566,0
1483718810.281,7.812,-1.953,35.156,14.648,57.129,0
1483718810.285,0.000,-13.184,37.598,37.598,47.363,0
1483718810.289,6.348,21.973,44.922,45.898,77.637,0
1483718810.293,17.578,41.992,42.480,17.090,80.078,0
1483718810.296,18.555,23.926,51.270,9.277,37.598,0
1483718810.300,22.949,24.414,40.527,8.301,79.590,0
1483718810.304,30.273,32.715,36.133,-1.465,87.891,0
1483718810.308,17.090,37.598,45.410,-1.465,48.828,0
1483718810.312,15.137,62.012,45.410,0.488,54.688,0
1483718810.316,30.762,62.012,52.734,0.977,64.453,0
1483718810.320,28.809,32.715,52.734,-19.531,70.801,0
1483718810.324,22.461,41.504,43.945,-10.254,92.285,0
1483718810.328,33.203,36.621,39.551,26.367,82.520,0
1483718810.332,36.621,16.602,48.340,29.785,47.363,0
1483718810.335,46.875,25.879,53.711,25.391,36.621,0
1483718810.339,47.852,50.293,43.457,16.113,56.152,0
1483718810.343,37.109,58.594,50.293,12.695,75.684,0
1483718810.347,46.387,54.688,63.477,31.250,57.617,0
1483718810.351,55.176,58.594,54.688,41.504,29.297,0
1483718810.355,51.270,60.059,57.617,48.340,19.531,0
1483718810.359,53.711,44.434,69.824,55.664,55.664,0
1483718810.363,57.617,36.621,65.430,51.270,51.270,0
1483718810.367,51.270,34.180,67.383,35.156,20.020,0
1483718810.371,47.363,47.852,60.547,22.949,49.805,0
1483718810.375,49.316,55.664,62.988,32.715,94.238,0
1483718810.378,34.668,37.109,68.359,39.551,59.082,0
1483718810.382,33.203,62.012,61.523,49.805,33.203,0
1483718810.386,48.340,73.242,70.801,49.805,52.246,0
1483718810.390,49.316,66.895,82.520,48.340,82.031,0
1483718810.394,49.805,56.152,92.285,55.176,109.375,0
1483718810.398,47.363,18.555,90.820,41.016,97.168,0
1483718810.402,42.969,32.227,89.844,33.203,85.449,0
1483718810.406,44.434,49.805,100.586,34.180,130.371,0
1483718810.410,24.902,32.227,97.168,22.461,117.676,0
1483718810.414,10.254,34.180,80.078,-7.324,83.008,0
1483718810.418,12.207,61.035,74.219,-16.113,96.191,0
1483718810.421,21.973,77.148,75.684,10.742,136.719,0
1483718810.425,28.320,60.059,80.566,36.133,157.227,0
1483718810.429,20.508,46.875,80.566,31.738,117.676,0
1483718810.433,29.297,42.969,94.727,22.461,150.391,0
1483718810.437,35.156,50.293,93.262,26.855,189.453,0
1483718810.441,19.043,41.016,75.684,26.855,201.172,0
1483718810.445,17.578,27.832,80.566,12.207,222.656,0
1483718810.449,32.715,41.992,77.637,16.113,221.680,0
1483718810.453,29.297,54.688,79.590,33.203,221.680,0
1483718810.457,17.090,28.320,80.078,31.738,211.914,0
1483718810.460,19.531,18.555,81.055,34.180,206.055,0
1483718810.464,19.531,53.711,88.379,46.875,243.652,0
1483718810.468,23.438,54.199,81.543,64.453,238.281,0
1483718810.472,29.297,46.387,66.895,40.039,222.168,0
1483718810.476,27.832,19.043,64.941,1.953,212.402,0
1483718810.480,36.133,33.203,60.059,10.254,225.586,0
