timestamps,TP9,AF7,AF8,TP10,Right AUX,Marker0
1483709207.008,25.391,73.242,14.160,72.266,-157.227,0
1483709207.012,22.949,67.871,34.180,69.824,-178.711,0
1483709207.016,24.902,41.016,22.949,38.574,-163.574,0
1483709207.020,23.926,38.574,28.809,35.156,-146.973,0
1483709207.024,9.766,47.363,43.945,46.875,-171.875,0
1483709207.028,14.160,46.875,33.203,58.594,-172.852,0
1483709207.032,31.250,17.578,33.203,73.242,-184.570,0
1483709207.036,17.090,29.785,39.551,51.758,-197.266,0
1483709207.040,21.484,63.965,20.020,34.668,-154.785,0
1483709207.044,30.273,36.621,20.996,43.457,-179.199,0
1483709207.047,29.785,40.039,14.160,55.176,-194.824,0
1483709207.051,48.340,41.504,12.695,63.965,-131.836,0
1483709207.055,50.781,24.902,28.809,44.434,-115.723,0
1483709207.059,35.645,47.363,59.570,48.828,-141.602,0
1483709207.063,32.227,63.965,41.504,73.242,-135.254,0
1483709207.067,19.043,45.410,50.781,65.430,-119.141,0
1483709207.071,4.395,20.996,76.172,65.918,-101.562,0
1483709207.075,19.531,14.648,29.785,65.430,-82.520,0
1483709207.079,43.457,36.621,11.230,53.711,-83.008,0
1483709207.083,40.527,38.574,31.250,57.617,-40.039,0
1483709207.087,46.875,21.973,47.363,82.520,-32.227,0
1483709207.090,31.250,23.438,56.641,83.984,-28.809,0
1483709207.094,4.395,36.621,38.086,62.012,27.344,0
1483709207.098,5.371,33.203,27.344,50.293,21.484,0
1483709207.102,13.184,20.508,33.691,42.480,26.855,0
1483709207.106,21.484,22.461,42.480,45.410,69.336,0
1483709207.110,29.297,39.062,48.340,54.199,88.379,0
1483709207.114,27.344,39.062,46.875,69.336,96.680,0
1483709207.118,-1.953,22.461,50.293,66.406,131.348,0
1483709207.122,-7.324,22.461,49.805,48.828,125.977,0
1483709207.126,1.953,24.902,33.691,49.805,110.352,0
1483709207.129,11.719,20.508,20.020,63.477,126.465,0
1483709207.133,18.555,6.348,28.809,65.430,120.117,0
1483709207.137,23.438,10.254,35.645,47.363,135.254,0
1483709207.141,30.273,26.367,105.469,13.672,180.664,0
1483709207.145,27.344,48.340,72.266,39.062,176.758,0
1483709207.149,27.832,46.875,1.953,68.359,142.578,0
1483709207.153,22.461,31.250,22.949,48.828,166.992,0
1483709207.157,26.855,33.203,11.719,40.527,204.102,0
1483709207.161,22.461,20.996,23.438,34.668,215.332,0
1483709207.165,29.785,23.438,42.480,37.109,194.824,0
1483709207.169,29.785,35.645,32.715,40.039,180.664,0
1483709207.172,14.160,39.551,28.809,35.156,184.082,0
1483709207.176,6.348,34.180,32.227,19.531,168.457,0
1483709207.180,12.207,22.461,26.367,19.043,144.043,0
1483709207.184,19.043,23.926,25.391,33.691,170.898,0
1483709207.188,20.508,24.414,33.691,35.156,172.852,0
1483709207.192,43.457,35.156,38.574,27.344,106.934,0
1483709207.196,47.852,50.781,39.062,18.555,104.492,0
1483709207.200,31.250,32.227,34.180,20.508,140.625,0
1483709207.204,35.156,34.180,42.480,31.250,99.121,0
1483709207.208,43.457,46.875,70.312,31.738,67.871,0
1483709207.212,37.109,26.367,86.914,27.344,85.938,0
1483709207.215,43.945,27.832,24.414,24.414,85.938,0
1483709207.219,43.457,45.410,-27.344,22.949,54.688,0
1483709207.223,42.969,33.691,-15.625,36.133,-17.090,0
1483709207.227,50.781,13.672,-5.859,27.344,-12.695,0
1483709207.231,45.898,43.457,8.301,21.973,4.883,0
1483709207.235,35.645,55.176,20.020,21.484,-23.438,0
1483709207.239,40.527,42.480,17.578,12.695,-42.480,0
1483709207.243,50.293,35.156,12.207,13.184,-22.461,0
1483709207.247,68.359,20.020,10.742,25.879,-16.113,0
1483709207.251,60.059,20.508,1.465,18.066,-38.086,0
1483709207.254,41.992,18.555,-12.207,-8.301,-50.293,0
1483709207.258,41.016,9.766,-18.066,-20.996,-47.852,0
1483709207.262,41.992,13.672,-4.395,-6.348,-64.453,0
1483709207.266,53.711,5.371,6.836,5.859,-115.234,0
1483709207.270,44.434,-0.977,14.160,-3.418,-90.332,0
1483709207.274,44.922,21.484,-2.930,0.977,-80.078,0
1483709207.278,64.941,33.203,-39.062,8.789,-116.211,0
1483709207.282,59.570,25.879,17.578,-6.348,-147.461,0
1483709207.286,41.992,24.414,62.012,-23.926,-138.184,0
1483709207.290,73.242,37.598,-11.230,8.301,-135.742,0
1483709207.294,95.703,39.551,-40.527,52.734,-166.992,0
1483709207.297,77.148,33.691,-7.324,54.688,-176.758,0
1483709207.301,71.289,38.086,11.230,49.316,-174.316,0
1483709207.305,84.961,28.320,20.996,40.039,-150.391,0
1483709207.309,94.238,23.438,25.391,22.461,-144.043,0
1483709207.313,83.496,24.902,34.180,11.719,-145.996,0
1483709207.317,77.148,8.301,17.090,18.066,-123.535,0
1483709207.321,85.449,7.812,12.695,30.762,-140.625,0
1483709207.325,82.031,21.484,18.066,43.457,-116.211,0
1483709207.329,67.871,29.785,12.207,43.945,-110.840,0
1483709207.333,51.270,34.668,16.113,26.855,-150.391,0
1483709207.337,47.363,27.832,12.207,19.043,-117.188,0
1483709207.340,54.199,17.090,22.461,27.344,-84.961,0
1483709207.344,49.805,7.812,16.602,32.227,-72.266,0
1483709207.348,39.551,11.719,20.020,32.227,-76.172,0
1483709207.352,24.414,14.160,92.285,20.996,-80.566,0
1483709207.356,24.902,15.137,83.008,11.230,-30.273,0
1483709207.360,35.156,7.812,-32.227,24.414,33.691,0
1483709207.364,33.691,-14.160,-48.828,25.391,-16.602,0
1483709207.368,23.438,-4.395,-12.695,10.254,-45.898,0
1483709207.372,14.160,7.324,1.465,0.977,-29.297,0
1483709207.376,4.883,6.836,-9.277,8.789,12.207,0
1483709207.379,-9.277,-0.977,-14.160,16.602,-13.672,0
1483709207.383,-20.508,-9.766,17.578,21.973,1.953,0
1483709207.387,-23.438,1.953,6.348,38.086,24.902,0
1483709207.391,-12.207,14.160,-3.906,19.043,-2.930,0
1483709207.395,2.930,11.719,8.301,6.836,-21.484,0
1483709207.399,-5.371,13.672,22.949,28.809,-11.230,0
1483709207.403,-21.484,11.230,33.691,37.109,30.273,0
1483709207.407,-24.902,3.418,16.602,43.457,38.574,0
1483709207.411,-41.016,3.418,2.441,27.832,-15.137,0
1483709207.415,-37.109,4.883,15.625,37.598,-55.664,0
1483709207.419,-38.086,-4.395,44.922,46.875,-16.602,0
1483709207.422,-61.523,-6.836,52.246,50.293,1.465,0
1483709207.426,-55.664,6.348,57.617,41.992,51.270,0
1483709207.430,-33.203,18.066,31.250,17.090,50.293,0
1483709207.434,-28.320,-2.930,1.953,17.578,17.090,0
1483709207.438,-33.691,-17.578,3.906,20.996,40.039,0
1483709207.442,-34.668,16.602,5.859,16.602,61.523,0
1483709207.446,-43.457,36.133,5.859,21.973,49.316,0
1483709207.450,-47.852,41.504,33.203,47.852,52.246,0
1483709207.454,-54.688,31.250,48.340,41.504,90.820,0
1483709207.458,-70.801,22.949,32.715,28.809,113.281,0
1483709207.462,-86.426,26.367,43.457,37.109,76.660,0
1483709207.465,-98.145,5.859,22.949,39.062,94.727,0
1483709207.469,-94.238,6.348,2.930,36.621,151.367,0
1483709207.473,-85.938,13.184,26.855,26.855,155.762,0
1483709207.477,-80.566,14.648,1.953,13.672,166.016,0
1483709207.481,-81.055,6.348,-5.371,8.789,187.988,0
1483709207.485,-90.820,-10.742,9.277,13.672,190.918,0
1483709207.489,-104.980,-13.184,28.809,14.160,171.387,0
1483709207.493,-104.980,10.254,44.922,10.254,151.367,0
1483709207.497,-85.449,20.996,18.066,6.348,121.094,0
1483709207.501,-92.773,15.137,7.812,-10.742,84.961,0
1483709207.504,-96.191,28.809,-22.949,-13.184,82.520,0
1483709207.508,-92.773,16.113,-30.273,-0.977,83.984,0
1483709207.512,-103.516,-8.301,7.812,5.371,65.918,0
1483709207.516,-100.586,-7.324,16.602,4.883,47.852,0
1483709207.520,-84.961,17.090,8.789,2.930,34.668,0
1483709207.524,-86.914,25.391,17.578,13.184,11.719,0
1483709207.528,-90.332,-4.395,21.484,15.625,-30.273,0
1483709207.532,-76.660,8.301,23.926,18.555,-23.926,0
1483709207.536,-77.637,37.109,30.762,17.578,-7.812,0
1483709207.540,-77.637,35.645,26.367,2.930,-31.738,0
1483709207.544,-70.801,31.738,37.598,-5.859,-26.855,0
1483709207.547,-81.543,28.320,33.203,12.207,-15.625,0
1483709207.551,-78.613,29.785,17.578,35.156,-38.574,0
1483709207.555,-70.801,22.949,15.625,26.367,-53.711,0
1483709207.559,-84.473,17.578,20.020,17.578,-22.949,0
1483709207.563,-79.590,21.484,48.340,28.320,0.000,0
1483709207.567,-75.684,22.949,34.180,32.715,-8.789,0
1483709207.571,-85.449,11.230,-15.625,26.367,17.578,0
1483709207.575,-84.473,3.418,37.598,16.602,46.387,0
1483709207.579,-62.012,10.254,41.016,24.414,20.508,0
1483709207.583,-42.480,27.832,-41.016,32.227,19.043,0
1483709207.587,-49.316,33.691,-27.832,20.020,44.922,0
1483709207.590,-44.922,22.949,-10.742,24.902,48.828,0
1483709207.594,-35.156,25.391,5.371,42.969,32.715,0
1483709207.598,-33.203,41.016,29.785,47.363,27.832,0
1483709207.602,-36.621,47.363,25.879,60.547,21.484,0
1483709207.606,-20.996,39.062,11.230,68.848,39.062,0
1483709207.610,0.977,46.387,20.020,65.918,84.961,0
1483709207.614,12.207,53.711,34.668,64.453,81.543,0
1483709207.618,16.113,39.551,31.250,57.617,72.266,0
1483709207.622,18.555,51.758,41.016,65.430,100.098,0
1483709207.626,5.371,51.270,42.480,65.918,119.141,0
1483709207.629,-7.324,36.133,28.320,51.270,126.953,0
1483709207.633,3.418,41.992,37.598,35.156,115.723,0
1483709207.637,10.254,54.199,28.320,36.621,98.633,0
1483709207.641,10.254,47.363,17.090,51.270,63.477,0
1483709207.645,10.742,37.109,15.625,41.992,42.969,0
1483709207.649,19.043,62.500,-6.348,52.246,85.449,0
1483709207.653,30.273,71.777,71.289,66.406,98.633,0
1483709207.657,38.574,64.453,86.426,56.152,101.562,0
1483709207.661,44.434,50.781,20.020,60.547,98.633,0
1483709207.665,36.621,61.523,14.648,61.035,68.359,0
1483709207.669,37.109,81.543,18.555,59.570,67.383,0
1483709207.672,37.109,70.312,34.668,53.711,76.172,0
1483709207.676,36.133,56.641,45.898,51.270,104.492,0
1483709207.680,47.363,49.316,36.133,55.664,124.023,0
1483709207.684,49.316,71.777,50.293,37.109,84.473,0
1483709207.688,37.109,73.730,51.758,32.715,56.152,0
1483709207.692,30.273,53.223,33.203,40.039,89.355,0
1483709207.696,33.691,50.781,42.480,35.645,96.191,0
1483709207.700,39.551,43.457,17.578,32.715,90.332,0
1483709207.704,30.762,36.621,17.578,56.152,117.188,0
1483709207.708,13.672,45.898,45.410,44.922,121.582,0
1483709207.712,9.277,50.293,27.344,19.043,116.699,0
1483709207.715,14.160,57.617,32.715,17.090,97.168,0
1483709207.719,24.902,56.641,16.113,21.484,83.984,0
1483709207.723,38.574,32.227,28.320,35.645,105.469,0
1483709207.727,36.133,40.527,65.430,51.758,116.699,0
1483709207.731,33.203,70.312,44.922,61.035,119.141,0
1483709207.735,34.668,63.477,-7.324,44.434,124.512,0
1483709207.739,33.691,53.223,-6.348,34.180,152.832,0
1483709207.743,37.109,58.105,22.949,55.176,130.371,0
1483709207.747,39.062,58.594,40.527,69.824,114.746,0
1483709207.751,21.484,50.293,40.039,55.664,119.141,0
1483709207.754,15.137,41.504,26.367,43.457,97.656,0
1483709207.758,27.832,39.551,28.809,51.758,102.539,0
1483709207.762,33.691,50.781,58.105,56.641,114.258,0
1483709207.766,27.832,56.641,41.016,55.664,120.117,0
1483709207.770,39.062,47.363,16.602,64.941,111.328,0
1483709207.774,39.062,34.180,39.551,57.617,81.543,0
1483709207.778,30.762,40.527,37.598,44.922,68.359,0
1483709207.782,35.645,40.039,41.992,36.621,67.871,0
1483709207.786,32.227,38.086,60.547,33.203,90.332,0
1483709207.790,38.086,53.711,15.137,44.434,83.984,0
1483709207.794,38.574,46.875,10.254,44.434,57.617,0
1483709207.797,31.738,35.645,46.387,35.156,81.543,0
1483709207.801,50.781,50.293,16.602,50.781,87.891,0
1483709207.805,58.594,45.410,30.273,58.105,76.172,0
1483709207.809,54.199,40.527,37.109,42.969,90.820,0
1483709207.813,57.129,51.758,-3.906,51.758,67.871,0
1483709207.817,59.082,39.062,5.859,55.176,33.691,0
1483709207.821,56.152,29.297,44.922,53.223,20.996,0
1483709207.825,52.734,36.621,42.480,51.270,25.879,0
1483709207.829,57.617,34.668,17.578,46.387,19.531,0
1483709207.833,53.711,35.645,33.691,36.133,-11.230,0
1483709207.837,62.012,48.340,38.574,27.832,-33.203,0
1483709207.840,66.895,49.316,35.156,43.457,-16.113,0
1483709207.844,51.270,44.434,44.922,41.504,8.301,0
1483709207.848,50.293,47.363,41.016,30.762,-16.602,0
1483709207.852,47.852,28.320,38.086,21.484,-37.109,0
1483709207.856,30.762,14.648,22.461,-4.395,-20.508,0
1483709207.860,29.297,21.973,18.066,-0.488,-7.324,0
1483709207.864,38.086,23.438,25.391,20.020,-23.926,0
1483709207.868,33.203,26.367,2.930,14.160,-48.828,0
1483709207.872,20.020,15.625,14.648,19.043,-58.105,0
1483709207.876,13.672,4.883,36.133,27.344,-45.898,0
1483709207.879,32.227,10.254,58.105,39.062,-73.242,0
1483709207.883,32.227,33.691,56.152,54.688,-88.867,0
1483709207.887,5.859,24.902,25.391,54.199,-86.426,0
1483709207.891,11.230,9.766,6.836,42.969,-98.145,0
1483709207.895,19.043,25.391,6.836,39.551,-85.938,0
1483709207.899,15.625,8.301,12.207,37.109,-95.703,0
1483709207.903,9.277,0.488,12.207,32.715,-104.004,0
1483709207.907,9.766,26.367,26.367,48.828,-111.328,0
1483709207.911,18.066,32.227,31.738,50.293,-126.465,0
1483709207.915,11.719,26.367,49.316,26.855,-133.301,0
1483709207.919,10.254,15.625,23.926,25.391,-104.492,0
1483709207.922,11.719,4.883,-12.695,37.598,-101.074,0
1483709207.926,-5.371,17.090,11.719,39.062,-125.977,0
1483709207.930,-14.648,10.254,13.672,31.738,-113.770,0
1483709207.934,-14.648,-11.230,20.020,20.508,-76.172,0
1483709207.938,-10.742,7.812,16.602,26.855,-77.637,0
1483709207.942,-10.742,40.039,8.301,32.227,-76.172,0
1483709207.946,0.488,48.340,12.695,42.969,-78.613,0
1483709207.950,-12.207,30.762,41.016,32.715,-65.918,0
1483709207.954,-12.207,38.574,22.949,13.184,-30.273,0
1483709207.958,-0.488,36.621,19.043,18.555,-62.500,0
1483709207.962,-12.207,6.348,31.738,9.766,-71.777,0
1483709207.965,-6.836,25.879,1.465,5.859,-37.598,0
1483709207.969,-4.883,48.340,5.859,13.184,-41.992,0
1483709207.973,-16.602,32.227,11.230,18.555,-44.434,0
1483709207.977,-29.785,10.742,17.578,3.418,-58.594,0
1483709207.981,-33.691,1.953,22.949,12.695,-50.781,0
1483709207.985,-44.922,0.488,44.434,37.109,-12.695,0
1483709207.989,-55.176,-10.742,28.320,29.785,-25.391,0
1483709207.993,-64.453,-3.418,2.441,16.113,-61.035,1
1483709207.997,-66.895,19.531,1.953,26.367,-39.551,0
1483709208.001,-68.359,28.809,0.977,39.062,-2.441,0
1483709208.004,-66.406,27.832,17.090,43.457,-2.441,0
1483709208.008,-66.406,20.996,22.461,48.828,-6.836,0
1483709208.012,-79.590,29.785,12.695,29.785,35.645,0
1483709208.016,-77.148,31.250,3.418,22.949,30.273,0
1483709208.020,-80.078,27.344,-0.488,17.578,-35.156,0
1483709208.024,-92.773,12.695,12.695,6.348,-14.648,0
1483709208.028,-92.773,9.766,41.504,21.973,8.789,0
1483709208.032,-95.215,36.621,33.691,42.480,6.348,0
1483709208.036,-101.074,29.297,32.715,36.621,1.953,0
1483709208.040,-90.332,7.812,20.508,34.668,38.574,0
1483709208.044,-76.660,12.695,-4.883,50.781,31.738,0
1483709208.047,-80.566,24.902,4.883,28.809,-4.395,0
1483709208.051,-93.262,31.250,1.465,26.855,0.000,0
1483709208.055,-98.145,28.809,-3.418,48.828,-2.441,0
1483709208.059,-86.426,20.996,22.461,49.316,0.488,0
1483709208.063,-84.961,39.062,14.648,48.828,2.930,0
1483709208.067,-86.914,39.062,-0.977,38.086,2.930,0
1483709208.071,-95.703,21.484,-2.441,41.992,10.742,0
1483709208.075,-97.656,29.297,0.000,54.199,-0.977,0
1483709208.079,-93.750,11.230,13.672,28.809,-4.395,0
1483709208.083,-97.656,-2.930,2.930,6.836,11.230,0
1483709208.087,-99.609,12.695,1.465,25.879,34.180,0
1483709208.090,-113.770,26.855,25.879,32.715,17.090,0
1483709208.094,-114.746,22.461,26.367,37.598,-5.859,0
1483709208.098,-110.352,13.184,37.109,20.508,3.418,0
1483709208.102,-97.656,11.230,34.668,5.859,18.555,0
1483709208.106,-75.684,16.602,-2.441,36.621,6.836,0
1483709208.110,-80.078,23.926,-11.230,50.781,-12.207,0
1483709208.114,-104.004,15.625,-5.371,47.363,21.484,0
1483709208.118,-96.191,28.320,3.418,38.574,58.594,0
1483709208.122,-91.309,35.645,6.836,20.020,51.758,0
1483709208.126,-116.699,17.090,18.555,8.789,29.297,0
1483709208.129,-115.234,2.441,61.035,25.879,20.508,0
1483709208.133,-115.234,0.977,42.480,32.227,46.387,0
1483709208.137,-116.211,37.109,-10.742,35.645,46.387,0
1483709208.141,-120.605,52.246,-10.254,37.598,45.410,0
1483709208.145,-125.000,26.367,17.578,36.133,24.414,0
1483709208.149,-129.883,3.418,27.832,43.945,22.949,0
1483709208.153,-131.836,20.508,20.508,27.832,20.020,0
1483709208.157,-126.465,32.227,11.719,13.672,-24.902,0
1483709208.161,-123.535,19.531,9.277,21.973,4.395,0
1483709208.165,-117.676,35.645,15.137,38.574,8.301,0
1483709208.169,-108.887,28.809,43.457,38.086,10.254,0
1483709208.172,-109.375,11.719,52.734,31.738,36.621,0
1483709208.176,-101.074,33.203,20.020,51.270,0.488,0
1483709208.180,-81.543,31.738,4.395,49.316,4.883,0
1483709208.184,-76.660,17.090,9.766,39.062,36.621,0
1483709208.188,-81.055,32.227,53.711,32.715,40.527,0
1483709208.192,-71.777,41.504,26.367,34.668,0.977,0
1483709208.196,-61.523,30.273,-10.742,45.898,14.648,0
1483709208.200,-73.242,30.273,13.672,40.527,44.922,0
1483709208.204,-75.684,-0.488,27.344,19.043,12.207,0
1483709208.208,-65.430,-15.137,12.695,28.809,-16.602,0
1483709208.212,-72.266,19.043,-16.113,32.227,-41.992,0
1483709208.215,-65.430,7.324,-8.789,20.020,4.395,0
1483709208.219,-62.500,-16.602,-13.184,13.672,24.414,0
1483709208.223,-77.637,-9.766,0.000,3.906,13.184,0
1483709208.227,-89.844,4.395,12.207,11.719,-0.977,0
1483709208.231,-111.328,-2.441,-7.812,20.020,16.602,0
1483709208.235,-117.676,-17.090,-11.719,7.324,59.082,0
1483709208.239,-109.863,-22.949,-11.230,7.324,37.109,0
1483709208.243,-109.863,-14.160,-0.977,-2.441,44.922,0
1483709208.247,-105.957,-0.977,12.695,-12.695,-3.418,0
1483709208.251,-99.121,-2.441,-9.766,10.254,0.977,0
1483709208.254,-98.145,-6.348,40.527,-0.488,7.812,0
1483709208.258,-104.980,-10.254,67.383,-16.602,4.883,0
1483709208.262,-100.098,-13.672,-16.602,1.953,-15.137,0
1483709208.266,-94.238,-15.137,-20.020,0.977,8.789,0
1483709208.270,-73.730,-7.324,-21.973,11.230,30.273,0
1483709208.274,-68.848,-6.836,22.949,15.137,-35.645,0
1483709208.278,-94.727,-13.184,45.898,0.977,-0.488,0
1483709208.282,-87.402,8.301,-8.789,10.254,0.977,0
1483709208.286,-71.777,24.414,-9.277,16.602,-44.922,0
1483709208.290,-70.801,11.719,5.371,20.996,11.719,0
1483709208.294,-66.406,-7.812,-8.789,18.555,24.902,0
1483709208.297,-66.895,-23.438,-4.883,7.324,-1.953,0
1483709208.301,-57.129,4.395,0.977,8.301,56.641,0
1483709208.305,-47.363,-2.441,-4.883,29.785,66.895,0
1483709208.309,-54.199,-23.926,-4.883,40.039,-22.949,0
1483709208.313,-48.340,-7.324,-4.883,39.551,1.953,0
1483709208.317,-49.316,4.395,14.648,30.273,16.602,0
1483709208.321,-56.152,8.789,8.301,34.180,-46.387,0
1483709208.325,-34.180,0.000,23.438,46.387,12.207,0
1483709208.329,-30.273,4.395,41.016,31.250,65.918,0
1483709208.333,-27.832,28.809,-10.254,20.996,48.340,0
1483709208.337,-19.043,9.766,-18.066,40.039,57.617,0
1483709208.340,-25.879,-18.555,32.227,60.547,63.477,0
1483709208.344,-31.250,13.672,20.508,64.941,14.160,0
1483709208.348,-20.508,21.484,-23.926,55.664,-19.531,0
1483709208.352,-30.762,8.789,3.906,31.250,2.930,0
1483709208.356,-38.574,16.113,8.301,19.043,20.996,0
1483709208.360,-32.227,33.691,-16.113,20.020,39.551,0
1483709208.364,-41.992,49.805,-12.207,17.090,-10.254,0
1483709208.368,-42.480,37.598,7.324,14.648,-29.785,0
1483709208.372,-32.715,12.207,4.883,31.738,20.020,0
1483709208.376,-34.180,23.926,-0.977,41.016,-8.789,0
1483709208.379,-27.344,45.410,2.930,47.363,-51.758,0
1483709208.383,-9.277,37.109,-4.395,43.457,-56.641,0
1483709208.387,-9.277,35.156,13.672,28.809,-9.766,0
1483709208.391,-27.344,23.438,3.906,34.668,0.488,0
1483709208.395,-42.480,-5.371,-10.254,28.320,37.598,0
1483709208.399,-47.852,24.414,10.742,21.484,40.039,0
1483709208.403,-30.762,57.617,15.137,30.273,-28.320,0
1483709208.407,-13.184,36.621,-9.277,20.020,3.418,0
1483709208.411,-21.973,34.180,16.113,21.484,11.230,0
1483709208.415,-22.949,36.621,42.480,13.184,-21.484,0
1483709208.419,-11.719,41.016,-5.859,20.996,-3.418,0
1483709208.422,-10.254,47.363,-6.836,48.340,30.273,0
1483709208.426,-10.254,28.320,28.320,55.176,43.457,0
1483709208.430,-14.648,42.480,29.785,50.781,-6.836,0
1483709208.434,-23.926,56.641,24.414,62.012,-17.578,0
1483709208.438,-20.020,26.855,21.973,74.219,16.113,0
1483709208.442,-12.695,28.809,22.949,50.293,-2.930,0
1483709208.446,-10.742,56.641,34.180,48.828,11.719,0
1483709208.450,-1.953,61.035,41.504,74.707,21.484,0
1483709208.454,9.766,69.824,37.598,59.082,8.789,0
1483709208.458,11.230,75.195,54.688,36.621,22.461,0
1483709208.462,6.836,74.707,38.086,42.480,23.438,0
1483709208.465,5.859,59.082,34.180,54.199,27.344,0
1483709208.469,0.488,43.457,61.035,66.406,18.066,0
1483709208.473,-3.418,64.453,38.086,64.941,24.902,0
1483709208.477,16.113,76.660,34.668,64.941,13.672,0
1483709208.481,16.602,48.828,40.039,64.941,13.672,0
1483709208.485,6.348,44.434,42.969,79.590,-2.930,0
1483709208.489,12.207,63.965,56.641,92.773,-12.695,0
1483709208.493,11.719,61.035,80.078,68.359,7.324,0
1483709208.497,22.949,77.637,50.781,50.293,36.621,0
1483709208.501,24.414,93.750,12.695,53.711,58.594,0
1483709208.504,10.254,74.219,38.574,41.016,-8.789,0
1483709208.508,29.297,58.105,29.297,45.898,-7.812,0
1483709208.512,41.016,63.965,27.832,81.055,3.906,0
1483709208.516,18.555,75.195,32.715,81.543,-8.301,0
1483709208.520,8.301,84.473,25.391,46.387,-0.488,0
1483709208.524,13.184,90.820,24.902,57.129,22.949,0
1483709208.528,20.508,93.262,41.992,68.359,1.953,0
1483709208.532,40.039,82.520,47.363,34.668,-7.812,0
1483709208.536,34.180,62.988,38.086,29.297,-5.859,0
1483709208.540,16.602,65.918,38.574,45.898,-47.852,0
1483709208.544,16.113,77.148,45.410,62.012,-28.320,0
1483709208.547,6.348,62.500,65.430,58.105,8.301,0
1483709208.551,3.418,57.617,62.012,61.035,-25.879,0
1483709208.555,17.578,71.777,31.738,61.523,-20.020,0
1483709208.559,24.414,79.102,38.086,45.410,16.113,0
1483709208.563,23.926,74.219,39.551,34.668,52.246,0
1483709208.567,36.621,58.105,28.320,40.039,6.836,0
1483709208.571,28.809,28.809,55.176,53.223,-24.414,0
1483709208.575,12.207,52.246,48.828,71.777,18.555,0
1483709208.579,16.602,66.406,36.621,75.195,0.488,0
1483709208.583,8.789,41.016,53.711,59.082,51.758,0
1483709208.587,24.414,54.199,31.250,62.012,54.199,0
1483709208.590,29.785,36.133,28.809,61.035,36.133,0
1483709208.594,25.391,0.977,43.457,53.223,41.992,0
1483709208.598,36.133,13.672,45.898,65.430,26.855,0
1483709208.602,27.344,41.016,16.113,62.012,65.918,0
1483709208.606,22.949,50.781,22.461,57.129,40.527,0
1483709208.610,21.973,41.504,33.203,54.199,-6.836,0
1483709208.614,30.762,37.109,30.273,48.340,12.207,0
1483709208.618,31.250,43.945,43.457,40.039,22.949,0
1483709208.622,16.602,45.410,68.359,27.832,-3.418,0
1483709208.626,27.344,32.227,34.180,43.457,2.930,0
1483709208.629,33.203,35.156,17.578,59.570,42.480,0
1483709208.633,24.902,31.250,37.109,41.992,60.547,0
1483709208.637,24.902,30.273,2.441,26.367,24.902,0
1483709208.641,18.555,32.227,45.898,39.551,14.648,0
1483709208.645,15.625,44.434,59.570,60.547,59.570,0
1483709208.649,26.367,52.246,47.363,58.105,72.266,0
1483709208.653,32.227,44.922,34.180,34.180,27.344,0
1483709208.657,37.109,30.273,45.410,29.297,13.672,0
1483709208.661,43.945,27.344,58.594,33.203,65.918,0
1483709208.665,38.574,57.617,9.277,53.223,62.500,0
1483709208.669,30.762,63.477,14.160,62.988,-14.160,0
1483709208.672,26.855,37.598,34.180,49.805,5.859,0
1483709208.676,45.410,46.387,34.668,56.641,52.734,0
1483709208.680,51.270,62.012,28.320,65.430,31.250,0
1483709208.684,40.039,43.945,23.438,63.477,-11.719,0
1483709208.688,35.156,59.570,35.156,59.570,18.066,0
1483709208.692,29.297,61.035,72.266,50.781,69.824,0
1483709208.696,50.781,44.434,43.945,57.129,21.973,0
1483709208.700,56.641,57.129,32.715,50.781,0.977,0
1483709208.704,51.758,64.453,44.922,47.363,35.156,0
1483709208.708,62.012,62.012,25.879,59.570,46.387,0
1483709208.712,45.898,53.711,38.086,63.965,2.930,0
1483709208.715,32.715,62.988,41.992,76.660,-26.367,0
1483709208.719,41.016,85.449,39.062,80.566,-26.855,0
1483709208.723,21.973,87.891,47.363,74.707,-8.301,0
1483709208.727,19.043,72.266,54.199,54.688,26.855,0
1483709208.731,30.273,59.082,46.875,48.340,41.992,0
1483709208.735,0.000,63.477,50.781,68.848,-3.906,0
1483709208.739,-17.578,63.965,22.949,73.242,22.949,0
1483709208.743,-6.836,55.664,5.859,67.383,74.219,0
1483709208.747,7.812,77.637,10.742,55.664,54.688,0
1483709208.751,-5.859,83.008,26.855,27.832,56.152,0
1483709208.754,-21.973,70.801,51.270,22.461,43.945,0
1483709208.758,-20.508,51.758,34.668,27.344,48.340,0
1483709208.762,-24.902,61.035,9.277,30.762,-4.395,0
1483709208.766,-38.574,74.219,11.719,37.109,-26.855,0
1483709208.770,-42.969,55.176,16.602,27.344,47.363,0
1483709208.774,-52.246,44.922,9.277,4.395,32.715,0
1483709208.778,-74.219,38.574,-6.836,-1.465,7.812,0
1483709208.782,-87.402,43.457,-7.812,-15.137,44.434,0
1483709208.786,-71.777,53.711,-6.348,-20.020,56.641,0
1483709208.790,-60.059,52.246,3.906,8.789,7.812,0
1483709208.794,-59.570,46.387,-4.883,37.109,-1.953,0
1483709208.797,-62.012,41.992,-25.391,39.062,-29.297,0
1483709208.801,-63.477,28.320,-4.395,27.832,-30.273,0
1483709208.805,-59.082,3.906,25.391,19.531,54.688,0
1483709208.809,-50.293,4.395,7.812,18.555,64.941,0
1483709208.813,-39.551,17.578,22.461,6.836,28.809,0
1483709208.817,-48.828,18.066,10.742,9.766,7.812,0
1483709208.821,-53.711,28.320,-25.391,46.875,-31.250,0
1483709208.825,-53.711,37.598,-16.602,69.824,-27.344,0
1483709208.829,-44.434,26.855,-14.648,51.758,5.371,0
1483709208.833,-28.809,22.949,17.090,29.297,17.578,0
1483709208.837,-43.457,13.184,36.133,32.227,53.223,0
1483709208.840,-30.762,0.977,-9.277,47.363,50.293,0
1483709208.844,-6.348,29.785,-24.902,48.828,62.012,0
1483709208.848,-11.230,31.738,-10.254,38.574,66.406,0
1483709208.852,-6.348,19.043,3.418,20.996,62.500,0
1483709208.856,1.953,37.109,-2.930,34.668,59.082,0
1483709208.860,10.254,23.438,0.977,72.754,8.301,0
1483709208.864,10.254,7.812,24.414,88.867,10.742,0
1483709208.868,9.277,38.086,12.695,59.082,-31.738,0
1483709208.872,36.133,39.551,0.000,28.809,-5.859,0
1483709208.876,49.805,22.949,7.324,42.969,26.367,0
1483709208.879,32.227,31.738,10.254,56.641,-23.438,0
1483709208.883,33.691,38.086,24.902,83.008,-30.273,0
1483709208.887,34.668,31.250,32.227,88.867,-22.949,0
1483709208.891,45.410,-8.789,26.367,62.012,7.812,0
1483709208.895,51.270,-1.953,52.734,34.180,9.277,0
1483709208.899,51.270,37.109,56.641,39.551,-8.301,0
1483709208.903,68.848,46.875,16.113,72.754,19.531,0
1483709208.907,76.660,32.715,-6.348,66.895,29.785,0
1483709208.911,79.102,4.883,20.508,41.992,21.973,0
1483709208.915,70.312,27.344,67.871,51.758,35.156,0
1483709208.919,60.059,49.805,66.895,64.941,1.465,0
1483709208.922,65.918,42.480,2.930,65.918,-18.066,0
1483709208.926,78.613,34.180,3.906,59.570,5.371,0
1483709208.930,80.566,40.039,30.273,52.734,-9.766,0
1483709208.934,90.332,39.062,33.691,58.594,-9.277,0
1483709208.938,90.332,9.766,50.781,54.199,-15.625,0
1483709208.942,81.543,26.367,64.453,39.062,-1.465,0
1483709208.946,88.867,49.316,59.570,32.715,-9.766,0
1483709208.950,94.727,47.852,62.500,53.223,6.836,0
1483709208.954,88.379,54.199,53.223,65.918,27.832,0
1483709208.958,93.262,46.387,45.410,63.477,-4.883,0
1483709208.962,104.004,68.359,47.363,72.266,17.090,0
1483709208.965,84.961,65.430,72.266,64.941,59.082,0
1483709208.969,72.266,44.434,73.730,46.387,44.434,0
1483709208.973,85.938,19.531,60.547,52.246,21.484,0
1483709208.977,83.984,30.273,56.152,55.176,29.297,0
1483709208.981,83.008,60.547,67.383,61.523,45.410,0
1483709208.985,96.680,55.176,50.293,68.359,50.781,0
1483709208.989,96.680,57.129,23.926,70.312,16.113,0
1483709208.993,83.008,40.039,44.922,75.195,13.184,0
1483709208.997,87.402,49.316,36.133,100.098,20.020,0
1483709209.001,89.355,68.848,37.598,105.469,-10.254,0
1483709209.004,95.215,64.453,47.852,76.172,15.137,0
1483709209.008,93.750,66.406,50.293,63.965,-12.207,0
1483709209.012,65.430,43.945,62.500,85.449,-7.812,0
1483709209.016,70.801,8.301,68.359,86.914,53.223,0
1483709209.020,90.820,22.949,57.617,62.988,20.508,0
1483709209.024,83.008,43.945,62.500,52.246,-34.180,0
1483709209.028,75.684,43.945,47.363,59.570,11.230,0
1483709209.032,62.500,55.664,41.504,79.590,61.523,0
1483709209.036,58.105,37.598,62.012,79.590,38.574,0
1483709209.040,62.012,9.766,83.008,67.871,13.184,0
1483709209.044,58.105,48.340,94.238,70.312,1.953,0
1483709209.047,58.594,82.520,70.312,62.500,-44.922,0
1483709209.051,53.711,62.012,63.965,37.109,-6.348,0
1483709209.055,43.945,55.176,41.992,43.945,42.480,0
1483709209.059,38.086,62.988,35.156,78.125,-7.324,0
1483709209.063,43.945,58.594,28.809,76.660,27.832,0
1483709209.067,47.852,52.734,22.949,32.227,78.125,0
1483709209.071,44.922,46.387,39.551,0.977,65.918,0
1483709209.075,34.180,42.969,39.062,16.602,35.156,0
1483709209.079,22.461,45.898,47.852,48.340,44.434,0
1483709209.083,17.578,34.668,56.641,43.457,32.227,0
1483709209.087,22.949,28.809,45.898,17.090,26.367,0
1483709209.090,32.227,45.898,22.949,32.715,70.312,0
1483709209.094,26.855,56.152,48.828,57.617,87.402,0
1483709209.098,30.273,54.688,55.664,54.199,33.691,0
1483709209.102,33.203,28.320,15.137,25.391,-42.480,0
1483709209.106,22.461,23.438,28.809,13.184,-32.715,0
1483709209.110,14.648,44.922,44.922,30.273,32.227,0
1483709209.114,40.527,52.246,25.879,36.621,64.941,0
1483709209.118,39.551,41.016,79.590,24.902,28.320,0
1483709209.122,35.645,43.945,66.895,49.316,-21.484,0
1483709209.126,53.223,72.266,6.836,87.402,-10.254,0
1483709209.129,43.457,80.078,22.949,95.703,45.898,0
1483709209.133,49.805,70.312,24.414,74.219,23.438,0
1483709209.137,58.105,61.035,14.648,32.715,-17.578,0
1483709209.141,60.059,56.641,22.949,23.438,-21.973,0
1483709209.145,60.059,35.156,42.480,41.992,57.617,0
1483709209.149,52.734,39.062,7.324,69.336,34.180,0
1483709209.153,54.688,51.270,9.277,68.848,-23.438,0
1483709209.157,44.434,54.199,40.527,44.434,19.531,0
1483709209.161,35.156,69.824,28.320,45.898,33.691,0
1483709209.165,45.898,71.777,33.203,46.387,48.828,0
1483709209.169,58.594,73.730,53.223,48.828,50.781,0
1483709209.172,53.711,74.707,68.359,51.270,14.160,0
1483709209.176,45.410,59.082,57.617,55.176,-43.457,0
1483709209.180,45.410,51.758,48.340,64.453,-15.137,0
1483709209.184,31.250,56.641,54.688,45.410,9.766,0
1483709209.188,23.438,52.734,55.176,15.137,-24.414,0
1483709209.192,23.926,43.945,69.336,-1.465,6.836,0
1483709209.196,14.648,47.363,27.344,33.203,-1.953,0
1483709209.200,13.672,49.805,18.066,60.059,-34.180,0
1483709209.204,26.855,46.875,28.809,11.719,-11.719,0
1483709209.208,28.320,37.109,37.109,-19.531,14.160,0
1483709209.212,22.949,41.992,51.758,31.738,-37.598,0
1483709209.215,3.906,49.316,22.461,67.383,-35.645,0
1483709209.219,-1.953,45.898,11.230,48.340,62.988,0
1483709209.223,9.766,46.387,14.160,22.461,40.039,0
1483709209.227,13.184,41.992,26.855,40.527,-29.297,0
1483709209.231,5.859,45.410,39.551,63.477,-26.367,0
1483709209.235,6.836,30.273,42.969,66.406,-10.254,0
1483709209.239,3.906,40.039,55.664,48.340,16.602,0
1483709209.243,7.324,62.012,44.434,23.438,40.039,0
1483709209.247,15.137,47.852,27.344,41.992,20.996,0
1483709209.251,5.859,43.945,12.695,43.945,-72.266,0
1483709209.254,-22.461,58.594,22.949,16.602,-35.645,0
1483709209.258,-28.809,60.547,31.738,0.000,62.988,0
1483709209.262,-3.906,57.129,9.766,-1.465,1.465,0
1483709209.266,-19.531,50.293,6.836,11.719,-38.086,2
1483709209.270,-31.738,54.688,-4.395,6.348,17.578,0
1483709209.274,-23.438,48.828,11.719,9.766,35.156,0
1483709209.278,-29.785,46.387,6.348,19.043,10.742,0
1483709209.282,-39.551,50.781,13.672,0.977,-9.277,0
1483709209.286,-40.039,52.246,-0.488,-6.348,23.926,0
1483709209.290,-33.691,59.082,-34.668,3.418,57.129,0
1483709209.294,-24.414,39.062,10.742,0.977,20.020,0
1483709209.297,-14.160,31.738,16.602,-4.395,-12.695,0
1483709209.301,-22.949,76.172,-16.113,11.230,9.277,0
1483709209.305,-43.945,82.031,-4.395,17.090,61.523,0
1483709209.309,-40.039,73.242,-1.465,7.812,60.547,0
1483709209.313,-28.809,63.965,-0.488,-4.395,-9.277,0
1483709209.317,-25.879,57.617,-4.395,-6.348,-70.312,0
1483709209.321,-15.625,63.965,10.742,-20.996,-29.785,0
1483709209.325,-20.996,62.500,23.438,-9.277,60.059,0
1483709209.329,-18.066,31.250,36.621,20.020,20.996,0
1483709209.333,-15.137,9.277,24.902,16.113,-8.301,0
1483709209.337,-35.645,59.570,1.465,20.996,16.113,0
1483709209.340,-38.086,84.961,17.578,21.484,0.977,0
1483709209.344,-37.598,57.129,8.301,6.348,15.625,0
1483709209.348,-31.250,55.664,24.414,-5.371,83.984,0
1483709209.352,-17.090,76.172,46.387,12.207,57.129,0
1483709209.356,-11.230,64.453,48.828,30.762,-6.348,0
1483709209.360,-22.949,54.688,55.176,33.203,-8.789,0
1483709209.364,-25.879,65.430,38.086,51.758,40.039,0
1483709209.368,-8.301,52.246,21.484,82.031,62.012,0
1483709209.372,-5.371,33.203,25.391,83.008,82.520,0
1483709209.376,-9.277,39.551,25.391,83.984,98.145,0
1483709209.379,-6.836,49.805,38.574,86.426,69.336,0
1483709209.383,-5.371,56.641,52.246,63.965,73.730,0
1483709209.387,-9.277,29.785,48.340,45.410,38.574,0
1483709209.391,-8.301,36.621,43.457,54.688,38.086,0
1483709209.395,-7.324,44.922,86.914,56.152,20.508,0
1483709209.399,7.324,18.555,54.688,76.172,27.344,0
1483709209.403,19.043,27.344,33.691,98.145,25.879,0
1483709209.407,14.648,58.594,54.199,98.145,18.555,0
1483709209.411,0.488,61.035,41.992,101.562,99.121,0
1483709209.415,-20.020,14.160,79.590,84.473,92.285,0
1483709209.419,-20.020,30.273,70.801,73.730,3.418,0
1483709209.422,2.930,65.430,35.156,59.082,66.895,0
1483709209.426,13.184,40.039,57.617,42.969,87.402,0
1483709209.430,-8.301,22.949,65.918,60.059,38.086,0
1483709209.434,-7.324,26.855,42.480,76.660,52.734,0
1483709209.438,-0.488,34.180,51.270,93.750,39.551,0
1483709209.442,-4.883,37.109,61.035,110.840,15.625,0
1483709209.446,-20.020,23.438,61.035,98.145,-10.254,0
1483709209.450,-27.832,24.414,66.406,83.008,-0.488,0
1483709209.454,-22.949,49.316,54.199,69.824,19.043,0
1483709209.458,-14.648,33.203,52.734,44.922,74.707,0
1483709209.462,-4.395,10.742,63.477,44.434,94.238,0
1483709209.465,-8.301,0.977,62.500,43.457,39.062,0
1483709209.469,-27.832,24.902,62.988,44.434,-3.418,0
1483709209.473,-42.480,54.199,74.219,60.059,5.371,0
1483709209.477,-42.480,38.086,98.145,62.988,34.180,0
1483709209.481,-25.391,28.809,82.520,68.359,35.645,0
1483709209.485,-1.465,37.598,41.016,76.660,-14.160,0
1483709209.489,-15.137,35.645,75.684,65.918,-9.277,0
1483709209.493,-43.457,26.367,87.402,56.152,65.918,0
1483709209.497,-36.133,40.527,22.461,51.270,71.777,0
1483709209.501,-41.016,30.273,20.508,51.758,13.184,0
1483709209.504,-40.527,19.043,39.062,45.410,18.555,0
1483709209.508,-20.508,17.090,53.711,41.504,62.500,0
1483709209.512,-22.461,5.371,62.500,66.406,64.453,0
1483709209.516,-25.391,11.719,51.758,71.289,18.555,0
1483709209.520,-33.203,36.133,34.180,46.387,21.973,0
1483709209.524,-37.109,41.016,28.809,39.551,82.520,0
1483709209.528,-17.090,29.785,38.086,44.434,62.500,0
1483709209.532,-21.973,24.902,45.410,29.785,17.090,0
1483709209.536,-23.438,8.789,48.340,29.297,22.461,0
1483709209.540,-18.555,24.902,75.195,53.223,20.020,0
1483709209.544,-17.578,54.199,61.035,79.102,48.828,0
1483709209.547,-9.766,50.781,54.688,66.895,23.438,0
1483709209.551,-22.461,26.367,85.938,31.738,-1.465,0
1483709209.555,-36.621,34.180,73.730,21.484,73.730,0
1483709209.559,-28.809,45.410,51.758,40.527,70.801,0
1483709209.563,-28.320,24.902,27.344,90.332,16.113,0
1483709209.567,-43.457,9.766,30.273,84.961,-9.277,0
1483709209.571,-40.527,20.020,13.672,43.945,-23.438,0
1483709209.575,-40.039,36.621,21.973,25.391,4.883,0
1483709209.579,-44.922,38.574,60.059,28.320,9.277,0
1483709209.583,-51.270,29.785,43.457,45.898,37.109,0
1483709209.587,-48.340,31.738,17.090,44.922,47.852,0
1483709209.590,-42.969,20.996,36.133,28.320,-26.367,0
1483709209.594,-43.457,1.953,42.969,30.762,-18.555,0
1483709209.598,-59.570,8.301,37.598,33.691,46.875,0
1483709209.602,-53.223,40.527,26.855,32.715,20.508,0
1483709209.606,-43.945,57.129,54.688,52.734,7.324,0
1483709209.610,-54.199,41.016,64.453,45.898,24.902,0
1483709209.614,-56.641,31.738,22.949,43.457,-1.465,0
1483709209.618,-56.641,31.250,60.059,41.504,23.438,0
1483709209.622,-60.059,20.020,91.309,34.668,31.738,0
1483709209.626,-46.875,24.414,20.996,35.156,16.602,0
1483709209.629,-49.316,24.414,10.742,-0.488,21.484,0
1483709209.633,-69.824,22.461,50.293,-0.977,28.809,0
1483709209.637,-61.035,26.855,29.785,25.391,32.227,0
1483709209.641,-52.246,14.648,33.203,33.203,14.160,0
1483709209.645,-31.250,15.137,54.688,39.062,-50.781,0
1483709209.649,-34.180,31.738,63.477,35.156,-40.039,0
1483709209.653,-58.594,21.484,53.711,43.457,24.414,0
1483709209.657,-61.523,20.020,40.039,64.453,18.555,0
1483709209.661,-52.734,31.738,51.270,59.570,-24.902,0
1483709209.665,-43.457,32.227,60.059,38.574,-14.160,0
1483709209.669,-54.199,30.762,53.711,22.461,52.246,0
1483709209.672,-61.523,20.020,49.316,23.438,66.406,0
1483709209.676,-47.363,17.090,60.059,41.504,44.434,0
1483709209.680,-46.875,23.926,66.895,38.086,57.617,0
1483709209.684,-51.270,40.527,43.457,21.484,48.340,0
1483709209.688,-42.480,48.828,22.949,40.527,19.531,0
1483709209.692,-31.738,41.016,67.871,62.500,6.836,0
1483709209.696,-29.297,51.270,72.754,61.035,86.426,0
1483709209.700,-33.691,67.383,35.645,60.059,123.047,0
1483709209.704,-42.969,60.547,46.875,44.434,53.711,0
1483709209.708,-34.668,48.340,41.016,28.320,28.320,0
1483709209.712,-28.809,43.945,53.223,22.949,-15.137,0
1483709209.715,-40.039,45.898,54.688,37.109,-23.438,0
1483709209.719,-55.176,49.805,67.383,41.504,-10.254,0
1483709209.723,-51.758,55.664,64.453,44.434,14.160,0
1483709209.727,-50.293,63.965,71.777,45.898,32.715,0
1483709209.731,-45.898,55.176,51.270,66.406,20.020,0
1483709209.735,-33.691,30.273,28.809,77.637,24.902,0
1483709209.739,-31.738,41.016,46.875,36.621,36.621,0
1483709209.743,-40.039,42.969,62.012,13.184,24.902,0
1483709209.747,-59.082,38.574,45.898,34.668,22.461,0
1483709209.751,-52.734,45.898,41.504,49.805,41.504,0
1483709209.754,-33.203,59.082,42.480,54.688,-6.348,0
1483709209.758,-50.781,61.035,54.688,63.965,-25.391,0
1483709209.762,-80.566,42.969,65.918,51.758,17.090,0
1483709209.766,-70.312,37.598,47.363,53.223,19.043,3
1483709209.770,-57.129,43.457,58.594,50.781,30.273,0
1483709209.774,-50.781,44.434,53.711,25.879,36.621,0
1483709209.778,-40.527,42.480,47.852,18.555,54.688,0
1483709209.782,-52.246,37.598,78.125,15.137,39.551,0
1483709209.786,-49.805,39.551,36.133,25.879,20.996,0
1483709209.790,-57.129,27.344,16.113,43.945,24.902,0
1483709209.794,-80.078,22.461,54.688,36.621,25.879,0
1483709209.797,-77.148,36.621,47.852,27.344,64.453,0
1483709209.801,-67.871,32.227,20.508,37.598,48.828,0
1483709209.805,-61.523,30.762,32.715,22.461,68.848,0
1483709209.809,-57.617,37.598,34.668,15.625,35.645,0
1483709209.813,-76.172,27.832,63.477,8.301,56.152,0
1483709209.817,-80.566,20.020,74.219,-15.137,137.695,0
1483709209.821,-64.453,22.949,19.531,15.137,84.473,0
1483709209.825,-65.918,36.621,0.977,46.387,18.555,0
1483709209.829,-73.242,54.688,18.555,34.668,15.625,0
1483709209.833,-74.707,49.805,21.973,13.184,45.898,0
1483709209.837,-82.031,27.344,45.410,-7.324,75.684,0
1483709209.840,-80.566,21.484,28.320,8.789,58.594,0
1483709209.844,-76.172,23.438,16.602,29.785,12.695,0
1483709209.848,-67.383,21.484,34.668,35.156,0.000,0
1483709209.852,-69.824,6.348,38.574,26.855,24.414,0
1483709209.856,-78.613,16.113,54.199,27.344,11.230,0
1483709209.860,-67.871,47.363,39.551,35.156,15.625,0
1483709209.864,-72.754,44.434,25.879,24.902,56.641,0
1483709209.868,-80.566,22.949,29.297,32.715,13.184,0
1483709209.872,-71.289,23.438,26.855,49.805,-0.488,0
1483709209.876,-70.312,32.715,66.406,41.992,7.812,0
1483709209.879,-62.500,23.438,65.430,9.766,-5.371,0
1483709209.883,-39.062,15.625,2.930,19.531,7.812,0
1483709209.887,-51.270,21.973,25.391,36.621,71.289,0
1483709209.891,-68.848,29.785,37.109,44.922,100.098,0
1483709209.895,-58.105,27.832,17.090,50.781,12.695,0
1483709209.899,-60.547,15.137,31.738,28.320,36.621,0
1483709209.903,-70.312,6.836,52.246,26.367,54.199,0
1483709209.907,-57.129,6.348,32.715,27.832,10.254,0
1483709209.911,-52.734,15.137,18.555,39.062,48.828,0
1483709209.915,-58.105,13.184,16.602,67.871,37.598,0
1483709209.919,-52.246,9.277,13.184,74.707,-41.504,0
1483709209.922,-54.199,11.230,15.625,46.875,-20.996,0
1483709209.926,-54.688,12.695,13.672,20.020,1.465,0
1483709209.930,-48.340,-0.977,84.961,-13.672,-14.160,0
1483709209.934,-31.738,24.902,48.340,-3.418,56.152,0
1483709209.938,-23.926,28.320,-34.668,39.062,83.008,0
1483709209.942,-41.992,16.113,-11.719,24.902,41.992,0
1483709209.946,-44.434,35.645,-4.883,24.902,2.930,0
1483709209.950,-32.227,33.691,17.578,54.199,57.129,0
1483709209.954,-31.250,30.273,15.137,72.266,78.613,0
1483709209.958,-30.273,26.855,28.320,45.898,44.434,0
1483709209.962,-9.277,27.344,42.969,29.785,24.414,0
1483709209.965,-10.254,31.250,59.082,36.133,12.695,0
1483709209.969,-15.625,44.434,50.781,45.898,43.457,0
1483709209.973,4.883,50.293,-1.465,66.406,33.691,0
1483709209.977,-12.695,20.508,23.926,83.008,-10.742,0
1483709209.981,-31.250,13.672,25.391,72.266,5.371,0
1483709209.985,-13.184,42.969,4.395,46.387,14.160,0
1483709209.989,-16.113,27.832,11.719,41.504,0.488,0
1483709209.993,-14.160,16.602,3.906,59.570,-10.254,0
1483709209.997,-13.672,38.086,6.348,60.059,-12.207,0
1483709210.001,-24.414,45.410,25.879,42.480,-25.391,0
1483709210.004,-17.578,46.875,35.156,19.043,20.996,0
1483709210.008,0.000,58.594,6.348,34.180,-7.324,0
1483709210.012,-7.324,49.805,17.090,30.762,-32.715,0
1483709210.016,-8.789,38.574,17.090,11.719,19.531,0
1483709210.020,1.465,35.156,-9.277,30.273,7.812,0
1483709210.024,0.000,32.715,-7.812,58.105,5.371,0
1483709210.028,1.465,45.410,20.020,66.406,-11.230,0
1483709210.032,2.930,45.898,2.930,44.434,0.488,0
1483709210.036,18.555,54.688,-8.789,31.250,-12.695,0
1483709210.040,32.227,57.129,8.789,24.414,-33.691,0
1483709210.044,19.043,30.273,19.043,27.344,-3.906,0
1483709210.047,4.395,30.273,36.133,33.691,-9.277,0
1483709210.051,22.949,62.988,1.465,55.176,66.895,0
1483709210.055,18.066,70.801,-3.418,66.895,31.250,0
1483709210.059,26.367,60.059,22.949,45.898,-25.391,0
1483709210.063,34.668,50.293,19.043,39.551,16.602,0
1483709210.067,32.715,48.828,20.996,53.711,48.828,0
1483709210.071,38.086,62.500,6.348,52.734,79.102,0
1483709210.075,28.320,43.945,14.648,54.688,52.246,0
1483709210.079,19.531,24.902,26.855,72.266,8.301,0
1483709210.083,23.926,47.363,8.789,60.059,11.719,0
1483709210.087,39.062,59.082,7.324,46.875,-15.137,0
1483709210.090,37.598,42.480,7.324,57.129,20.508,0
1483709210.094,12.695,9.766,48.340,53.711,78.613,0
1483709210.098,24.902,17.578,41.992,52.734,56.152,0
1483709210.102,41.504,51.270,-4.883,64.453,7.812,0
1483709210.106,30.762,46.387,12.207,70.312,-16.602,0
1483709210.110,46.387,33.691,29.297,78.613,13.184,0
1483709210.114,60.547,33.691,54.199,73.242,31.250,0
1483709210.118,51.270,57.617,34.180,56.641,41.504,0
1483709210.122,66.406,69.336,-5.859,56.641,30.762,0
1483709210.126,55.664,42.480,28.320,42.969,-11.230,0
1483709210.129,31.250,36.133,51.758,37.598,25.879,0
1483709210.133,28.320,40.039,41.992,34.180,16.602,0
1483709210.137,29.785,35.645,27.832,35.645,-17.578,0
1483709210.141,30.762,25.391,11.719,35.156,30.273,0
1483709210.145,31.738,17.578,5.859,20.508,-14.648,0
1483709210.149,28.320,25.391,-1.465,22.949,-32.715,0
1483709210.153,41.016,20.508,9.766,27.344,32.715,0
1483709210.157,55.176,27.832,11.719,48.828,49.805,0
1483709210.161,36.133,45.898,52.246,62.012,6.836,0
1483709210.165,21.973,40.527,64.941,49.805,-35.156,0
1483709210.169,27.344,42.969,6.836,32.227,-39.551,0
1483709210.172,29.785,44.434,2.930,24.414,3.906,0
1483709210.176,35.156,15.625,19.531,39.062,62.012,0
1483709210.180,27.344,0.488,61.523,40.527,3.906,0
1483709210.184,33.203,13.672,41.016,31.250,0.000,0
1483709210.188,53.711,31.738,1.953,45.410,46.875,0
1483709210.192,51.758,44.434,24.902,55.176,27.832,0
1483709210.196,54.199,35.645,29.785,36.621,45.410,0
1483709210.200,48.828,-2.930,25.391,19.043,32.227,0
1483709210.204,52.734,3.906,35.156,37.598,7.812,0
1483709210.208,42.480,42.480,22.461,69.824,35.156,0
1483709210.212,35.156,44.922,3.418,66.406,15.625,0
1483709210.215,50.293,22.461,22.949,49.805,-21.484,0
1483709210.219,46.387,20.020,34.180,41.016,47.852,0
1483709210.223,49.316,33.203,20.508,41.016,99.609,0
1483709210.227,62.012,30.762,0.977,51.758,54.688,0
1483709210.231,70.312,34.180,4.883,45.898,50.293,0
1483709210.235,64.453,43.457,20.020,36.133,17.090,0
1483709210.239,70.801,40.039,24.902,50.293,17.578,0
1483709210.243,75.195,27.832,56.152,47.363,38.574,0
1483709210.247,77.148,53.223,39.062,39.062,16.113,0
1483709210.251,96.680,69.336,5.371,58.105,39.062,0
1483709210.254,85.449,50.293,33.691,67.383,44.922,0
1483709210.258,67.871,44.434,25.391,57.617,13.672,0
1483709210.262,77.148,44.434,36.133,59.570,-5.371,0
1483709210.266,83.496,30.273,71.777,60.547,12.695,4
1483709210.270,72.266,38.086,45.410,55.664,16.602,0
1483709210.274,75.195,42.480,-5.859,53.223,19.531,0
1483709210.278,93.262,42.969,3.418,41.992,14.160,0
1483709210.282,78.613,51.270,14.648,41.016,20.508,0
1483709210.286,60.059,44.922,20.508,48.828,55.176,0
1483709210.290,68.848,46.875,39.551,46.387,44.922,0
1483709210.294,86.426,47.363,51.758,39.551,20.996,0
1483709210.297,93.750,29.297,36.133,16.113,28.320,0
1483709210.301,79.102,18.066,7.812,7.812,69.336,0
1483709210.305,73.730,28.809,11.719,27.832,70.801,0
1483709210.309,65.430,37.598,20.996,48.828,42.969,0
1483709210.313,41.504,27.832,22.461,42.480,34.668,0
1483709210.317,35.645,18.555,21.973,34.180,10.254,0
1483709210.321,37.598,11.230,38.086,40.527,27.344,0
1483709210.325,44.922,10.254,25.879,46.387,8.301,0
1483709210.329,43.945,-4.395,8.301,42.969,21.973,0
1483709210.333,45.898,-3.418,9.277,21.973,39.062,0
1483709210.337,58.594,25.391,21.973,30.762,2.441,0
1483709210.340,53.223,34.180,43.945,40.039,52.734,0
1483709210.344,42.480,26.855,81.055,16.602,77.637,0
1483709210.348,51.270,35.645,39.062,3.906,56.641,0
1483709210.352,58.594,47.852,-25.879,7.324,79.102,0
1483709210.356,47.363,41.016,-8.789,23.926,98.145,0
1483709210.360,39.062,41.992,7.324,47.852,36.133,0
1483709210.364,35.156,39.062,27.344,34.180,58.105,0
1483709210.368,44.922,34.180,30.762,33.691,75.195,0
1483709210.372,57.129,47.852,3.906,60.059,56.641,0
1483709210.376,52.246,43.457,1.465,56.152,30.273,0
1483709210.379,49.316,16.113,0.488,48.340,11.230,0
1483709210.383,43.457,16.113,12.207,40.039,20.996,0
1483709210.387,42.480,49.316,10.742,24.414,53.711,0
1483709210.391,45.898,49.805,0.000,12.695,67.871,0
1483709210.395,45.898,22.949,38.086,17.578,-31.250,0
1483709210.399,26.855,18.066,60.547,19.531,-51.270,0
1483709210.403,16.602,34.668,15.137,21.484,38.086,0
1483709210.407,14.160,25.879,0.488,19.043,21.484,0
1483709210.411,17.578,8.789,4.395,2.441,20.996,0
1483709210.415,29.785,15.137,12.207,0.488,44.434,0
1483709210.419,18.555,23.926,21.973,-0.977,14.648,0
1483709210.422,-3.906,12.695,70.312,-18.066,33.203,0
1483709210.426,5.371,10.742,17.090,-7.812,48.340,0
1483709210.430,12.207,23.438,-64.453,14.648,48.340,0
1483709210.434,-0.977,13.184,-16.602,-0.488,3.418,0
1483709210.438,2.930,-0.977,-20.996,-8.789,-13.672,0
1483709210.442,-7.324,-2.930,-18.066,-5.371,24.414,0
1483709210.446,-29.297,-0.977,-8.301,-10.254,20.996,0
1483709210.450,-36.133,-1.953,-8.789,-26.855,31.250,0
1483709210.454,-22.949,6.836,-5.859,-39.062,49.316,0
1483709210.458,-16.113,21.973,1.465,-55.176,54.199,0
1483709210.462,-25.879,29.297,4.395,-63.477,64.453,0
1483709210.465,-41.504,19.531,-15.625,-56.152,77.637,0
1483709210.469,-58.594,6.836,-2.930,-51.270,93.750,0
1483709210.473,-64.941,2.930,4.395,-42.969,93.750,0
1483709210.477,-59.082,0.977,-34.180,-30.273,65.918,0
1483709210.481,-62.500,-12.207,-15.625,-36.133,28.320,0
1483709210.485,-51.758,-31.738,-2.441,-46.875,-11.230,0
1483709210.489,-30.273,-5.371,-18.066,-41.504,20.508,0
1483709210.493,-23.438,27.832,-19.531,-40.527,-12.695,0
1483709210.497,-22.461,32.715,9.766,-58.594,-38.086,0
1483709210.501,-34.668,31.738,5.859,-50.781,38.086,0
1483709210.504,-29.785,34.180,-38.574,-15.137,50.781,0
1483709210.508,-30.273,17.578,16.602,-18.555,43.457,0
1483709210.512,-27.832,-13.672,29.785,-46.387,53.711,0
1483709210.516,-8.301,1.953,-31.738,-23.438,53.223,0
1483709210.520,-1.465,21.484,-14.648,10.742,43.945,0
1483709210.524,7.324,22.461,14.648,5.859,0.000,0
1483709210.528,10.742,25.879,7.324,-4.883,-47.363,0
1483709210.532,16.602,27.344,-0.488,-13.184,-26.367,0
1483709210.536,19.043,24.902,-13.184,-14.160,32.227,0
1483709210.540,14.648,19.531,-3.906,0.000,69.336,0
1483709210.544,24.414,17.578,15.625,-2.441,61.523,0
1483709210.547,31.738,14.160,17.578,7.324,90.332,0
1483709210.551,35.645,12.207,33.203,41.504,51.758,0
1483709210.555,54.199,21.484,22.949,38.574,-8.301,0
1483709210.559,60.059,38.086,-15.137,23.926,13.672,0
1483709210.563,55.664,46.875,6.836,30.273,39.551,0
1483709210.567,53.223,43.457,30.762,42.480,69.824,0
1483709210.571,51.270,19.043,42.969,48.828,59.082,0
1483709210.575,65.430,11.719,57.129,36.133,12.207,0
1483709210.579,57.129,32.227,43.457,31.250,-15.137,0
1483709210.583,41.992,51.758,21.484,43.457,33.203,0
1483709210.587,48.828,39.551,30.273,46.387,58.594,0
1483709210.590,27.832,26.855,85.938,32.227,69.824,0
1483709210.594,25.391,45.898,47.852,34.668,32.715,0
1483709210.598,40.527,53.223,6.348,41.016,27.344,0
1483709210.602,42.969,23.438,24.902,25.391,41.504,0
1483709210.606,39.062,14.160,30.762,25.391,51.270,0
1483709210.610,28.809,35.645,45.410,24.902,66.406,0
1483709210.614,25.879,40.039,20.508,32.227,17.090,0
1483709210.618,26.367,30.273,21.973,22.949,16.113,0
1483709210.622,46.875,34.668,31.250,14.160,13.184,0
1483709210.626,45.898,37.598,30.762,24.902,18.555,0
1483709210.629,21.484,29.785,22.461,29.297,21.973,0
1483709210.633,32.227,28.809,16.113,43.457,-18.555,0
1483709210.637,44.922,24.414,50.781,37.598,50.293,0
1483709210.641,47.852,25.391,48.340,35.645,32.227,0
1483709210.645,37.598,15.137,25.391,31.738,26.855,0
1483709210.649,19.043,12.207,24.902,19.043,102.539,0
1483709210.653,25.879,22.461,41.016,23.438,52.246,0
1483709210.657,39.062,17.578,7.324,26.367,5.371,0
1483709210.661,35.156,11.230,-10.742,28.320,-37.109,0
1483709210.665,43.457,5.859,1.953,27.832,-27.344,0
1483709210.669,52.734,7.324,9.766,35.645,35.156,0
1483709210.672,39.551,21.484,41.992,29.297,41.504,0
1483709210.676,39.062,25.391,24.414,20.508,10.742,0
1483709210.680,49.316,28.809,-12.695,33.203,-2.441,0
1483709210.684,70.312,33.691,7.324,55.176,33.203,0
1483709210.688,78.613,35.156,22.949,67.871,10.742,0
1483709210.692,70.312,38.086,26.367,43.457,10.742,0
1483709210.696,72.754,38.574,35.645,36.621,50.293,0
1483709210.700,68.359,37.598,25.879,55.664,-6.836,0
1483709210.704,58.105,35.645,25.391,60.547,-23.438,0
1483709210.708,52.246,40.039,11.230,61.035,21.973,0
1483709210.712,60.059,37.109,25.879,51.270,14.648,0
1483709210.715,64.453,32.715,57.617,40.527,18.066,0
1483709210.719,69.336,40.039,16.113,38.086,-11.719,0
1483709210.723,62.988,34.668,0.977,16.113,-14.160,0
1483709210.727,41.504,26.855,21.484,3.906,7.324,0
1483709210.731,52.734,49.805,23.438,30.762,-20.020,0
1483709210.735,46.875,48.828,33.203,39.551,-75.684,0
1483709210.739,22.461,38.574,39.551,31.738,-34.668,0
1483709210.743,46.387,56.641,20.020,43.945,-9.766,0
1483709210.747,56.152,63.965,9.766,45.410,11.719,0
1483709210.751,51.758,55.176,3.906,20.020,31.738,0
1483709210.754,48.340,37.598,40.527,2.441,-12.207,0
1483709210.758,41.992,50.293,62.012,6.836,-14.160,0
1483709210.762,56.641,65.430,3.906,14.160,-23.438,0
1483709210.766,44.434,67.383,-10.742,20.020,-37.598,5
1483709210.770,22.949,65.430,31.738,30.762,-3.418,0
1483709210.774,41.504,59.082,36.621,40.527,15.625,0
1483709210.778,62.988,53.711,23.438,34.668,-15.625,0
1483709210.782,56.641,53.711,35.156,18.555,16.113,0
1483709210.786,66.895,59.570,-7.812,20.020,62.988,0
1483709210.790,77.637,56.152,-5.371,15.625,10.742,0
1483709210.794,57.129,33.203,11.230,6.836,-11.230,0
1483709210.797,54.199,18.066,-1.465,0.977,14.648,0
1483709210.801,61.035,45.410,4.395,2.441,32.715,0
1483709210.805,59.570,66.895,2.930,18.066,49.805,0
1483709210.809,58.105,56.152,6.348,19.043,24.414,0
1483709210.813,48.828,42.969,28.320,-6.348,16.113,0
1483709210.817,49.316,37.109,24.902,0.000,38.574,0
1483709210.821,51.758,32.227,9.766,-1.465,14.648,0
1483709210.825,36.133,40.527,35.156,-10.254,15.625,0
1483709210.829,34.180,49.805,27.344,8.301,27.832,0
1483709210.833,43.945,51.270,23.438,8.301,5.371,0
1483709210.837,49.316,63.477,17.578,22.949,-8.789,0
1483709210.840,58.594,36.621,-9.277,27.344,-23.926,0
1483709210.844,58.105,8.301,6.836,9.277,-17.090,0
1483709210.848,65.430,45.410,17.090,27.832,0.977,0
1483709210.852,66.895,66.406,32.227,29.785,31.738,0
1483709210.856,63.477,56.641,32.715,5.859,44.922,0
1483709210.860,78.613,53.711,21.484,18.555,41.016,0
1483709210.864,92.773,61.035,38.086,47.852,46.875,0
1483709210.868,89.844,62.988,28.320,58.594,6.348,0
1483709210.872,74.707,55.664,22.949,45.410,36.621,0
1483709210.876,73.730,41.016,24.414,44.922,62.988,0
1483709210.879,69.824,46.875,23.438,62.012,37.109,0
1483709210.883,66.895,55.176,34.668,50.293,47.363,0
1483709210.887,70.312,33.691,29.785,30.762,34.668,0
1483709210.891,67.383,24.414,28.809,26.367,27.832,0
1483709210.895,68.359,32.715,40.039,22.461,47.363,0
1483709210.899,92.285,54.199,35.645,39.551,65.430,0
1483709210.903,106.934,59.570,39.551,58.594,54.199,0
1483709210.907,80.566,48.340,56.641,72.266,-41.016,0
1483709210.911,67.871,51.270,74.707,81.055,-38.574,0
1483709210.915,82.031,44.922,29.297,83.984,39.551,0
1483709210.919,89.844,43.945,-1.953,78.125,27.832,0
1483709210.922,91.797,46.387,27.832,65.918,30.762,0
1483709210.926,90.332,49.805,23.438,57.129,47.852,0
1483709210.930,86.914,44.922,27.832,57.129,59.082,0
1483709210.934,84.473,35.645,59.570,39.062,52.734,0
1483709210.938,89.844,32.227,57.129,33.691,34.180,0
1483709210.942,97.168,34.180,31.738,41.992,44.434,0
1483709210.946,78.125,37.109,25.879,38.574,16.602,0
1483709210.950,64.941,13.184,35.645,51.758,13.184,0
1483709210.954,62.012,21.973,30.273,54.199,25.879,0
1483709210.958,51.758,40.527,19.531,35.156,67.383,0
1483709210.962,55.176,50.293,15.625,17.578,45.898,0
1483709210.965,71.777,51.758,23.438,18.066,-3.906,0
1483709210.969,75.195,39.062,39.551,19.531,51.758,0
1483709210.973,51.270,29.297,39.551,25.879,67.871,0
1483709210.977,38.086,11.230,29.785,48.828,66.895,0
1483709210.981,39.551,8.301,65.918,43.457,61.035,0
1483709210.985,41.016,23.926,51.270,28.320,11.230,0
1483709210.989,53.223,23.438,-2.930,26.367,6.348,0
1483709210.993,30.762,20.020,1.953,5.859,54.199,0
1483709210.997,16.602,0.977,12.695,-6.836,76.172,0
1483709211.001,31.738,5.371,44.434,3.906,77.148,0
1483709211.004,47.363,31.738,33.203,8.301,53.223,0
1483709211.008,52.246,24.414,6.836,11.230,71.777,0
1483709211.012,44.434,20.996,21.484,26.367,120.605,0
1483709211.016,31.250,26.855,46.387,35.156,100.586,0
1483709211.020,37.109,27.344,42.969,30.273,87.891,0
1483709211.024,34.180,20.508,35.645,25.879,108.398,0
1483709211.028,22.461,13.184,36.621,47.852,104.980,0
1483709211.032,40.527,11.719,24.414,62.500,78.613,0
1483709211.036,48.340,13.184,36.621,45.410,47.852,0
1483709211.040,40.527,17.090,53.711,32.227,36.133,0
1483709211.044,31.250,17.090,34.180,32.715,59.082,0
1483709211.047,24.414,9.277,20.508,37.109,63.965,0
1483709211.051,22.461,9.766,51.270,28.320,38.574,0
1483709211.055,17.578,9.766,70.312,26.367,49.316,0
1483709211.059,17.090,13.184,30.762,43.457,76.660,0
1483709211.063,14.648,5.859,36.621,45.410,51.758,0
1483709211.067,12.695,-13.184,63.965,20.508,46.387,0
1483709211.071,27.832,7.324,23.926,22.949,58.105,0
1483709211.075,31.738,34.668,35.645,45.410,39.551,0
1483709211.079,21.484,29.297,44.922,35.156,38.086,0
1483709211.083,15.625,21.973,2.441,26.367,69.336,0
1483709211.087,11.719,17.090,25.879,31.250,50.293,0
1483709211.090,21.484,19.531,44.922,33.691,14.160,0
1483709211.094,20.508,26.367,31.738,36.621,38.086,0
1483709211.098,13.672,20.996,42.480,31.250,17.578,0
1483709211.102,10.742,18.555,36.133,18.555,16.113,0
1483709211.106,8.789,28.809,22.461,10.742,73.730,0
1483709211.110,5.371,20.020,21.484,13.184,26.367,0
1483709211.114,6.348,0.488,21.973,19.531,-21.973,0
1483709211.118,9.277,-6.836,25.391,26.367,24.414,0
1483709211.122,7.812,9.277,17.090,23.438,38.574,0
1483709211.126,-2.930,21.484,27.344,20.020,31.738,0
1483709211.129,-14.160,4.883,47.363,25.391,15.137,0
1483709211.133,-8.789,7.324,43.457,36.621,12.695,0
1483709211.137,-9.277,21.484,59.082,42.969,-10.254,0
1483709211.141,1.465,19.043,84.473,19.531,14.160,0
1483709211.145,8.789,28.320,26.367,9.277,13.672,0
1483709211.149,14.160,30.762,-4.883,24.414,-4.395,0
1483709211.153,34.668,23.926,27.832,31.738,15.625,0
1483709211.157,24.902,23.438,22.949,14.648,27.832,0
1483709211.161,22.949,41.504,10.742,30.762,6.836,0
1483709211.165,25.879,54.688,32.715,49.805,5.371,0
1483709211.169,1.465,41.016,61.523,46.387,-0.488,0
1483709211.172,-5.371,23.438,44.434,58.105,0.488,0
1483709211.176,-0.488,26.367,8.789,46.387,35.156,0
1483709211.180,-14.160,24.414,23.926,21.484,44.922,0
1483709211.184,-29.785,8.789,24.902,-4.883,60.059,0
1483709211.188,-32.227,15.625,33.203,-20.020,10.254,0
1483709211.192,-29.297,20.996,50.293,-20.020,-63.477,0
1483709211.196,-31.738,35.645,18.555,1.953,-35.645,0
1483709211.200,-38.086,52.246,3.418,21.973,-19.043,0
1483709211.204,-43.945,40.039,23.926,23.926,-39.062,0
1483709211.208,-33.203,30.762,37.109,-3.906,20.996,0
1483709211.212,-22.949,34.180,26.367,-9.277,18.555,0
1483709211.215,-35.645,30.273,28.320,-8.301,-23.438,0
1483709211.219,-34.180,22.949,20.996,-8.789,21.973,0
1483709211.223,-19.043,38.574,38.086,18.066,-6.836,0
1483709211.227,-30.762,33.691,72.266,8.789,-13.184,0
1483709211.231,-22.461,25.391,-20.020,21.484,6.348,0
1483709211.235,-8.301,27.344,-19.043,20.020,2.441,0
1483709211.239,-15.625,30.273,11.230,5.859,30.762,0
1483709211.243,-18.066,12.695,-11.230,16.602,55.664,0
1483709211.247,-14.648,-2.930,12.207,12.695,31.738,0
1483709211.251,-5.859,10.742,17.578,10.254,8.301,0
1483709211.254,-3.418,15.625,16.602,21.973,11.719,0
1483709211.258,-16.602,25.391,20.508,18.066,23.926,0
1483709211.262,-17.090,31.738,17.090,-3.418,-9.277,0
1483709211.266,-4.395,37.598,21.484,-2.441,1.465,0
1483709211.270,-7.324,40.039,43.945,21.484,40.039,0
1483709211.274,-15.625,26.367,32.715,36.133,13.184,0
1483709211.278,0.977,24.414,-1.465,27.832,22.949,0
1483709211.282,7.324,34.180,8.789,28.809,53.711,0
1483709211.286,-9.766,35.645,23.926,35.156,-18.066,0
1483709211.290,-5.371,31.250,20.508,22.949,-20.996,0
1483709211.294,-4.883,39.551,22.461,22.949,25.391,0
1483709211.297,-5.371,37.598,50.781,38.086,10.254,0
1483709211.301,-1.465,38.086,78.613,34.180,-3.906,0
1483709211.305,-11.719,40.527,59.082,9.766,15.137,0
1483709211.309,-4.883,34.668,1.953,-3.418,14.160,0
1483709211.313,9.277,29.785,-25.879,17.578,-16.113,0
1483709211.317,-6.348,28.320,-12.207,23.926,-2.441,0
1483709211.321,-9.766,36.621,-0.488,11.230,-37.109,0
1483709211.325,-11.719,32.715,5.859,13.184,-19.531,0
1483709211.329,-20.508,19.531,-0.488,45.410,18.066,0
1483709211.333,-5.371,18.555,10.742,44.922,20.996,0
1483709211.337,8.789,28.809,27.344,20.996,37.598,0
1483709211.340,7.324,27.344,30.762,-1.953,34.668,0
1483709211.344,24.414,23.438,24.414,4.395,18.066,0
1483709211.348,23.926,22.949,12.207,24.414,40.039,0
1483709211.352,1.953,28.320,20.508,4.883,75.684,0
1483709211.356,7.812,32.715,6.348,2.441,27.832,0
1483709211.360,19.531,41.016,-14.160,14.648,20.020,0
1483709211.364,9.277,30.762,24.414,26.855,74.707,0
1483709211.368,-1.465,5.371,43.457,22.461,82.520,0
1483709211.372,4.395,16.602,36.133,27.832,6.836,0
1483709211.376,9.766,14.160,32.227,39.551,-7.812,0
1483709211.379,31.738,20.020,-0.977,36.621,10.742,0
1483709211.383,33.691,36.133,22.461,32.715,-26.367,0
1483709211.387,28.320,34.668,21.484,43.457,8.301,0
1483709211.391,42.969,21.484,-21.973,41.504,28.809,0
1483709211.395,27.344,27.832,-0.977,28.320,-3.418,0
1483709211.399,25.879,45.410,4.883,46.387,-3.906,0
1483709211.403,39.062,40.527,16.113,53.223,-6.836,0
1483709211.407,35.645,24.902,28.320,44.922,9.766,0
1483709211.411,34.668,17.090,10.742,34.668,5.859,0
1483709211.415,40.039,27.832,-2.441,24.414,45.410,0
1483709211.419,28.809,36.621,18.066,35.645,31.250,0
1483709211.422,23.438,31.250,32.227,53.223,-15.137,0
1483709211.426,35.645,30.762,13.184,58.105,53.711,0
1483709211.430,54.199,39.062,-2.441,49.805,68.848,0
1483709211.434,51.758,42.969,0.977,41.992,13.672,0
1483709211.438,37.598,30.273,15.625,33.691,-6.836,0
1483709211.442,34.668,18.555,38.086,16.602,39.551,0
1483709211.446,27.832,22.461,55.176,10.254,-10.254,0
1483709211.450,35.156,35.156,24.902,38.574,-6.348,0
1483709211.454,45.410,51.270,17.578,53.711,35.156,0
1483709211.458,53.711,44.434,34.668,39.062,4.395,0
1483709211.462,58.105,46.387,39.551,33.691,-4.395,0
1483709211.465,48.828,49.805,27.832,36.621,4.395,0
1483709211.469,38.574,49.805,9.766,30.273,-18.066,0
1483709211.473,35.156,45.410,14.648,20.996,25.391,0
1483709211.477,49.805,45.898,23.926,36.133,45.410,0
1483709211.481,66.895,54.199,56.152,56.641,-10.254,0
1483709211.485,64.453,46.875,52.246,66.895,-35.645,0
1483709211.489,51.758,41.016,26.367,57.617,-30.762,0
1483709211.493,54.688,41.504,31.738,44.434,-26.855,0
1483709211.497,58.105,53.223,41.016,50.781,-29.785,0
1483709211.501,56.641,41.504,23.438,51.270,40.039,0
1483709211.504,58.105,35.156,36.621,49.805,51.270,0
1483709211.508,70.801,62.500,56.641,63.477,9.277,0
1483709211.512,65.918,57.129,49.316,61.523,39.062,0
1483709211.516,52.734,42.969,52.246,37.598,29.297,0
1483709211.520,66.895,52.734,27.344,24.414,1.953,0
1483709211.524,68.848,57.617,17.578,33.203,26.855,0
1483709211.528,59.082,56.152,40.039,48.340,30.273,0
1483709211.532,52.246,47.363,40.039,60.547,36.621,0
1483709211.536,58.594,42.480,22.949,67.383,83.984,0
1483709211.540,72.754,58.105,2.441,61.035,54.688,0
1483709211.544,50.781,60.059,25.879,41.992,4.395,0
1483709211.547,34.668,34.668,62.500,30.273,49.805,0
1483709211.551,44.434,20.020,53.711,29.297,49.316,0
1483709211.555,47.852,41.016,20.020,36.133,11.719,0
1483709211.559,41.504,49.805,27.344,49.805,10.254,0
1483709211.563,44.434,34.180,19.043,56.152,-0.488,0
1483709211.567,38.574,31.250,19.043,55.664,-25.391,0
1483709211.571,35.156,39.551,38.086,56.641,1.465,0
1483709211.575,51.270,35.645,34.180,46.387,54.199,0
1483709211.579,51.270,23.438,19.531,33.203,50.781,0
1483709211.583,38.086,30.273,49.805,41.016,40.527,0
1483709211.587,28.809,40.527,50.781,47.363,20.508,0
1483709211.590,36.621,32.227,32.715,36.133,-4.883,0
1483709211.594,47.363,26.367,34.180,33.203,-21.484,0
1483709211.598,47.852,38.086,15.137,46.875,-1.953,0
1483709211.602,36.133,31.738,24.902,60.059,12.695,0
1483709211.606,43.457,33.203,24.902,57.617,24.414,0
1483709211.610,67.871,33.691,17.090,68.359,31.250,0
1483709211.614,76.172,34.668,61.035,68.359,28.320,0
1483709211.618,74.219,50.781,57.129,65.430,15.625,0
1483709211.622,62.988,49.316,48.828,63.477,18.555,0
1483709211.626,66.895,50.781,33.203,58.594,40.039,0
1483709211.629,72.754,60.547,13.672,69.824,49.316,0
1483709211.633,56.152,60.059,47.363,77.148,36.133,0
1483709211.637,53.711,48.340,40.039,79.590,27.344,0
1483709211.641,67.871,41.504,17.090,71.777,5.859,0
1483709211.645,82.031,46.875,34.180,62.012,10.742,0
1483709211.649,83.984,56.152,21.973,49.316,26.367,0
1483709211.653,74.219,53.711,2.441,48.340,38.086,0
1483709211.657,75.195,46.875,32.715,66.406,67.871,0
1483709211.661,71.777,24.902,58.105,66.895,11.230,0
1483709211.665,73.242,34.180,41.504,47.852,48.340,0
1483709211.669,70.312,58.105,22.949,33.203,67.871,0
1483709211.672,67.383,55.176,27.344,34.668,41.016,0
1483709211.676,58.594,50.781,42.969,44.434,62.988,0
1483709211.680,57.129,36.621,39.062,38.086,44.434,0
1483709211.684,66.406,31.738,4.883,37.598,61.035,0
1483709211.688,74.707,28.320,33.691,40.527,68.848,0
1483709211.692,57.129,27.344,54.688,26.855,12.207,0
1483709211.696,30.762,23.438,43.457,20.020,2.930,0
1483709211.700,35.156,20.996,51.270,31.738,71.289,0
1483709211.704,38.086,40.527,32.227,37.109,76.172,0
1483709211.708,38.574,32.227,16.602,35.156,71.289,0
1483709211.712,48.828,28.320,37.598,33.203,113.770,0
1483709211.715,56.152,27.832,52.734,38.574,67.871,0
1483709211.719,57.617,13.184,38.086,47.363,32.715,0
1483709211.723,42.969,20.996,40.039,56.641,70.312,0
1483709211.727,33.691,32.227,50.293,55.176,58.594,0
1483709211.731,41.504,35.156,51.758,37.598,41.016,0
1483709211.735,48.340,31.738,35.645,35.156,43.945,0
1483709211.739,47.852,43.457,42.480,43.945,-0.488,0
1483709211.743,36.133,43.945,42.480,52.734,-51.270,0
1483709211.747,49.805,34.668,25.391,51.758,7.324,0
1483709211.751,74.219,40.527,32.227,42.969,27.344,0
1483709211.754,83.008,41.016,54.688,28.320,-12.207,0
1483709211.758,66.895,37.109,29.297,22.949,-14.648,0
1483709211.762,45.898,38.086,46.875,40.527,6.836,0
1483709211.766,48.828,38.086,70.801,42.480,-10.254,0
1483709211.770,46.387,48.828,-2.930,46.875,4.883,0
1483709211.774,34.180,45.898,-11.719,49.316,27.344,0
1483709211.778,53.711,54.199,-1.953,59.570,27.344,0
1483709211.782,63.477,56.152,13.672,41.992,38.086,0
1483709211.786,61.523,44.922,24.902,38.086,2.930,0
1483709211.790,62.500,40.039,40.527,40.527,22.461,0
1483709211.794,70.312,42.480,22.949,32.715,39.551,0
1483709211.797,71.289,41.992,11.230,41.504,45.410,0
1483709211.801,54.199,36.133,20.508,30.762,50.293,0
1483709211.805,61.035,45.898,31.738,17.090,42.480,0
1483709211.809,58.594,42.480,59.570,9.766,41.016,0
1483709211.813,52.246,34.180,31.738,20.996,22.461,0
1483709211.817,63.477,27.344,-16.113,45.410,15.137,0
1483709211.821,58.105,22.949,-11.230,35.645,-25.391,0
1483709211.825,49.805,20.020,20.020,29.297,19.043,0
1483709211.829,37.109,23.438,66.895,17.578,89.844,0
1483709211.833,36.133,17.578,24.414,3.906,77.148,0
1483709211.837,43.457,25.391,-11.719,15.137,55.664,0
1483709211.840,53.223,45.410,20.996,8.301,-21.973,0
1483709211.844,54.688,30.762,-2.930,8.789,-20.020,0
1483709211.848,45.410,18.066,-12.695,19.531,18.555,0
1483709211.852,44.922,21.973,6.836,17.578,12.207,0
1483709211.856,38.574,13.672,22.949,18.066,31.250,0
1483709211.860,33.691,-3.906,20.996,7.324,-10.254,0
1483709211.864,29.297,-4.395,-18.555,-1.465,-17.578,0
1483709211.868,31.738,-1.953,0.488,7.324,-31.250,0
1483709211.872,38.574,-11.230,22.461,15.137,15.137,0
1483709211.876,36.133,-1.953,-0.488,23.926,51.270,0
1483709211.879,39.062,9.766,-18.555,16.113,5.859,0
1483709211.883,45.898,-1.953,-7.324,13.672,0.488,0
1483709211.887,42.480,-3.906,16.602,34.668,39.551,0
1483709211.891,33.691,7.812,28.809,37.109,55.664,0
1483709211.895,33.691,10.254,25.391,28.809,56.152,0
1483709211.899,54.199,3.418,9.766,43.945,46.387,0
1483709211.903,58.594,-4.395,11.719,41.504,35.156,0
1483709211.907,43.457,0.000,1.953,25.391,66.895,0
1483709211.911,32.227,0.488,-23.438,20.508,56.152,0
1483709211.915,33.203,-13.184,-14.160,9.277,68.359,0
1483709211.919,29.297,-16.113,9.766,6.348,66.895,0
1483709211.922,16.602,-6.348,-0.488,7.324,11.719,0
1483709211.926,8.789,-2.930,-8.789,17.090,46.875,0
1483709211.930,20.020,-2.441,8.301,27.344,56.641,0
1483709211.934,38.574,6.836,29.297,21.973,26.367,0
1483709211.938,45.410,16.113,34.180,-2.441,-17.578,0
1483709211.942,41.504,15.625,-5.371,-5.859,-8.301,0
1483709211.946,31.738,10.742,-17.090,13.184,29.297,0
1483709211.950,37.109,-0.977,-4.883,35.156,31.250,0
1483709211.954,43.945,-0.977,20.020,35.645,45.410,0
1483709211.958,45.410,5.859,17.090,28.320,-6.836,0
1483709211.962,49.316,14.648,2.441,39.551,37.109,0
1483709211.965,49.805,29.785,23.438,24.902,97.656,0
1483709211.969,35.645,27.832,35.156,9.766,-3.906,0
1483709211.973,38.574,23.438,7.812,14.648,-24.902,0
1483709211.977,46.875,14.648,-3.906,19.043,48.340,0
1483709211.981,22.461,16.602,-0.977,11.719,39.551,0
1483709211.985,9.277,20.508,-4.395,17.578,52.246,0
1483709211.989,21.973,16.113,10.742,18.066,61.035,0
1483709211.993,32.715,17.578,33.691,6.836,57.617,0
1483709211.997,28.320,14.160,14.648,2.930,17.578,0
1483709212.001,41.016,9.277,-1.465,1.465,-5.371,0
1483709212.004,48.340,18.555,10.254,9.277,57.617,0
1483709212.008,40.527,8.301,0.000,11.719,40.039,0
1483709212.012,38.574,2.930,-14.160,-3.418,21.484,0
1483709212.016,27.832,8.789,-9.766,-0.977,14.160,0
1483709212.020,13.672,0.488,22.949,-8.789,28.809,0
1483709212.024,8.789,-7.324,4.395,-6.348,68.848,0
1483709212.028,7.812,-19.531,-26.855,0.488,23.926,0
1483709212.032,17.578,1.465,-12.207,2.930,2.441,0
1483709212.036,27.832,25.391,33.203,-7.324,48.340,0
1483709212.040,34.180,21.484,28.320,0.977,40.039,0
1483709212.044,27.344,12.207,-11.719,25.391,5.859,0
1483709212.047,33.203,3.418,-16.113,35.156,32.227,0
1483709212.051,40.039,12.207,-2.930,19.043,-0.488,0
1483709212.055,30.273,16.113,-17.090,-9.766,-51.270,0
1483709212.059,22.461,13.184,-17.090,-6.348,18.555,0
1483709212.063,28.320,18.555,19.531,25.879,35.156,0
1483709212.067,39.062,26.367,29.297,44.434,-0.488,0
1483709212.071,31.738,38.086,24.902,38.574,44.922,0
1483709212.075,23.438,21.484,34.180,28.320,38.086,0
1483709212.079,29.785,25.879,38.574,15.137,21.973,0
1483709212.083,35.156,43.945,20.996,20.020,71.289,0
1483709212.087,45.410,37.109,5.371,39.551,56.152,0
1483709212.090,54.688,44.434,22.949,54.199,24.414,0
1483709212.094,44.922,45.410,58.105,51.758,41.992,0
1483709212.098,43.457,47.852,61.523,43.945,51.270,0
1483709212.102,60.547,48.828,39.551,58.105,41.992,0
1483709212.106,53.711,55.664,30.273,47.363,50.781,0
1483709212.110,63.477,73.730,6.348,50.781,9.277,0
1483709212.114,74.707,63.965,14.160,58.105,11.719,0
1483709212.118,59.570,47.852,32.715,40.527,8.789,0
1483709212.122,46.387,49.805,33.203,45.410,23.926,0
1483709212.126,37.109,41.992,31.250,57.129,78.125,0
1483709212.129,46.387,38.086,39.551,52.246,25.879,0
1483709212.133,53.223,40.527,41.504,37.598,18.555,0
1483709212.137,56.152,40.527,56.152,20.996,50.781,0
1483709212.141,51.270,44.434,41.992,43.457,16.113,0
1483709212.145,52.246,52.246,7.812,60.059,-43.945,0
1483709212.149,55.664,55.176,29.297,39.551,16.602,0
1483709212.153,57.617,60.059,66.895,46.875,42.969,0
1483709212.157,69.336,59.082,32.715,49.805,-1.465,0
1483709212.161,61.523,48.340,48.828,20.508,-8.301,0
1483709212.165,49.316,32.715,62.500,33.691,-20.996,0
1483709212.169,48.340,46.387,14.160,64.453,16.113,0
1483709212.172,56.152,75.684,29.785,75.684,-23.438,0
1483709212.176,60.547,70.801,33.691,81.543,-61.035,0
1483709212.180,73.730,55.176,34.180,65.430,-33.691,0
1483709212.184,81.055,61.035,46.875,59.082,4.395,0
1483709212.188,75.684,61.035,56.152,70.312,20.996,0
1483709212.192,71.777,62.012,51.270,65.430,25.391,0
1483709212.196,66.895,70.312,58.105,71.289,20.508,0
1483709212.200,79.590,81.055,61.035,92.773,-22.461,0
1483709212.204,86.426,92.773,45.410,83.496,-47.363,0
1483709212.208,74.219,72.754,73.730,60.547,-38.574,0
1483709212.212,76.660,61.523,57.129,50.781,5.371,0
1483709212.215,77.148,58.594,6.348,57.129,37.109,0
1483709212.219,69.336,56.641,20.508,62.500,20.020,0
1483709212.223,67.383,55.176,38.574,71.777,47.363,0
1483709212.227,77.637,43.945,73.730,87.402,34.668,0
1483709212.231,88.379,61.523,96.680,98.633,13.672,0
1483709212.235,92.773,89.355,40.527,102.051,-12.695,0
1483709212.239,86.426,73.730,-0.488,99.121,-15.625,0
1483709212.243,88.867,63.477,28.320,98.633,8.301,0
1483709212.247,87.402,54.199,42.480,100.586,15.137,0
1483709212.251,71.777,47.852,50.293,89.355,62.988,0
1483709212.254,87.402,50.781,40.039,86.426,25.391,0
1483709212.258,94.238,44.434,47.852,83.496,-60.059,0
1483709212.262,78.613,52.734,66.406,75.684,-53.711,0
1483709212.266,63.477,57.617,45.410,83.008,20.996,0
1483709212.270,67.383,56.641,49.316,79.102,56.152,0
1483709212.274,82.031,61.523,80.078,79.102,40.039,0
1483709212.278,96.191,69.336,49.316,91.797,28.809,0
1483709212.282,97.168,63.477,9.277,92.773,-3.906,0
1483709212.286,81.543,43.945,35.645,85.938,-20.996,0
1483709212.290,96.680,50.293,49.805,99.121,9.766,0
1483709212.294,102.539,61.035,77.148,100.586,-0.977,0
1483709212.297,83.008,48.828,68.359,97.168,-32.715,0
1483709212.301,82.031,40.527,50.293,95.215,36.133,0
1483709212.305,85.449,52.246,67.383,96.680,49.805,0
1483709212.309,98.145,46.387,69.824,94.727,28.809,0
1483709212.313,99.609,30.273,58.105,71.777,42.480,0
1483709212.317,95.703,46.875,25.879,83.984,18.555,0
1483709212.321,109.375,62.500,19.043,95.215,13.184,0
1483709212.325,112.793,58.105,18.066,90.332,-17.578,0
1483709212.329,101.562,49.316,22.949,89.844,-51.270,0
1483709212.333,93.750,37.598,33.691,83.984,4.883,0
1483709212.337,103.516,43.945,33.203,79.102,67.871,0
1483709212.340,92.285,43.945,24.414,74.219,118.164,0
1483709212.344,67.383,31.738,43.945,69.336,103.027,0
1483709212.348,73.730,50.293,33.691,85.938,19.531,0
1483709212.352,79.590,51.758,26.855,93.750,-2.441,0
1483709212.356,77.637,54.199,35.156,72.754,31.738,0
1483709212.360,80.078,61.035,10.742,54.199,37.598,0
1483709212.364,91.309,42.480,20.996,62.012,106.445,0
1483709212.368,98.145,36.621,32.715,62.012,90.332,0
1483709212.372,70.312,51.758,39.062,47.852,33.203,0
1483709212.376,48.340,57.129,54.688,49.316,60.059,0
1483709212.379,50.293,52.246,45.410,63.477,76.660,0
1483709212.383,60.059,46.387,60.059,67.383,60.547,0
1483709212.387,56.152,45.898,52.246,57.617,30.273,0
1483709212.391,62.988,56.152,-16.602,73.242,61.035,0
1483709212.395,77.148,52.734,7.812,80.078,26.855,0
1483709212.399,76.172,46.875,27.344,89.355,10.254,0
1483709212.403,60.547,49.316,7.324,88.867,18.066,0
1483709212.407,60.059,32.715,14.160,64.941,9.277,0
1483709212.411,67.383,28.320,29.297,44.922,42.969,0
1483709212.415,63.477,45.898,35.156,48.828,23.926,0
1483709212.419,52.246,38.574,49.316,53.223,14.160,0
1483709212.422,45.410,30.762,70.801,40.039,39.062,0
1483709212.426,45.410,28.320,56.641,54.688,20.996,0
1483709212.430,51.758,37.109,21.973,79.590,22.461,0
1483709212.434,59.082,36.133,12.695,79.102,100.586,0
1483709212.438,62.988,38.086,31.250,76.660,82.031,0
1483709212.442,41.992,49.805,44.922,57.617,-1.465,0
1483709212.446,39.062,41.504,23.438,41.016,25.879,0
1483709212.450,55.664,35.156,36.621,37.109,40.039,0
1483709212.454,48.828,45.898,53.711,31.738,44.434,0
1483709212.458,38.574,41.504,40.039,46.875,41.504,0
1483709212.462,48.828,33.691,22.461,68.848,-7.812,0
1483709212.465,43.457,39.551,2.441,72.754,59.082,0
1483709212.469,38.574,33.203,3.418,63.477,98.633,0
1483709212.473,45.410,18.555,22.949,49.316,47.852,0
1483709212.477,35.645,17.090,45.410,45.410,22.949,0
1483709212.481,38.574,28.320,29.297,50.293,56.152,0
1483709212.485,41.992,24.902,23.438,43.945,24.902,0
1483709212.489,48.828,30.273,8.789,41.504,-4.883,0
1483709212.493,45.410,28.809,24.414,20.996,27.832,0
1483709212.497,41.992,24.414,39.062,23.438,46.875,0
1483709212.501,41.504,27.344,-0.488,46.387,20.020,0
1483709212.504,22.461,21.484,6.348,56.152,-15.137,0
1483709212.508,15.137,18.066,27.344,42.480,0.488,0
1483709212.512,20.508,14.160,30.273,29.785,11.230,0
1483709212.516,15.625,11.719,16.113,36.133,5.859,0
1483709212.520,5.859,18.555,16.602,27.832,11.230,0
1483709212.524,13.184,23.926,22.949,25.879,-9.766,0
1483709212.528,16.602,15.137,32.715,22.949,23.926,0
1483709212.532,25.879,20.020,25.391,25.391,63.477,0
1483709212.536,10.254,27.832,26.367,10.254,21.484,0
1483709212.540,-10.742,10.742,41.016,11.230,27.832,0
1483709212.544,0.000,9.277,30.762,43.457,41.016,0
1483709212.547,10.254,17.090,-3.418,48.340,57.617,0
1483709212.551,14.648,9.766,-8.301,29.785,46.875,0
1483709212.555,22.461,14.648,18.555,16.602,30.273,0
1483709212.559,10.742,11.719,33.203,13.672,67.383,0
1483709212.563,6.348,-6.348,29.785,17.578,27.832,0
1483709212.567,3.906,3.418,39.062,22.461,-16.602,0
1483709212.571,-13.184,15.625,46.387,23.438,28.809,0
1483709212.575,5.371,17.090,15.137,38.574,33.691,0
1483709212.579,13.672,13.672,8.301,35.156,19.043,0
1483709212.583,7.324,12.207,-9.766,24.902,27.344,0
1483709212.587,9.277,8.789,4.395,24.902,30.273,0
1483709212.590,24.414,13.184,25.879,25.391,-4.883,0
1483709212.594,20.996,12.695,5.371,36.133,-2.441,0
1483709212.598,17.578,-7.324,-13.672,38.086,17.578,0
1483709212.602,16.113,-11.719,59.570,17.090,41.992,0
1483709212.606,6.348,6.836,91.797,15.137,26.367,0
1483709212.610,16.602,23.438,-14.648,32.227,28.809,0
1483709212.614,14.648,16.113,-48.340,15.625,61.523,0
1483709212.618,15.137,12.695,-19.043,10.254,42.969,0
1483709212.622,12.695,19.531,9.277,35.645,84.473,0
1483709212.626,12.695,30.273,20.508,38.574,100.098,0
1483709212.629,18.066,15.137,24.902,30.273,103.516,0
1483709212.633,21.973,3.906,39.551,37.598,90.332,0
1483709212.637,20.996,35.156,43.457,33.691,20.020,0
1483709212.641,20.996,48.340,30.762,41.016,-35.156,0
1483709212.645,27.832,40.039,39.551,39.551,7.324,0
1483709212.649,45.410,38.574,45.410,26.855,4.883,0
1483709212.653,40.039,46.875,36.133,35.645,-23.438,0
1483709212.657,21.484,55.176,27.344,50.781,-7.812,0
1483709212.661,32.715,49.805,25.391,46.875,31.250,0
1483709212.665,41.504,53.711,61.035,39.062,53.711,0
1483709212.669,35.645,48.340,100.098,42.480,21.484,0
1483709212.672,40.527,33.691,33.691,38.574,-0.488,0
1483709212.676,23.438,18.555,9.277,21.484,-24.902,0
1483709212.680,9.766,20.508,35.156,27.344,14.160,0
1483709212.684,5.859,38.574,31.250,35.645,25.391,0
1483709212.688,-3.418,40.039,49.316,18.555,-19.531,0
1483709212.692,4.395,33.203,45.410,9.277,31.738,0
1483709212.696,6.348,27.832,26.367,15.625,41.504,0
1483709212.700,1.953,31.738,50.781,37.109,-15.137,0
1483709212.704,-1.953,28.320,59.082,37.109,-31.250,0
1483709212.708,4.395,28.320,15.625,20.996,4.883,0
1483709212.712,15.137,31.250,19.531,28.320,51.270,0
1483709212.715,-7.324,33.203,25.391,22.461,16.113,0
1483709212.719,-18.555,20.020,0.977,23.438,-15.625,0
1483709212.723,-4.883,16.602,7.324,34.180,24.414,0
1483709212.727,3.906,22.461,23.438,20.508,26.855,0
1483709212.731,8.789,13.672,33.203,14.648,23.926,0
1483709212.735,8.789,14.648,24.902,17.578,26.855,0
1483709212.739,3.418,23.438,56.641,27.344,68.359,0
1483709212.743,2.441,18.066,44.922,41.504,47.852,0
1483709212.747,4.883,15.137,-5.371,46.387,-14.648,0
1483709212.751,10.254,13.672,-5.859,18.066,0.977,0
1483709212.754,17.090,9.766,17.578,12.207,24.414,0
1483709212.758,11.230,15.625,34.668,18.555,33.691,0
1483709212.762,6.348,20.996,-11.230,8.301,20.508,0
1483709212.766,2.930,22.461,-10.742,14.160,4.395,0
1483709212.770,-4.395,26.367,14.160,23.438,32.715,0
1483709212.774,7.324,30.273,-0.488,31.738,34.668,0
1483709212.778,21.973,30.273,-16.602,41.992,5.371,0
1483709212.782,13.672,31.250,-10.254,37.598,9.277,0
1483709212.786,17.578,35.645,-7.812,46.875,10.742,0
1483709212.790,28.320,29.297,-4.883,51.270,10.254,0
1483709212.794,29.785,30.762,13.672,32.715,59.082,0
1483709212.797,11.230,41.504,17.578,39.062,72.754,0
1483709212.801,7.324,46.875,9.277,66.406,57.129,0
1483709212.805,16.602,36.133,10.742,63.477,56.152,0
1483709212.809,9.766,20.996,-6.348,33.691,40.527,0
1483709212.813,0.000,0.488,20.996,3.906,62.012,0
1483709212.817,-5.371,-15.137,22.461,0.000,83.496,0
1483709212.821,0.488,-5.371,-20.508,10.742,80.078,0
1483709212.825,6.836,2.441,3.906,3.906,21.973,0
1483709212.829,4.395,-3.906,41.504,6.836,-0.488,0
1483709212.833,15.625,14.160,-14.160,29.297,-17.578,0
1483709212.837,21.484,22.461,-11.230,34.668,-5.371,0
1483709212.840,7.324,11.719,38.574,23.438,34.180,0
1483709212.844,14.160,22.461,15.625,30.273,29.785,0
1483709212.848,22.949,20.508,18.066,30.762,63.477,0
1483709212.852,17.090,3.418,28.320,11.719,81.055,0
1483709212.856,19.043,4.883,29.297,15.625,-0.488,0
1483709212.860,15.137,-1.465,34.180,39.062,-34.668,0
1483709212.864,11.230,16.113,15.625,65.918,3.418,0
1483709212.868,18.066,41.504,14.160,50.293,17.578,0
1483709212.872,31.738,42.480,23.926,28.809,7.324,0
1483709212.876,38.086,35.156,35.645,44.434,0.000,0
1483709212.879,38.574,32.227,43.945,42.480,-16.113,0
1483709212.883,32.715,35.645,35.156,44.434,8.301,0
1483709212.887,30.273,43.457,3.906,53.711,43.457,0
1483709212.891,41.992,40.527,7.812,50.781,3.418,0
1483709212.895,42.480,30.762,22.461,46.875,4.883,0
1483709212.899,35.156,29.785,10.742,52.246,44.922,0
1483709212.903,40.527,34.180,-16.602,62.500,-7.324,0
1483709212.907,35.645,46.387,6.348,46.875,-52.246,0
1483709212.911,33.203,28.809,57.129,36.621,-7.812,0
1483709212.915,33.203,11.719,17.090,57.617,8.301,0
1483709212.919,34.668,48.828,-3.906,63.477,8.301,0
1483709212.922,50.293,63.965,11.719,53.223,20.996,0
1483709212.926,60.059,51.758,20.508,41.992,-23.438,0
1483709212.930,67.383,56.641,16.113,58.105,41.016,0
1483709212.934,69.336,49.805,44.922,78.613,69.336,0
1483709212.938,79.102,58.105,61.035,79.590,38.574,0
1483709212.942,88.867,64.453,28.809,67.871,84.961,0
1483709212.946,80.566,55.176,33.691,75.195,50.293,0
1483709212.950,70.312,58.594,55.664,84.961,28.320,0
1483709212.954,80.078,51.270,35.645,73.242,26.367,0
1483709212.958,88.867,49.316,19.043,67.871,25.391,0
1483709212.962,76.172,63.965,33.691,67.871,53.223,0
1483709212.965,74.219,69.824,41.992,65.430,26.367,0
1483709212.969,72.754,55.176,58.105,59.082,37.598,0
1483709212.973,76.172,47.852,36.621,59.082,68.848,0
1483709212.977,77.637,65.918,16.113,53.223,31.250,0
1483709212.981,71.289,61.035,85.449,55.664,18.555,0
1483709212.985,72.754,49.316,77.148,80.078,22.949,0
1483709212.989,79.102,52.734,5.371,82.031,18.066,0
1483709212.993,78.613,51.270,36.621,58.105,28.809,0
1483709212.997,70.801,57.617,47.852,44.434,-9.277,0
1483709213.001,65.430,63.965,32.227,46.875,-1.953,0
1483709213.004,61.035,44.434,27.344,49.316,65.918,0
1483709213.008,55.176,39.062,36.621,53.711,13.672,0
1483709213.012,60.547,49.805,36.133,52.246,5.859,0
1483709213.016,68.848,52.246,29.297,56.152,-2.930,0
1483709213.020,58.105,51.270,44.922,53.711,-12.695,0
1483709213.024,51.270,49.805,53.711,51.758,31.250,0
1483709213.028,61.035,41.992,25.879,62.012,47.852,0
1483709213.032,61.523,50.781,24.902,57.617,98.145,0
1483709213.036,47.363,57.129,73.242,34.180,61.523,0
1483709213.040,46.875,52.246,54.688,35.156,25.879,0
1483709213.044,61.523,58.594,15.137,50.781,14.160,0
1483709213.047,59.082,47.363,16.113,44.922,4.395,0
1483709213.051,59.570,46.875,25.391,47.852,2.441,0
1483709213.055,56.641,52.734,44.922,58.105,41.992,0
1483709213.059,44.434,52.246,84.473,59.082,17.578,0
1483709213.063,38.574,46.875,68.359,47.363,0.977,0
1483709213.067,43.945,57.129,7.324,61.035,26.367,0
1483709213.071,42.480,71.777,4.883,67.871,28.320,0
1483709213.075,36.621,68.359,23.926,54.688,62.012,0
1483709213.079,25.879,49.805,34.668,29.785,61.523,0
1483709213.083,24.902,42.969,20.996,32.227,20.996,0
1483709213.087,39.062,45.898,15.625,58.105,-15.137,0
1483709213.090,35.156,34.668,35.645,53.223,8.301,0
1483709213.094,16.602,32.715,69.336,39.551,44.922,0
1483709213.098,13.184,37.598,67.871,40.039,16.602,0
1483709213.102,29.785,43.945,40.527,44.434,-22.949,0
1483709213.106,28.809,31.738,33.691,44.434,-28.809,0
1483709213.110,31.250,38.086,22.949,59.570,-25.391,0
1483709213.114,47.363,40.039,38.574,53.223,-24.902,0
1483709213.118,48.340,31.738,53.223,31.738,18.555,0
1483709213.122,26.855,45.410,34.180,32.227,39.062,0
1483709213.126,30.762,39.551,32.227,40.039,27.344,0
1483709213.129,43.945,34.180,30.273,47.363,48.828,0
1483709213.133,36.621,36.621,30.762,44.922,38.574,0
1483709213.137,20.996,20.020,63.965,30.273,17.090,0
1483709213.141,25.391,8.301,39.551,30.273,48.828,0
1483709213.145,41.504,17.090,-0.488,26.367,51.758,0
1483709213.149,40.039,17.578,32.715,24.414,11.230,0
1483709213.153,30.273,22.949,41.992,38.086,24.902,0
1483709213.157,25.879,33.203,31.250,34.180,35.645,0
1483709213.161,24.414,26.367,43.945,41.504,51.270,0
1483709213.165,21.484,22.461,54.199,40.527,68.848,0
1483709213.169,31.738,20.020,52.246,27.832,55.176,0
1483709213.172,26.855,18.066,39.551,34.668,40.527,0
1483709213.176,28.320,21.973,52.734,42.969,37.598,0
1483709213.180,46.387,8.301,24.414,43.945,3.906,0
1483709213.184,46.387,3.418,-9.277,38.086,-16.602,0
1483709213.188,33.691,12.695,38.574,28.809,-5.859,0
1483709213.192,36.133,13.672,38.086,42.969,42.969,0
1483709213.196,37.109,26.367,28.320,57.129,29.297,0
1483709213.200,38.574,31.738,32.715,49.805,7.812,0
1483709213.204,49.805,9.277,42.480,48.828,19.531,0
1483709213.208,44.922,13.672,35.645,43.945,42.969,0
1483709213.212,41.992,29.297,24.902,41.992,21.484,0
1483709213.215,41.992,23.438,34.668,46.387,10.254,0
1483709213.219,44.922,25.391,35.645,53.711,43.945,0
1483709213.223,46.387,28.809,57.129,51.758,39.062,0
1483709213.227,38.086,7.324,56.641,34.668,70.801,0
1483709213.231,38.574,-6.836,5.371,33.691,90.332,0
1483709213.235,48.828,-7.324,24.414,58.105,60.547,0
1483709213.239,36.133,-20.996,55.664,62.988,40.039,0
1483709213.243,34.180,-34.180,4.395,63.965,17.578,0
1483709213.247,47.363,-35.645,25.879,70.801,48.340,0
1483709213.251,48.340,-14.160,56.641,50.293,2.930,0
1483709213.254,40.527,-0.488,8.789,49.805,-40.527,0
1483709213.258,53.711,-14.648,-1.465,68.359,21.973,0
1483709213.262,58.105,-18.066,4.883,50.293,54.688,0
1483709213.266,44.434,-13.184,12.695,36.133,28.320,0
1483709213.270,48.340,-20.996,22.461,52.734,-43.457,0
1483709213.274,33.203,-25.879,-1.953,26.367,-17.578,0
1483709213.278,-0.977,-41.992,-25.391,6.348,3.906,0
1483709213.282,-16.113,-60.547,-44.922,6.836,9.766,0
1483709213.286,-17.090,-62.012,-25.391,-0.488,84.473,0
1483709213.290,-8.789,-52.246,-5.371,-5.859,72.266,0
1483709213.294,6.836,-41.992,-22.949,-4.883,36.133,0
1483709213.297,10.254,-38.574,-16.113,8.789,30.762,0
1483709213.301,-10.254,-62.988,41.504,3.906,32.715,0
1483709213.305,-22.949,-62.500,23.926,6.348,37.109,0
1483709213.309,-1.465,-24.902,-40.527,26.367,24.414,0
1483709213.313,-9.766,-25.391,-7.812,1.465,22.949,0
1483709213.317,-32.227,-40.527,-22.949,-21.973,25.879,0
1483709213.321,-14.160,-37.109,-58.105,-8.789,52.734,0
1483709213.325,-4.883,-32.227,-24.902,-6.348,71.777,0
1483709213.329,-5.859,-39.551,-18.066,-8.789,50.781,0
1483709213.333,-13.672,-43.945,-4.883,-16.113,24.902,0
1483709213.337,-23.926,-40.527,7.812,-15.625,46.875,0
1483709213.340,-12.207,-36.621,0.488,-4.395,41.504,0
1483709213.344,-4.395,-39.062,17.578,-4.883,41.016,0
1483709213.348,-3.906,-20.508,12.695,-10.742,69.824,0
1483709213.352,0.488,-17.578,-18.555,10.254,28.320,0
1483709213.356,-6.348,-35.156,-9.277,21.973,11.230,0
1483709213.360,-1.953,-14.648,-2.930,0.488,13.672,0
1483709213.364,5.859,-8.789,-3.418,-2.930,62.012,0
1483709213.368,2.441,-5.371,19.531,9.277,74.707,0
1483709213.372,4.395,-6.836,33.691,6.836,22.461,0
1483709213.376,6.836,-27.344,7.324,16.113,66.895,0
1483709213.379,22.949,-9.766,-26.367,27.832,66.406,0
1483709213.383,29.297,-4.395,-1.465,17.090,17.090,0
1483709213.387,28.320,-13.184,16.113,15.625,47.852,0
1483709213.391,32.715,-5.859,-10.742,38.086,62.988,0
1483709213.395,16.113,-6.836,-17.090,49.805,29.297,0
1483709213.399,14.160,-8.789,12.695,50.293,-8.789,0
1483709213.403,25.879,-9.277,29.297,26.367,13.184,0
1483709213.407,19.043,-12.207,4.395,0.000,38.574,0
1483709213.411,13.184,-20.020,-4.395,7.812,44.922,0
1483709213.415,13.672,-11.230,21.973,24.902,20.020,0
1483709213.419,11.719,5.371,29.297,36.133,-16.602,0
1483709213.422,17.090,-3.906,8.789,44.922,-19.531,0
1483709213.426,16.602,0.977,23.926,38.574,22.949,0
1483709213.430,20.996,9.277,26.855,16.113,19.531,0
1483709213.434,34.180,-0.488,0.488,19.531,0.488,0
1483709213.438,30.273,-5.859,20.508,29.785,28.320,0
1483709213.442,28.809,2.930,0.000,33.691,74.219,0
1483709213.446,23.926,-9.277,17.578,37.598,107.422,0
1483709213.450,31.738,-9.277,12.207,38.086,41.504,0
1483709213.454,35.156,-3.418,-14.648,18.555,-18.066,0
1483709213.458,16.113,-2.930,14.160,7.324,-0.977,0
1483709213.462,36.621,23.926,10.254,25.879,-19.531,0
1483709213.465,43.945,20.020,10.254,38.086,-4.883,0
1483709213.469,32.715,9.277,15.137,20.508,25.391,0
1483709213.473,37.598,25.391,36.621,15.137,0.977,0
1483709213.477,37.109,22.461,36.133,17.578,-3.906,0
1483709213.481,28.809,7.324,25.879,13.672,54.688,0
1483709213.485,27.832,17.578,44.434,21.973,56.152,0
1483709213.489,40.039,37.109,29.297,38.574,-43.457,0
1483709213.493,45.410,40.039,19.531,46.387,-2.930,0
1483709213.497,34.668,31.738,25.879,40.039,26.367,0
1483709213.501,12.207,17.090,35.156,39.551,6.348,0
1483709213.504,19.531,19.531,33.691,27.344,63.965,0
1483709213.508,24.414,37.598,26.855,23.438,42.969,0
1483709213.512,13.184,12.695,43.457,18.555,-20.508,0
1483709213.516,14.648,-1.465,31.738,16.602,26.855,0
1483709213.520,28.809,13.672,31.738,25.391,71.289,0
1483709213.524,39.062,15.625,18.555,27.344,5.371,0
1483709213.528,46.875,17.090,-19.531,18.555,-40.039,0
1483709213.532,56.641,25.391,-7.324,24.902,20.996,0
1483709213.536,47.363,38.574,11.719,44.434,38.086,0
1483709213.540,35.645,41.992,18.066,60.547,36.621,0
1483709213.544,48.828,30.762,40.039,63.965,36.133,0
1483709213.547,45.410,29.297,62.988,44.922,15.625,0
1483709213.551,52.246,37.598,60.547,55.176,52.246,0
1483709213.555,61.523,41.016,14.648,68.848,12.695,0
1483709213.559,43.945,20.508,1.953,53.223,-28.809,0
1483709213.563,35.645,10.254,14.160,50.781,18.555,0
1483709213.567,34.668,9.277,21.484,55.176,48.828,0
1483709213.571,43.457,14.160,21.973,53.711,63.965,0
1483709213.575,48.340,34.668,6.836,43.457,28.320,0
1483709213.579,52.734,37.598,15.137,46.875,-11.230,0
1483709213.583,46.875,31.250,43.945,39.551,-30.762,0
1483709213.587,44.922,22.949,5.371,42.969,16.602,0
1483709213.590,52.246,10.254,-8.301,73.242,57.129,0
1483709213.594,45.410,12.207,11.230,65.918,54.688,0
1483709213.598,44.434,37.598,-2.441,48.340,74.707,0
1483709213.602,35.156,35.156,49.316,25.879,75.195,0
1483709213.606,33.691,21.973,68.848,28.809,35.156,0
1483709213.610,45.898,24.902,-8.789,54.199,5.859,0
1483709213.614,43.945,28.809,-20.996,65.430,21.484,0
1483709213.618,37.598,20.508,-13.672,62.988,8.301,0
1483709213.622,37.109,2.441,6.836,47.363,26.855,0
1483709213.626,37.109,22.949,18.555,41.504,-17.090,0
1483709213.629,43.945,44.434,13.184,56.641,-41.016,0
1483709213.633,55.664,30.273,19.531,55.176,-13.672,0
1483709213.637,60.059,30.273,5.371,39.062,-45.410,0
1483709213.641,52.246,33.203,16.602,40.039,-33.203,0
1483709213.645,48.340,24.414,17.578,22.461,-41.016,0
1483709213.649,48.340,28.320,20.508,15.625,9.766,0
1483709213.653,43.945,19.043,29.785,18.066,53.711,0
1483709213.657,51.758,16.602,4.883,11.719,-3.418,0
1483709213.661,50.293,35.156,-3.418,12.695,25.391,0
1483709213.665,48.340,41.504,11.719,6.836,44.434,0
1483709213.669,57.129,35.645,27.832,28.809,-17.578,0
1483709213.672,55.176,31.738,13.672,44.922,-24.902,0
1483709213.676,41.992,30.762,45.898,39.551,10.742,0
1483709213.680,34.668,30.762,57.617,39.062,-22.461,0
1483709213.684,45.410,53.711,20.508,38.574,1.953,0
1483709213.688,46.875,62.988,47.363,20.996,36.133,0
1483709213.692,42.480,43.457,24.902,14.160,10.254,0
1483709213.696,40.039,31.738,-18.555,37.109,43.457,0
1483709213.700,34.668,38.574,19.043,40.527,-2.441,0
1483709213.704,42.480,40.527,34.180,31.738,1.953,0
1483709213.708,44.434,29.785,38.574,18.555,-2.930,0
1483709213.712,51.270,24.902,20.996,13.184,-31.250,0
1483709213.715,44.922,20.508,16.602,17.090,17.090,0
1483709213.719,26.855,31.250,20.020,19.531,76.660,0
1483709213.723,34.668,42.969,19.531,21.973,40.527,0
1483709213.727,41.992,34.668,56.152,23.438,-6.348,0
1483709213.731,47.852,43.457,19.531,39.062,7.812,0
1483709213.735,53.711,57.617,1.953,42.969,-3.906,0
1483709213.739,50.781,46.387,27.832,25.391,-30.273,0
1483709213.743,43.945,39.062,21.484,17.090,-21.484,0
1483709213.747,54.199,37.109,14.160,39.551,5.371,0
1483709213.751,56.152,40.039,40.039,37.109,7.812,0
1483709213.754,54.199,40.527,24.414,20.508,42.480,0
1483709213.758,49.805,41.016,20.508,40.039,60.059,0
1483709213.762,53.711,42.969,37.109,44.434,9.277,0
1483709213.766,55.664,44.434,-4.883,41.992,6.348,0
1483709213.770,27.832,47.852,5.371,32.227,48.828,0
1483709213.774,33.203,47.363,19.043,33.691,99.121,0
1483709213.778,46.875,42.480,25.879,30.273,65.918,0
1483709213.782,35.156,28.320,31.738,28.320,34.180,0
1483709213.786,41.016,23.926,4.395,42.969,56.641,0
1483709213.790,40.039,36.621,27.344,25.879,35.645,0
1483709213.794,32.227,25.879,63.965,12.207,7.812,0
1483709213.797,38.086,19.531,13.672,13.672,-8.789,0
1483709213.801,39.062,23.926,-9.277,16.602,-5.371,0
1483709213.805,35.645,32.227,11.230,28.320,-3.418,0
1483709213.809,35.645,40.039,14.160,24.902,-3.906,0
1483709213.813,46.875,43.457,11.719,30.273,5.859,0
1483709213.817,48.828,43.945,33.203,30.762,63.965,0
1483709213.821,36.621,38.574,39.062,23.926,72.266,0
1483709213.825,14.648,32.715,25.879,33.691,8.789,0
1483709213.829,17.090,23.438,5.859,40.527,40.039,0
1483709213.833,35.156,30.762,7.324,32.715,67.871,0
1483709213.837,34.668,21.973,40.039,29.297,48.340,0
1483709213.840,43.945,2.441,33.203,39.551,6.348,0
1483709213.844,50.293,29.297,0.977,49.805,20.996,0
1483709213.848,55.664,43.457,29.785,46.387,85.938,0
1483709213.852,52.734,24.414,78.125,19.043,88.867,0
1483709213.856,49.316,17.090,20.508,6.348,86.914,0
1483709213.860,53.223,19.531,-27.832,35.645,31.250,0
1483709213.864,42.969,20.996,11.719,61.035,20.020,0
1483709213.868,42.969,27.344,27.832,46.875,55.176,0
1483709213.872,50.781,38.574,10.254,39.551,-1.953,0
1483709213.876,51.758,36.621,3.906,55.664,8.301,0
1483709213.879,58.594,4.883,2.930,72.266,41.504,0
1483709213.883,51.270,-5.859,37.109,70.312,10.254,0
1483709213.887,30.762,-0.977,34.180,43.945,21.484,0
1483709213.891,31.738,6.348,-8.301,29.297,72.754,0
1483709213.895,43.457,32.227,1.953,37.598,89.355,0
1483709213.899,49.316,36.133,17.090,49.316,78.613,0
1483709213.903,52.734,24.902,13.672,54.688,52.734,0
1483709213.907,38.574,12.695,29.297,50.293,24.902,0
1483709213.911,28.320,10.742,67.871,25.879,59.082,0
1483709213.915,36.133,24.414,14.648,27.832,82.031,0
1483709213.919,40.039,28.320,-21.484,46.875,47.852,0
1483709213.922,52.246,23.926,-9.277,31.738,73.242,0
1483709213.926,49.316,23.438,32.715,19.531,52.246,0
1483709213.930,25.391,-4.883,38.574,19.043,-9.277,0
1483709213.934,18.555,-27.832,-13.184,20.508,5.859,0
1483709213.938,23.438,-3.906,-3.418,14.160,25.879,0
1483709213.942,35.645,20.508,-6.348,13.184,1.953,0
1483709213.946,25.879,29.785,-8.301,6.836,-17.578,0
1483709213.950,23.438,16.602,16.113,-2.930,37.598,0
1483709213.954,43.945,13.672,18.555,3.418,21.484,0
1483709213.958,54.199,37.109,1.953,17.090,-65.430,0
1483709213.962,50.293,26.367,13.184,5.859,-44.434,0
1483709213.965,47.363,-2.441,26.367,-8.301,46.387,0
1483709213.969,42.480,18.066,31.250,14.160,57.617,0
1483709213.973,34.668,34.180,7.812,39.062,7.324,0
1483709213.977,36.621,29.297,42.969,27.344,-5.371,0
1483709213.981,50.293,37.109,39.062,22.949,40.527,0
1483709213.985,60.059,47.852,-17.578,36.133,34.180,0
1483709213.989,59.082,44.922,22.949,25.391,28.320,0
1483709213.993,72.754,39.062,36.133,16.113,33.203,0
1483709213.997,73.730,42.480,30.762,25.879,-2.930,0
1483709214.001,63.965,50.293,29.297,32.227,26.855,0
1483709214.004,68.359,48.828,17.578,37.598,53.711,0
1483709214.008,63.965,34.668,32.715,47.363,44.922,0
1483709214.012,49.805,33.691,45.898,51.758,49.805,0
1483709214.016,53.223,40.039,45.898,57.129,49.316,0
1483709214.020,55.664,31.738,33.691,77.148,4.395,0
1483709214.024,43.457,-0.977,40.039,56.152,9.277,0
1483709214.028,62.500,10.742,47.852,45.410,-0.977,0
1483709214.032,73.242,42.969,19.043,54.688,26.855,0
1483709214.036,57.129,34.668,26.367,36.621,56.641,0
1483709214.040,48.828,26.367,16.113,43.945,-18.555,0
1483709214.044,40.527,27.344,31.250,43.457,26.855,0
1483709214.047,33.203,26.367,33.203,28.320,63.965,0
1483709214.051,33.203,32.227,1.953,41.992,56.152,0
1483709214.055,31.738,33.691,16.602,41.504,51.758,0
1483709214.059,28.320,20.508,49.805,34.668,-29.785,0
1483709214.063,28.320,10.254,38.086,41.992,-38.574,0
1483709214.067,33.203,10.254,14.648,23.926,-11.230,0
1483709214.071,40.527,7.812,-10.254,18.555,8.789,0
1483709214.075,36.621,-0.977,2.930,35.156,68.359,0
1483709214.079,26.367,-8.301,21.484,29.785,85.449,0
1483709214.083,37.109,15.137,7.812,22.949,78.125,0
1483709214.087,46.387,15.625,29.785,24.414,32.715,0
1483709214.090,38.086,6.348,14.160,30.762,-14.160,0
1483709214.094,26.855,7.324,21.973,21.484,-5.371,0
1483709214.098,39.551,4.395,9.766,17.578,35.645,0
1483709214.102,53.223,17.578,-23.438,36.133,5.859,0
1483709214.106,49.805,9.766,5.371,37.109,-14.160,0
1483709214.110,48.340,-0.977,25.391,4.883,8.789,0
1483709214.114,46.875,8.789,19.043,-9.766,51.270,0
1483709214.118,49.805,19.043,-3.906,13.672,42.480,0
1483709214.122,49.316,20.508,-13.672,30.762,-6.348,0
1483709214.126,48.340,23.926,-1.953,18.555,47.852,0
1483709214.129,62.988,12.695,3.906,20.020,14.648,0
1483709214.133,68.359,4.395,0.000,21.973,-17.090,0
1483709214.137,62.012,23.438,17.090,5.371,37.598,0
1483709214.141,39.551,22.949,42.969,4.395,26.367,0
1483709214.145,25.391,24.414,8.301,25.391,-18.555,0
1483709214.149,41.504,33.691,-20.020,38.574,-35.156,0
1483709214.153,42.969,19.531,16.113,17.578,67.871,0
1483709214.157,36.133,9.277,3.418,10.742,82.520,0
1483709214.161,28.809,1.465,14.648,1.953,6.836,0
1483709214.165,27.344,-13.184,26.367,-4.883,65.918,0
1483709214.169,29.785,1.953,-18.555,12.695,80.566,0
1483709214.172,20.020,16.113,-29.785,4.395,56.641,0
1483709214.176,12.207,13.672,-13.184,-17.578,49.805,0
1483709214.180,9.277,3.418,15.625,-18.555,19.043,0
1483709214.184,2.441,-14.648,-5.859,5.859,55.664,0
1483709214.188,-12.695,-9.277,-29.297,-6.348,43.457,0
1483709214.192,-12.207,1.953,-3.906,-40.527,61.035,0
1483709214.196,-10.742,7.812,-6.836,-43.945,91.309,0
1483709214.200,-12.207,5.859,-17.090,-31.738,14.648,0
1483709214.204,-6.348,-4.883,-6.348,-30.762,13.672,0
1483709214.208,-3.418,-6.348,16.602,-27.344,71.289,0
1483709214.212,-0.977,-6.348,13.184,-20.996,53.223,0
1483709214.215,5.371,4.395,-1.465,-20.508,35.645,0
1483709214.219,-3.418,4.395,21.484,-15.137,68.848,0
1483709214.223,10.254,-3.418,-12.207,4.883,23.926,0
1483709214.227,38.086,4.883,0.977,17.090,-8.789,0
1483709214.231,34.668,0.977,46.875,17.578,-5.371,0
1483709214.235,32.227,10.254,22.461,18.555,-5.859,0
1483709214.239,34.180,18.066,31.250,6.348,28.809,0
1483709214.243,42.480,10.742,40.527,8.301,40.527,0
1483709214.247,45.898,27.344,-4.883,22.949,5.371,0
1483709214.251,40.039,37.598,4.883,16.113,-2.441,0
1483709214.254,47.363,23.438,22.461,20.508,-0.977,0
1483709214.258,49.316,16.602,24.414,35.645,24.414,0
1483709214.262,44.434,9.766,30.273,39.551,-19.531,0
1483709214.266,57.129,6.836,30.273,40.039,-53.223,0
1483709214.270,78.125,23.926,25.391,45.898,-2.441,0
1483709214.274,85.938,26.367,33.691,62.012,19.043,0
1483709214.278,84.473,20.020,23.438,51.758,-26.855,0
1483709214.282,76.172,37.598,44.922,49.805,-39.062,0
1483709214.286,68.359,46.387,86.914,59.082,31.738,0
1483709214.290,79.590,57.129,62.012,62.500,39.551,0
1483709214.294,93.262,62.012,70.312,72.754,-3.906,0
1483709214.297,99.121,54.199,82.520,68.848,21.973,0
1483709214.301,103.027,62.500,57.129,68.359,10.254,0
1483709214.305,104.980,55.176,30.762,83.008,-12.695,0
1483709214.309,99.121,39.551,39.551,83.496,0.488,0
1483709214.313,96.191,48.340,62.500,59.570,0.000,0
1483709214.317,99.121,52.246,49.316,57.129,-25.391,0
1483709214.321,90.820,51.270,44.922,65.430,-27.832,0
1483709214.325,64.453,38.086,42.480,52.734,15.137,0
1483709214.329,59.570,26.367,46.875,50.781,71.777,0
1483709214.333,72.266,29.785,59.570,60.547,34.180,0
1483709214.337,73.730,38.086,29.785,51.758,-1.465,0
1483709214.340,74.707,25.879,35.156,29.785,-45.410,0
1483709214.344,68.848,25.879,50.781,31.738,0.977,0
1483709214.348,59.082,45.898,53.223,48.828,31.738,0
1483709214.352,55.176,34.180,88.379,28.320,-12.207,0
1483709214.356,51.270,22.461,57.617,13.672,44.922,0
1483709214.360,54.199,38.086,34.668,36.621,48.340,0
1483709214.364,53.711,41.504,39.062,42.969,-9.277,0
1483709214.368,54.199,21.973,33.203,25.879,-23.926,0
1483709214.372,53.711,18.555,5.371,24.902,-6.836,0
1483709214.376,43.945,28.320,28.809,36.621,-5.371,0
1483709214.379,32.715,22.461,67.871,45.898,-2.930,0
1483709214.383,38.086,21.484,34.668,46.387,10.742,0
1483709214.387,60.059,42.480,18.555,50.293,55.664,0
1483709214.391,62.012,41.504,27.832,40.527,31.738,0
1483709214.395,50.781,36.621,27.832,36.133,9.277,0
1483709214.399,52.246,45.410,41.016,39.551,42.969,0
1483709214.403,68.848,37.109,34.668,47.363,-9.766,0
1483709214.407,64.453,41.504,17.578,44.434,-29.297,0
1483709214.411,44.922,42.480,43.457,33.203,-9.766,0
1483709214.415,48.828,34.180,57.617,27.344,11.719,0
1483709214.419,64.941,48.828,33.203,43.457,64.941,0
1483709214.422,65.430,53.711,42.969,44.434,63.477,0
1483709214.426,38.574,29.785,57.129,29.785,54.199,0
1483709214.430,28.320,37.598,32.715,24.902,73.242,0
1483709214.434,57.129,59.570,-1.953,45.898,45.410,0
1483709214.438,57.617,56.152,23.438,54.199,-18.555,0
1483709214.442,48.828,47.363,20.020,40.039,-8.789,0
1483709214.446,60.059,37.109,15.137,40.527,32.715,0
1483709214.450,46.875,28.320,43.457,38.086,0.000,0
1483709214.454,26.855,29.297,11.230,27.344,32.227,0
1483709214.458,42.480,41.992,-16.602,33.203,38.574,0
1483709214.462,44.434,28.809,28.809,32.227,16.602,0
1483709214.465,36.133,32.227,32.227,37.109,27.832,0
1483709214.469,47.363,51.270,-14.648,47.363,45.410,0
1483709214.473,43.457,42.480,19.531,33.691,35.156,0
1483709214.477,37.598,35.645,46.387,35.156,28.320,0
1483709214.481,35.156,32.715,15.625,49.316,22.461,0
1483709214.485,36.133,30.273,18.555,41.504,-1.953,0
1483709214.489,48.828,30.273,31.250,45.410,-21.484,0
1483709214.493,45.410,35.156,26.855,58.105,-0.977,0
1483709214.497,29.785,30.762,40.039,61.035,40.527,0
1483709214.501,29.785,9.277,54.688,56.152,37.109,0
1483709214.504,31.738,7.324,67.383,54.199,82.520,0
1483709214.508,41.016,24.414,13.184,61.035,66.406,0
1483709214.512,48.340,21.973,-10.742,64.453,17.578,0
1483709214.516,48.340,14.648,22.461,58.105,59.570,0
1483709214.520,31.738,5.371,41.992,37.598,61.035,0
1483709214.524,23.926,14.648,32.715,30.762,44.922,0
1483709214.528,48.828,36.133,15.137,50.293,75.684,0
1483709214.532,54.199,29.297,15.137,52.246,18.555,0
1483709214.536,44.434,24.902,8.789,35.156,-19.531,0
1483709214.540,34.180,23.926,14.160,31.738,7.812,0
1483709214.544,33.691,19.043,12.695,40.527,24.414,0
1483709214.547,38.574,18.066,26.855,41.992,79.102,0
1483709214.551,37.598,22.949,54.199,39.062,58.105,0
1483709214.555,49.316,32.715,32.227,51.758,15.137,0
1483709214.559,59.082,39.551,10.254,55.664,32.227,0
1483709214.563,52.246,30.273,42.480,57.129,18.555,0
1483709214.567,51.270,27.344,21.973,65.918,38.574,0
1483709214.571,56.641,28.320,-3.418,59.570,33.203,0
1483709214.575,64.453,42.480,15.625,57.617,29.297,0
1483709214.579,72.754,68.359,36.621,64.453,32.227,0
1483709214.583,72.754,50.781,48.828,56.641,24.414,0
1483709214.587,79.590,57.617,21.484,61.035,44.434,0
1483709214.590,68.848,81.055,24.414,60.059,-29.297,0
1483709214.594,52.246,62.012,37.109,46.387,9.766,0
1483709214.598,55.664,55.176,19.531,43.457,58.105,0
1483709214.602,56.152,55.664,8.789,40.527,33.691,0
1483709214.606,59.570,40.527,18.555,38.086,61.035,0
1483709214.610,54.688,26.855,49.316,25.879,84.961,0
1483709214.614,28.809,27.344,49.805,12.695,48.340,0
1483709214.618,24.414,32.227,10.742,17.090,22.461,0
1483709214.622,21.973,19.043,-3.906,14.648,56.152,0
1483709214.626,18.555,4.395,-9.766,2.441,78.125,0
1483709214.629,19.043,13.672,-2.930,-9.277,92.285,0
1483709214.633,5.859,11.230,6.836,-13.184,8.301,0
1483709214.637,-5.859,11.230,41.016,-16.602,-5.859,0
1483709214.641,-1.953,15.137,35.156,8.301,34.180,0
1483709214.645,11.230,11.719,11.230,38.086,24.414,0
1483709214.649,6.836,4.883,27.344,25.391,23.926,0
1483709214.653,13.184,-8.789,4.883,11.230,47.852,0
1483709214.657,14.648,0.977,33.203,11.230,59.082,0
1483709214.661,10.254,14.160,48.828,16.113,37.598,0
1483709214.665,28.320,26.855,-1.953,13.184,62.012,0
1483709214.669,27.344,25.391,7.324,6.348,57.129,0
1483709214.672,25.879,10.254,29.785,19.043,75.195,0
1483709214.676,35.156,20.996,15.625,41.992,65.918,0
1483709214.680,32.715,41.016,14.648,47.852,0.977,0
1483709214.684,30.762,36.621,38.574,25.879,27.344,0
1483709214.688,39.062,29.785,23.438,26.367,38.574,0
1483709214.692,30.762,29.297,40.527,38.086,-14.160,0
1483709214.696,30.762,25.391,31.738,19.043,-4.883,0
1483709214.700,47.363,31.738,-0.977,17.578,11.230,0
1483709214.704,51.270,29.297,16.602,30.273,12.695,0
1483709214.708,41.992,21.973,9.277,35.645,37.109,0
1483709214.712,39.062,28.809,18.066,26.855,26.367,0
1483709214.715,40.039,25.391,41.016,15.137,9.766,0
1483709214.719,30.273,21.484,19.531,10.742,18.066,0
1483709214.723,20.020,22.949,-4.883,15.625,63.477,0
1483709214.727,7.812,29.297,-11.719,5.859,66.406,0
1483709214.731,0.488,21.973,-6.836,-3.906,56.152,0
1483709214.735,4.883,16.113,-5.859,6.836,17.090,0
1483709214.739,14.648,30.273,-7.812,-6.836,34.180,0
1483709214.743,6.836,22.461,15.625,-20.508,33.203,0
1483709214.747,13.184,21.973,13.184,-11.719,20.996,0
1483709214.751,32.227,32.227,-26.855,0.977,23.926,0
1483709214.754,16.113,22.949,17.578,-5.371,36.133,0
1483709214.758,1.465,25.391,38.574,-20.020,30.273,0
1483709214.762,19.531,34.668,-23.926,1.465,11.719,0
1483709214.766,26.367,10.742,-3.418,20.508,73.242,0
1483709214.770,17.090,-4.395,39.551,20.508,33.203,0
1483709214.774,25.391,3.906,23.438,11.230,6.836,0
1483709214.778,37.109,11.230,-2.930,8.789,50.293,0
1483709214.782,44.922,18.555,17.090,8.789,40.039,0
1483709214.786,46.875,13.184,25.391,7.324,18.555,0
1483709214.790,48.340,6.348,50.781,14.648,38.086,0
1483709214.794,57.617,10.742,34.180,33.691,40.039,0
1483709214.797,66.406,22.949,17.090,40.527,19.531,0
1483709214.801,70.801,25.879,27.344,33.691,68.359,0
1483709214.805,65.430,5.371,19.043,41.992,64.453,0
1483709214.809,70.312,0.488,25.879,48.828,53.223,0
1483709214.813,69.824,19.531,29.297,42.969,39.551,0
1483709214.817,58.594,15.137,34.668,37.598,59.570,0
1483709214.821,65.918,18.066,35.645,38.574,42.969,0
1483709214.825,81.543,34.668,28.320,48.828,10.254,0
1483709214.829,72.754,40.039,46.387,34.180,29.297,0
1483709214.833,69.336,27.832,29.297,34.180,15.137,0
1483709214.837,77.637,14.160,47.852,45.898,10.254,0
1483709214.840,77.148,9.766,62.500,39.551,57.129,0
1483709214.844,69.824,20.996,31.250,41.504,95.703,0
1483709214.848,55.664,24.414,31.250,43.945,57.129,0
1483709214.852,59.082,26.855,-4.395,53.711,-5.859,0
1483709214.856,61.035,29.297,-1.465,56.641,22.461,0
1483709214.860,53.711,21.484,36.621,39.551,70.801,0
1483709214.864,53.711,9.277,27.832,19.531,63.477,0
1483709214.868,45.410,14.648,-15.625,18.555,67.383,0
1483709214.872,46.387,39.551,-10.742,26.367,53.711,0
1483709214.876,50.781,26.855,20.996,23.926,15.625,0
1483709214.879,33.203,-1.465,43.457,20.508,30.762,0
1483709214.883,30.273,18.066,33.203,34.668,35.645,0
1483709214.887,36.133,42.480,34.668,48.828,-9.277,0
1483709214.891,25.879,24.902,56.152,34.668,-22.949,0
1483709214.895,26.855,8.789,35.645,20.996,12.207,0
1483709214.899,44.434,30.273,6.348,39.062,-3.906,0
1483709214.903,40.039,40.039,24.902,46.875,-3.418,0
1483709214.907,37.598,34.668,46.387,44.922,16.113,0
1483709214.911,45.410,41.992,46.875,53.223,32.227,0
1483709214.915,53.223,41.016,60.059,54.199,28.809,0
1483709214.919,42.969,27.344,79.102,39.551,-26.367,0
1483709214.922,29.297,39.062,41.504,40.039,-5.371,0
1483709214.926,34.180,48.828,6.348,54.199,8.301,0
1483709214.930,24.902,32.715,45.898,40.039,-19.043,0
1483709214.934,9.277,25.391,50.781,21.973,14.648,0
1483709214.938,10.742,26.855,8.301,14.648,44.434,0
1483709214.942,17.578,20.996,12.207,15.137,72.266,0
1483709214.946,7.812,21.973,28.809,16.113,89.844,0
1483709214.950,-8.301,31.250,61.523,16.113,17.090,0
1483709214.954,3.418,26.855,46.387,15.625,0.977,0
1483709214.958,6.836,54.688,-3.418,5.371,46.387,0
1483709214.962,-7.324,62.500,37.109,6.836,30.273,0
1483709214.965,-9.277,52.246,32.227,10.254,-7.812,0
1483709214.969,-10.254,44.434,-10.742,9.766,-28.320,0
1483709214.973,-7.812,38.086,-6.836,12.695,-3.906,0
1483709214.977,-8.789,41.504,20.020,3.906,-5.371,0
1483709214.981,0.488,18.066,16.602,-7.324,4.883,0
1483709214.985,-3.906,10.742,0.977,-4.883,44.922,0
1483709214.989,-10.742,42.480,20.020,-5.859,73.242,0
1483709214.993,0.488,45.898,51.758,-14.160,24.414,0
1483709214.997,8.789,41.992,21.484,11.230,19.531,0
1483709215.001,-0.977,36.133,18.066,20.508,62.988,0
1483709215.004,-4.883,17.578,59.570,6.348,64.453,0
1483709215.008,10.742,27.344,8.301,11.230,64.941,0
1483709215.012,23.926,30.762,-28.809,19.531,-2.441,0
1483709215.016,26.367,36.621,14.648,17.578,-41.016,0
1483709215.020,17.090,37.109,25.879,20.996,56.641,0
1483709215.024,19.531,35.645,-1.465,30.273,69.824,0
1483709215.028,33.691,40.039,9.766,21.973,4.883,0
1483709215.032,34.668,40.527,4.395,22.461,-22.949,0
1483709215.036,35.645,35.645,10.254,31.250,-19.043,0
1483709215.040,41.504,36.621,23.438,25.391,24.902,0
1483709215.044,44.434,47.852,15.137,30.762,57.129,0
1483709215.047,54.199,37.598,28.809,41.016,54.199,0
1483709215.051,59.082,50.781,33.203,54.199,9.277,0
1483709215.055,52.246,50.293,45.410,58.105,0.977,0
1483709215.059,58.105,34.180,35.156,57.129,33.691,0
1483709215.063,58.594,33.203,14.160,83.984,22.461,0
1483709215.067,53.711,17.578,25.391,85.449,-7.324,0
1483709215.071,56.641,19.043,23.926,52.734,-7.324,0
1483709215.075,58.594,38.086,23.438,56.641,22.461,0
1483709215.079,68.359,50.293,69.336,57.129,33.691,0
1483709215.083,68.848,47.852,97.168,33.203,17.090,0
1483709215.087,65.430,38.574,54.199,40.039,46.387,0
1483709215.090,68.848,33.691,-1.953,49.805,35.645,0
1483709215.094,64.453,33.203,-5.371,48.340,38.574,0
1483709215.098,59.570,44.922,27.832,52.734,65.430,0
1483709215.102,59.570,54.199,28.320,38.574,26.855,0
1483709215.106,59.082,36.621,27.344,31.738,13.184,0
1483709215.110,51.270,26.855,38.086,29.297,18.066,0
1483709215.114,46.875,26.367,28.320,12.695,23.926,0
1483709215.118,38.574,26.367,18.555,14.648,0.977,0
1483709215.122,36.621,20.508,17.578,16.602,28.320,0
1483709215.126,36.133,12.207,32.227,9.277,-2.930,0
1483709215.129,30.762,9.766,17.090,16.602,12.207,0
1483709215.133,27.832,-1.465,8.789,13.184,70.801,0
1483709215.137,32.715,12.207,47.852,10.742,68.359,0
1483709215.141,41.992,27.344,54.688,28.809,76.172,0
1483709215.145,48.828,21.484,32.227,28.320,49.316,0
1483709215.149,51.758,31.250,3.418,26.367,-5.859,0
1483709215.153,46.387,26.367,47.852,33.691,-24.414,0
1483709215.157,41.016,31.738,61.035,43.945,38.086,0
1483709215.161,51.758,40.039,-0.488,54.688,40.039,0
1483709215.165,53.711,31.738,2.441,47.363,6.836,0
1483709215.169,54.199,22.461,40.039,38.574,8.789,0
1483709215.172,58.594,23.438,20.020,34.180,23.926,0
1483709215.176,47.363,31.250,-5.859,33.691,16.602,0
1483709215.180,50.781,26.367,15.625,21.973,-13.672,0
1483709215.184,62.988,26.855,10.254,30.273,18.066,0
1483709215.188,58.594,30.762,3.906,39.551,49.316,0
1483709215.192,55.664,26.855,4.883,24.414,43.945,0
1483709215.196,57.617,35.156,6.348,31.250,64.941,0
1483709215.200,52.246,35.156,27.832,41.992,72.754,0
1483709215.204,35.156,7.324,66.406,24.902,51.758,0
1483709215.208,35.645,17.090,31.250,20.020,41.016,0
1483709215.212,49.805,34.668,-4.883,25.879,19.043,0
1483709215.215,57.617,29.297,-5.371,22.949,22.949,0
1483709215.219,48.340,27.344,22.949,16.602,32.715,0
1483709215.223,41.504,27.344,36.621,7.812,41.992,0
1483709215.227,48.340,33.203,-6.836,7.324,57.617,0
1483709215.231,53.223,44.922,6.348,8.789,23.926,0
1483709215.235,58.594,36.133,12.207,9.766,55.664,0
1483709215.239,60.547,16.602,6.836,7.812,40.039,0
1483709215.243,70.312,32.227,22.461,11.230,-10.742,0
1483709215.247,62.988,45.410,42.969,20.020,-8.301,0
1483709215.251,53.711,45.410,25.391,11.719,-21.484,0
1483709215.254,59.082,45.410,-14.648,17.578,33.203,0
1483709215.258,58.105,42.480,-5.371,20.508,50.781,0
1483709215.262,53.223,46.387,2.930,11.230,-1.953,0
1483709215.266,46.875,29.297,4.395,20.020,31.738,0
1483709215.270,46.387,35.645,-7.812,22.949,47.363,0
1483709215.274,50.293,50.293,-17.090,20.996,62.012,0
1483709215.278,50.781,31.250,17.090,13.184,46.875,0
1483709215.282,47.363,21.973,21.973,-9.766,15.137,0
1483709215.286,45.410,16.113,22.949,-4.883,71.289,0
1483709215.290,51.270,27.344,41.016,7.812,76.172,0
1483709215.294,70.801,49.805,7.812,14.160,62.988,0
1483709215.297,67.383,42.480,-9.766,16.602,18.555,0
1483709215.301,49.805,37.598,4.395,13.672,31.738,0
1483709215.305,52.246,31.738,8.789,24.414,60.547,0
1483709215.309,49.805,34.668,1.953,23.926,-2.930,0
1483709215.313,41.016,26.855,4.883,18.555,16.602,0
1483709215.317,54.199,7.324,17.578,29.785,32.227,0
1483709215.321,48.828,19.043,48.828,17.578,7.324,0
1483709215.325,46.387,32.715,37.598,20.508,69.824,0
1483709215.329,46.875,28.320,48.340,25.391,37.109,0
1483709215.333,47.363,19.043,40.527,28.320,-16.113,0
1483709215.337,66.406,10.254,-0.488,43.457,5.859,0
1483709215.340,65.918,23.926,36.133,23.438,5.859,0
1483709215.344,65.918,43.945,20.508,19.043,14.648,0
1483709215.348,73.242,46.387,6.836,29.785,59.570,0
1483709215.352,60.059,25.879,25.879,29.785,43.945,0
1483709215.356,53.223,8.789,19.043,37.109,4.395,0
1483709215.360,65.918,23.926,42.969,42.969,5.371,0
1483709215.364,74.219,43.945,39.062,43.457,-17.578,0
1483709215.368,51.270,26.367,47.852,30.762,-52.734,0
1483709215.372,50.293,23.926,25.391,35.156,-6.836,0
1483709215.376,61.523,34.180,14.648,33.203,11.719,0
1483709215.379,62.012,21.484,38.574,27.832,-29.785,0
1483709215.383,78.125,25.391,20.020,34.180,-35.645,0
1483709215.387,76.172,12.695,11.230,33.203,9.277,0
1483709215.391,70.801,9.766,29.297,45.410,24.414,0
1483709215.395,66.895,40.527,33.203,55.664,4.883,0
1483709215.399,65.918,38.086,43.457,44.922,-1.953,0
1483709215.403,80.566,26.855,40.039,28.320,-1.953,0
1483709215.407,82.031,27.344,60.547,37.109,40.527,0
1483709215.411,82.031,30.762,66.406,42.480,9.766,0
1483709215.415,97.656,36.133,9.766,53.711,-30.762,0
1483709215.419,106.934,45.410,5.371,63.477,29.785,0
1483709215.422,107.422,53.711,22.461,46.875,67.383,0
1483709215.426,117.676,63.965,42.969,48.340,-42.480,0
1483709215.430,122.070,50.781,41.016,64.941,-43.457,0
1483709215.434,122.070,37.598,36.133,82.031,-5.371,0
1483709215.438,126.953,37.598,64.941,80.566,-34.180,0
1483709215.442,135.742,54.199,52.246,66.406,0.000,0
1483709215.446,141.602,73.730,29.297,71.289,11.719,0
1483709215.450,127.930,63.965,43.945,73.730,-6.348,0
1483709215.454,122.070,67.871,52.734,69.336,-41.504,0
1483709215.458,128.418,66.406,55.664,63.477,14.160,0
1483709215.462,130.859,50.293,50.781,62.500,48.340,0
1483709215.465,123.535,55.176,58.105,66.895,-11.230,0
1483709215.469,122.559,59.082,57.129,71.289,-13.672,0
1483709215.473,115.723,59.082,41.504,77.148,49.805,0
1483709215.477,104.980,59.570,19.531,59.082,33.203,0
1483709215.481,106.934,37.109,40.039,41.992,21.484,0
1483709215.485,98.145,31.250,83.008,40.527,-0.977,0
1483709215.489,94.238,60.059,24.414,56.641,12.695,0
1483709215.493,94.727,67.871,-4.883,64.941,17.578,0
1483709215.497,98.633,49.316,21.484,57.617,-26.855,0
1483709215.501,89.355,52.246,3.418,54.688,10.254,0
1483709215.504,85.449,54.199,13.184,45.898,17.090,0
1483709215.508,81.055,35.645,46.875,37.598,58.594,0
1483709215.512,78.613,38.574,38.574,35.645,42.480,0
1483709215.516,86.914,47.852,16.602,41.016,13.184,0
1483709215.520,87.402,27.832,13.672,38.574,15.137,0
1483709215.524,83.496,33.203,8.789,20.508,6.348,0
1483709215.528,78.613,55.176,23.926,11.719,26.855,0
1483709215.532,70.801,62.012,25.879,24.414,20.020,0
1483709215.536,53.711,59.082,8.789,30.762,11.719,0
1483709215.540,49.316,25.391,23.926,27.832,10.254,0
1483709215.544,48.340,17.578,58.105,24.902,18.066,0
1483709215.547,50.293,49.805,36.621,20.020,40.527,0
1483709215.551,63.477,56.152,7.812,24.902,30.762,0
1483709215.555,60.059,48.828,28.809,33.203,-17.578,0
1483709215.559,52.246,45.410,41.992,27.832,5.859,0
1483709215.563,68.359,45.410,12.695,26.367,40.527,0
1483709215.567,60.059,30.762,22.461,23.438,35.645,0
1483709215.571,52.734,23.926,32.715,30.273,57.617,0
1483709215.575,65.918,40.527,30.762,35.645,18.555,0
1483709215.579,54.688,41.504,24.414,24.414,12.207,0
1483709215.583,41.992,33.691,11.719,33.691,-21.484,0
1483709215.587,47.852,44.922,9.766,32.715,8.789,0
1483709215.590,64.453,61.523,4.883,42.480,28.809,0
1483709215.594,65.430,67.383,20.020,51.758,-9.277,0
1483709215.598,63.477,53.223,26.367,44.922,36.133,0
1483709215.602,68.848,36.621,24.902,41.016,34.180,0
1483709215.606,67.871,33.691,31.738,50.293,8.301,0
1483709215.610,74.707,40.039,20.508,42.969,11.230,0
1483709215.614,71.777,38.574,39.551,31.738,29.785,0
1483709215.618,67.383,42.969,59.570,53.223,19.043,0
1483709215.622,64.941,50.781,27.832,68.848,-0.488,0
1483709215.626,59.082,52.246,22.461,48.828,12.695,0
1483709215.629,62.012,45.898,61.035,29.297,62.988,0
1483709215.633,66.895,37.598,62.012,39.551,57.129,0
1483709215.637,72.266,33.203,20.996,46.875,37.598,0
1483709215.641,63.965,31.738,16.602,43.945,34.180,0
1483709215.645,52.734,20.020,21.484,41.992,17.090,0
1483709215.649,49.316,30.273,56.152,48.828,10.742,0
1483709215.653,60.547,54.199,68.848,42.969,46.875,0
1483709215.657,67.871,47.852,61.035,30.762,15.625,0
1483709215.661,53.223,18.066,56.641,26.855,2.441,0
1483709215.665,64.941,33.203,27.832,37.109,18.555,0
1483709215.669,71.777,62.500,13.672,57.129,0.000,0
1483709215.672,39.062,41.504,34.180,50.293,-1.953,0
1483709215.676,34.180,38.574,35.156,41.016,8.301,0
1483709215.680,60.059,45.898,37.598,55.664,24.414,0
1483709215.684,59.082,11.719,66.406,56.152,40.039,0
1483709215.688,47.852,1.465,61.523,41.992,67.871,0
1483709215.692,62.500,36.621,57.617,50.293,56.152,0
1483709215.696,77.637,45.410,46.387,55.176,50.293,0
1483709215.700,72.754,38.086,41.992,52.246,13.672,0
1483709215.704,64.941,34.668,56.152,59.570,-9.277,0
1483709215.708,56.641,24.414,70.801,63.965,53.711,0
1483709215.712,58.105,17.578,60.547,74.707,54.199,0
1483709215.715,68.359,9.277,50.293,72.266,-13.672,0
1483709215.719,59.082,14.648,57.617,58.594,27.344,0
1483709215.723,50.293,37.598,37.598,67.871,34.668,0
1483709215.727,62.012,41.016,59.082,76.172,7.324,0
1483709215.731,67.383,51.270,89.844,63.477,49.805,0
1483709215.735,75.684,53.223,43.945,60.059,18.555,0
1483709215.739,82.031,46.875,1.953,75.684,42.480,0
1483709215.743,79.590,48.828,20.996,60.547,71.289,0
1483709215.747,79.590,55.664,34.180,42.480,68.848,0
1483709215.751,69.336,50.293,42.480,53.223,62.012,0
1483709215.754,54.688,54.199,37.109,51.758,27.832,0
1483709215.758,57.617,53.711,26.367,54.688,40.527,0
1483709215.762,57.617,43.457,32.715,61.523,38.574,0
1483709215.766,48.340,52.246,17.090,52.246,18.066,0
1483709215.770,57.129,52.246,20.020,50.293,16.113,0
1483709215.774,50.781,41.992,31.250,47.363,48.828,0
1483709215.778,40.039,20.508,43.457,25.879,19.043,0
1483709215.782,38.574,21.973,35.156,22.461,-2.441,0
1483709215.786,35.156,45.898,5.859,45.898,27.344,0
1483709215.790,37.598,32.715,12.695,45.410,31.738,0
1483709215.794,38.574,34.180,13.672,25.879,9.277,0
1483709215.797,34.668,56.641,20.508,23.438,19.043,0
1483709215.801,36.621,43.457,36.621,30.273,28.809,0
1483709215.805,39.551,25.391,20.508,23.438,-2.930,0
1483709215.809,31.250,30.762,-2.441,22.461,33.203,0
1483709215.813,23.926,44.922,66.406,24.414,31.738,0
1483709215.817,32.227,54.688,82.031,21.484,-11.230,0
1483709215.821,53.711,56.152,-17.090,30.273,31.250,0
1483709215.825,50.293,41.504,7.324,20.508,13.184,0
1483709215.829,48.340,39.062,38.086,32.227,-21.484,0
1483709215.833,52.734,48.828,27.344,35.156,-13.672,0
1483709215.837,49.805,34.180,44.434,26.367,12.695,0
1483709215.840,55.176,14.160,41.504,49.805,19.043,0
1483709215.844,56.152,22.461,30.273,66.406,-0.488,0
1483709215.848,57.617,39.551,26.855,57.617,23.438,0
1483709215.852,63.965,35.645,40.039,46.875,0.000,0
1483709215.856,66.406,34.668,46.387,64.941,-11.230,0
1483709215.860,61.523,52.246,32.227,82.031,24.902,0
1483709215.864,50.293,39.062,27.344,71.777,41.016,0
1483709215.868,48.340,26.855,28.809,66.406,26.855,0
1483709215.872,56.641,44.922,35.645,73.242,69.336,0
1483709215.876,68.359,50.293,38.574,73.242,82.520,0
1483709215.879,70.801,45.410,31.738,65.918,25.391,0
1483709215.883,66.895,40.039,28.809,61.523,76.660,0
1483709215.887,73.730,40.039,51.758,78.613,69.824,0
1483709215.891,79.590,41.504,59.082,95.215,53.223,0
1483709215.895,67.383,39.062,95.215,73.242,46.875,0
1483709215.899,62.500,23.438,56.152,52.734,65.918,0
1483709215.903,81.543,21.973,-12.695,52.246,77.148,0
1483709215.907,87.402,37.109,4.883,54.688,-9.766,0
1483709215.911,73.242,25.391,34.180,63.477,-3.906,0
1483709215.915,63.477,19.043,51.270,66.895,25.391,0
1483709215.919,58.594,38.086,47.852,58.594,7.324,0
1483709215.922,50.781,36.621,33.691,50.293,7.324,0
1483709215.926,44.434,22.461,45.410,55.176,37.598,0
1483709215.930,46.875,42.969,68.359,45.410,8.301,0
1483709215.934,65.430,55.664,41.504,46.875,20.996,0
1483709215.938,75.684,30.273,31.738,56.152,35.645,0
1483709215.942,73.730,38.574,18.066,48.828,4.883,0
1483709215.946,69.336,53.711,26.855,39.551,29.297,0
1483709215.950,66.406,46.387,42.969,45.898,66.406,0
1483709215.954,64.941,41.992,25.879,77.148,76.172,0
1483709215.958,60.547,17.090,31.250,71.289,61.523,0
1483709215.962,61.035,19.043,21.973,62.988,2.930,0
1483709215.965,51.270,29.297,26.855,65.918,18.066,0
1483709215.969,51.758,36.621,40.039,69.824,29.297,0
1483709215.973,54.688,51.270,38.086,75.684,29.785,0
1483709215.977,55.664,46.875,25.879,83.008,67.383,0
1483709215.981,62.500,46.875,47.852,83.984,17.090,0
1483709215.985,64.941,37.598,53.223,71.777,10.742,0
