timestamps,TP9,AF7,AF8,TP10,Right AUX,Marker0
1483809961.137,103.516,42.480,66.895,75.684,15.625,0
1483809961.141,102.051,48.340,61.523,76.660,29.785,0
1483809961.144,105.957,56.641,47.363,76.660,21.973,0
1483809961.148,111.328,51.270,47.363,76.172,43.945,0
1483809961.152,119.141,48.828,48.828,81.055,38.574,0
1483809961.156,108.398,47.852,58.594,78.125,20.996,0
1483809961.160,105.957,48.340,54.199,74.707,38.574,0
1483809961.164,106.934,54.688,45.410,77.637,61.523,0
1483809961.168,107.910,70.312,60.059,80.078,95.215,0
1483809961.172,99.609,79.102,53.223,73.730,102.051,0
1483809961.176,89.844,71.289,30.762,68.359,3.906,0
1483809961.180,102.539,70.801,34.668,70.801,-70.801,0
1483809961.184,105.957,70.801,39.062,73.242,-24.414,0
1483809961.187,98.145,71.289,40.039,65.918,27.344,0
1483809961.191,99.609,66.895,46.875,64.941,51.758,0
1483809961.195,97.656,58.105,61.035,63.477,15.625,0
1483809961.199,95.215,55.664,44.434,58.105,-8.789,0
1483809961.203,91.309,60.547,53.711,69.824,40.527,0
1483809961.207,73.242,59.570,68.359,65.918,77.148,0
1483809961.211,68.359,60.547,31.250,60.547,54.199,0
1483809961.215,71.777,60.547,25.879,55.664,31.738,0
1483809961.219,71.777,54.199,36.133,44.922,51.270,0
1483809961.223,72.266,52.246,35.645,46.875,58.594,0
1483809961.227,75.684,59.082,42.969,52.246,45.898,0
1483809961.230,82.520,60.547,48.340,54.199,33.203,0
1483809961.234,75.684,54.199,40.039,46.875,15.137,0
1483809961.238,72.754,47.363,33.203,41.992,-7.324,0
1483809961.242,88.379,51.270,58.105,49.316,-12.695,0
1483809961.246,87.891,58.105,64.453,55.176,11.230,0
1483809961.250,86.914,57.617,38.086,52.734,31.250,0
1483809961.254,101.562,54.688,37.109,51.758,-2.441,0
1483809961.258,103.516,52.734,43.945,51.270,-31.250,0
1483809961.262,89.355,55.176,42.969,48.340,-3.418,0
1483809961.266,97.656,56.152,45.410,59.082,15.137,0
1483809961.269,100.586,48.340,50.781,66.895,2.441,0
1483809961.273,91.797,47.363,55.664,67.383,10.254,0
1483809961.277,95.215,49.316,53.711,69.336,18.066,0
1483809961.281,102.051,52.246,70.312,73.242,38.574,0
1483809961.285,101.074,54.199,85.449,79.590,91.309,0
1483809961.289,92.285,48.340,52.734,74.707,100.586,0
1483809961.293,83.008,46.875,35.156,72.266,26.367,0
1483809961.297,77.637,41.992,37.598,73.730,15.137,0
1483809961.301,78.613,43.945,41.992,75.684,46.875,0
1483809961.305,82.031,51.758,46.875,83.008,12.695,0
1483809961.309,98.145,61.523,46.387,84.961,18.066,0
1483809961.312,106.934,62.500,46.875,80.078,38.086,0
1483809961.316,113.770,55.664,48.340,77.148,-20.020,0
1483809961.320,123.047,56.152,45.898,78.613,12.695,0
1483809961.324,123.535,64.453,47.363,78.125,68.848,0
1483809961.328,123.535,66.895,56.152,84.473,13.184,0
1483809961.332,134.766,60.059,67.383,86.426,-0.977,0
1483809961.336,130.859,55.664,50.293,73.242,54.199,0
1483809961.340,124.023,63.477,41.016,68.359,46.875,0
1483809961.344,126.465,62.988,46.875,76.172,85.449,0
1483809961.348,122.070,58.594,45.410,79.102,97.656,0
1483809961.352,120.117,62.500,44.922,79.590,48.828,0
1483809961.355,109.375,50.293,50.293,76.660,34.668,0
1483809961.359,106.445,48.828,63.965,74.219,-21.484,0
1483809961.363,112.793,66.406,61.523,73.730,16.113,0
1483809961.367,111.816,64.453,66.895,73.730,32.715,0
1483809961.371,117.188,55.664,78.125,76.172,18.555,0
1483809961.375,111.816,60.059,55.176,68.359,26.367,0
1483809961.379,103.516,65.918,50.781,66.895,-29.297,0
1483809961.383,95.703,62.988,56.641,70.312,-13.672,0
1483809961.387,97.168,69.336,53.223,68.848,54.199,0
1483809961.391,99.121,70.801,56.641,70.312,44.434,0
1483809961.394,95.215,59.082,72.754,71.777,-1.953,0
1483809961.398,100.098,59.570,76.660,74.219,31.250,0
1483809961.402,109.863,56.152,58.594,75.195,114.746,0
1483809961.406,114.258,46.387,57.129,76.172,112.793,0
1483809961.410,112.305,57.617,55.176,76.660,70.312,0
1483809961.414,117.676,65.918,68.848,78.613,100.586,0
1483809961.418,115.234,65.430,71.777,78.613,125.488,0
1483809961.422,108.887,55.664,60.059,72.754,108.398,0
1483809961.426,101.074,52.246,62.012,68.848,111.328,0
1483809961.430,96.680,61.035,58.105,71.777,98.633,0
1483809961.434,101.074,47.852,62.012,76.660,84.961,0
1483809961.437,105.469,53.223,61.523,76.172,79.102,0
1483809961.441,98.145,62.988,60.547,79.590,63.477,0
1483809961.445,89.355,45.898,61.035,69.336,54.688,0
1483809961.449,94.238,46.387,62.012,68.848,74.219,0
1483809961.453,84.473,44.922,58.105,75.195,70.312,0
1483809961.457,81.055,38.574,63.477,71.289,46.387,0
1483809961.461,90.820,61.523,74.707,75.195,30.762,0
1483809961.465,78.613,67.871,60.059,65.430,39.551,0
1483809961.469,75.684,56.152,55.176,56.641,47.852,0
1483809961.473,81.543,59.082,50.781,62.012,-19.043,0
1483809961.477,84.961,50.781,53.711,59.570,2.441,0
1483809961.480,79.590,42.480,62.500,53.223,52.246,0
1483809961.484,70.312,42.969,61.523,57.129,22.461,0
1483809961.488,57.129,30.762,53.223,54.688,21.973,0
1483809961.492,49.316,38.574,38.086,48.340,10.254,0
1483809961.496,65.430,46.387,50.781,54.199,-2.441,0
1483809961.500,73.730,48.340,69.824,60.059,-9.766,0
1483809961.504,59.082,58.594,47.852,52.734,4.883,0
1483809961.508,56.152,56.641,38.574,49.316,24.902,0
1483809961.512,66.895,49.805,43.945,53.711,31.738,0
1483809961.516,67.383,39.551,49.805,56.641,17.090,0
1483809961.519,70.801,41.016,45.898,59.570,-16.113,0
1483809961.523,84.961,55.176,32.715,59.082,9.277,0
1483809961.527,80.078,49.316,35.156,58.594,8.301,0
1483809961.531,72.266,59.570,49.805,58.105,15.625,0
1483809961.535,65.918,68.359,56.641,53.711,1.953,0
1483809961.539,63.477,55.176,54.199,48.828,-1.953,0
1483809961.543,77.148,61.523,65.430,58.594,6.836,0
1483809961.547,70.801,56.152,63.477,60.059,-32.715,0
1483809961.551,66.895,39.551,46.875,58.105,-23.438,0
1483809961.555,78.125,59.082,47.363,61.035,-19.043,0
1483809961.559,78.125,60.547,52.246,60.547,-24.414,0
1483809961.562,72.266,59.082,53.711,64.941,-33.203,0
1483809961.566,72.754,58.105,51.758,65.430,-24.902,0
1483809961.570,78.125,46.875,56.641,64.941,24.902,0
1483809961.574,80.566,50.293,61.523,65.918,13.184,0
1483809961.578,76.660,55.664,54.199,68.359,-3.906,0
1483809961.582,92.773,52.246,65.918,80.566,14.648,0
1483809961.586,101.562,53.711,76.660,83.984,15.625,0
1483809961.590,90.332,61.523,56.641,78.613,-17.090,0
1483809961.594,81.055,56.641,40.527,72.754,-17.090,0
1483809961.598,71.777,61.523,30.762,62.500,34.180,0
1483809961.602,83.496,52.734,22.461,60.547,41.016,0
1483809961.605,95.703,49.805,12.695,54.199,41.992,0
1483809961.609,97.168,31.738,0.488,49.805,27.344,0
1483809961.613,109.375,44.434,-16.602,53.711,14.160,0
1483809961.617,100.586,90.820,-17.578,53.223,42.480,0
1483809961.621,96.191,91.309,-9.277,54.199,27.344,0
1483809961.625,103.516,118.652,-8.789,54.199,-9.277,0
1483809961.629,100.098,113.770,-8.789,51.758,-26.367,0
1483809961.633,102.051,110.840,0.000,54.199,5.371,0
1483809961.637,104.004,111.816,11.230,62.988,19.531,0
1483809961.641,103.027,89.844,-6.348,62.500,29.297,0
1483809961.644,118.652,82.520,-14.648,67.383,16.113,0
1483809961.648,123.047,61.035,-6.348,70.801,-12.695,0
1483809961.652,123.047,66.406,2.441,63.965,46.387,0
1483809961.656,130.371,108.887,2.441,58.594,55.664,0
1483809961.660,128.418,117.676,-3.418,60.547,10.254,0
1483809961.664,127.441,104.492,-3.418,76.660,21.973,0
1483809961.668,131.836,90.332,-2.441,89.844,0.977,0
1483809961.672,130.859,73.242,5.859,86.914,-0.977,0
1483809961.676,130.859,78.613,13.184,89.844,28.809,0
1483809961.680,130.859,90.332,17.578,90.332,38.086,0
1483809961.684,130.859,77.637,3.418,84.961,49.316,0
1483809961.687,145.020,89.844,19.043,104.980,63.965,0
1483809961.691,145.020,94.238,56.641,107.910,49.316,0
1483809961.695,125.977,57.617,35.156,96.680,19.043,0
1483809961.699,121.582,80.078,24.902,96.680,33.203,0
1483809961.703,135.742,95.703,41.504,100.586,37.598,0
1483809961.707,144.043,73.242,31.738,102.051,50.781,0
1483809961.711,128.418,53.223,35.645,106.934,73.242,0
1483809961.715,118.652,42.969,51.758,114.258,23.438,0
1483809961.719,121.094,73.242,44.922,115.723,0.000,0
1483809961.723,118.652,53.223,43.945,115.723,35.645,0
1483809961.727,115.723,36.133,62.012,104.980,20.020,0
1483809961.730,117.188,79.590,73.242,103.027,75.684,0
1483809961.734,120.117,84.473,65.430,103.516,68.848,0
1483809961.738,116.211,78.125,59.570,106.445,34.668,0
1483809961.742,107.422,70.801,58.105,104.980,42.969,0
1483809961.746,117.188,71.289,75.684,98.145,57.617,0
1483809961.750,116.699,60.547,85.938,104.004,53.711,0
1483809961.754,94.727,49.316,62.988,98.633,10.254,0
1483809961.758,91.309,47.852,55.176,94.238,-5.859,0
1483809961.762,87.402,34.180,55.664,94.727,15.137,0
1483809961.766,89.355,27.344,54.199,93.750,22.949,0
1483809961.769,96.680,51.758,48.828,97.168,-0.488,0
1483809961.773,87.402,69.336,59.570,102.539,16.113,0
1483809961.777,77.148,67.871,69.336,103.027,61.035,0
1483809961.781,81.055,79.590,66.895,96.191,54.688,0
1483809961.785,85.938,65.918,54.199,96.680,41.992,0
1483809961.789,95.215,42.969,46.875,100.586,41.504,0
1483809961.793,95.703,56.641,62.988,102.051,60.059,0
1483809961.797,95.703,73.730,66.406,101.074,48.340,0
1483809961.801,104.004,70.312,68.359,98.633,41.992,0
1483809961.805,104.492,43.457,59.082,98.633,49.316,0
1483809961.809,107.422,42.969,65.430,103.027,34.180,0
1483809961.812,113.770,78.125,76.172,104.004,34.180,0
1483809961.816,104.492,89.844,50.781,93.262,64.453,0
1483809961.820,94.238,61.523,43.945,81.543,64.453,0
1483809961.824,84.473,39.062,46.387,74.707,25.879,0
1483809961.828,67.871,53.223,41.504,71.289,25.391,0
1483809961.832,67.383,60.059,49.316,63.477,49.316,0
1483809961.836,72.754,51.758,54.688,58.594,30.762,0
1483809961.840,68.359,42.969,49.805,54.688,42.969,0
1483809961.844,64.453,37.598,51.758,52.246,37.109,0
1483809961.848,61.523,31.738,51.758,54.199,22.461,0
1483809961.852,62.500,23.438,55.664,51.758,29.297,0
1483809961.855,55.176,29.785,62.012,53.711,66.406,0
1483809961.859,46.875,6.348,60.059,68.848,78.613,0
1483809961.863,59.082,7.812,68.359,78.125,30.762,0
1483809961.867,68.848,49.316,83.496,76.172,19.531,0
1483809961.871,58.105,39.062,68.359,74.707,55.664,0
1483809961.875,50.781,23.926,54.688,75.684,59.570,0
1483809961.879,58.105,25.879,58.594,72.266,59.570,0
1483809961.883,62.500,25.391,54.688,66.895,80.078,0
1483809961.887,60.547,20.508,52.734,66.895,74.707,0
1483809961.891,62.988,23.438,51.758,69.824,59.570,0
1483809961.894,60.547,26.855,55.664,72.266,58.105,0
1483809961.898,57.129,42.480,51.758,67.871,63.965,0
1483809961.902,67.871,45.898,54.199,70.801,86.914,0
1483809961.906,78.613,35.645,75.684,79.590,62.500,0
1483809961.910,64.453,37.109,72.754,73.242,40.527,0
1483809961.914,68.848,63.965,83.984,74.219,81.543,0
1483809961.918,73.242,62.500,82.031,70.801,67.871,0
1483809961.922,67.871,46.387,58.594,69.824,45.410,0
1483809961.926,61.523,55.176,50.293,65.918,54.688,0
1483809961.930,58.105,68.848,51.758,55.664,48.340,0
1483809961.934,74.707,81.543,52.246,59.570,54.688,0
1483809961.937,80.078,76.660,47.363,64.941,61.035,0
1483809961.941,72.754,63.477,46.387,65.918,21.973,0
1483809961.945,71.777,60.059,39.062,62.988,20.020,0
1483809961.949,75.684,76.660,40.039,63.965,52.734,0
1483809961.953,70.801,81.055,37.598,65.430,70.801,0
1483809961.957,68.848,54.199,37.598,66.406,36.133,0
1483809961.961,74.219,68.848,41.016,69.824,18.555,0
1483809961.965,71.289,95.215,39.062,69.336,26.367,0
1483809961.969,75.195,87.891,59.082,68.848,33.691,0
1483809961.973,79.102,77.637,57.129,59.570,67.383,0
1483809961.977,80.078,69.336,42.969,59.082,53.711,0
1483809961.980,72.266,61.523,41.992,60.547,14.160,0
1483809961.984,70.801,72.266,42.480,57.129,30.273,0
1483809961.988,73.242,61.523,41.992,53.711,69.824,0
1483809961.992,69.824,57.129,37.598,55.664,44.434,0
1483809961.996,67.871,62.988,41.504,62.012,41.504,0
1483809962.000,71.289,50.293,38.574,64.453,42.480,0
1483809962.004,77.148,52.734,36.133,63.477,21.973,0
1483809962.008,80.078,67.383,45.898,57.129,21.484,0
1483809962.012,72.754,71.777,54.199,50.293,-16.113,0
1483809962.016,61.035,74.219,50.293,55.176,-30.762,0
1483809962.019,62.988,82.520,52.246,57.129,46.387,0
1483809962.023,70.801,68.848,65.430,63.477,84.473,0
1483809962.027,58.105,53.711,47.852,60.059,39.551,0
1483809962.031,52.734,66.895,41.504,54.688,46.387,0
1483809962.035,61.035,64.453,47.363,54.199,61.523,0
1483809962.039,69.824,51.270,37.109,58.105,37.109,0
1483809962.043,73.730,55.176,41.992,65.430,28.809,0
1483809962.047,69.336,64.941,41.992,54.688,41.504,0
1483809962.051,70.801,61.523,38.574,48.340,35.156,0
1483809962.055,76.660,55.664,48.340,56.152,21.484,0
1483809962.059,72.754,64.453,55.664,61.523,0.488,0
1483809962.062,81.543,59.082,53.711,63.965,28.320,0
1483809962.066,98.633,52.246,48.828,66.895,49.316,0
1483809962.070,99.121,58.594,69.336,68.359,41.504,0
1483809962.074,88.867,73.242,71.289,61.035,46.387,0
1483809962.078,77.637,65.918,45.898,46.875,35.156,0
1483809962.082,82.520,52.734,47.852,51.758,35.645,0
1483809962.086,80.566,55.176,52.734,60.547,53.711,0
1483809962.090,69.824,58.105,40.039,59.082,57.129,0
1483809962.094,76.660,38.574,44.434,58.594,55.176,0
1483809962.098,97.168,45.898,59.082,58.105,31.250,0
1483809962.102,93.262,64.453,59.570,59.082,10.742,0
1483809962.105,78.613,54.688,48.828,62.988,53.711,0
1483809962.109,74.219,40.039,45.898,64.453,67.871,0
1483809962.113,70.312,53.711,58.594,66.406,30.273,0
1483809962.117,67.383,61.035,57.129,64.941,58.105,0
1483809962.121,77.148,42.969,73.730,72.266,72.266,0
1483809962.125,75.195,53.223,77.148,81.055,43.945,0
1483809962.129,57.617,41.504,50.293,68.848,25.391,0
1483809962.133,61.035,34.668,49.316,60.547,41.016,0
1483809962.137,74.219,52.246,51.270,69.824,34.180,0
1483809962.141,74.707,52.246,46.875,70.312,20.996,0
1483809962.144,62.500,48.828,52.246,66.406,28.809,0
1483809962.148,57.129,35.645,49.805,71.289,39.062,0
1483809962.152,63.477,33.203,45.898,69.824,82.031,0
1483809962.156,64.453,56.641,56.641,63.965,62.012,0
1483809962.160,56.641,55.664,56.152,51.758,32.715,0
1483809962.164,50.293,46.387,54.199,48.340,65.430,0
1483809962.168,59.082,64.941,74.707,74.219,82.031,0
1483809962.172,56.152,62.500,68.848,75.684,93.262,0
1483809962.176,54.199,51.758,49.805,50.293,70.801,0
1483809962.180,62.988,55.176,48.828,44.434,45.410,0
1483809962.184,54.688,39.062,49.805,46.387,55.176,0
1483809962.187,36.621,44.434,49.805,48.340,69.824,0
1483809962.191,29.785,56.641,41.992,37.109,73.730,0
1483809962.195,38.086,49.316,39.551,33.203,50.293,0
1483809962.199,36.133,57.617,44.922,44.922,41.504,0
1483809962.203,28.320,69.336,49.316,48.828,36.133,0
1483809962.207,29.297,66.895,48.828,50.293,4.883,0
1483809962.211,30.762,68.359,39.551,45.410,55.664,0
1483809962.215,42.480,80.078,46.875,46.875,104.980,0
1483809962.219,42.969,65.430,61.035,50.293,98.145,0
1483809962.223,28.809,54.688,43.457,41.504,58.594,0
1483809962.227,28.809,74.707,34.668,41.016,57.129,0
1483809962.230,29.297,74.219,41.016,48.828,75.195,0
1483809962.234,31.250,65.918,40.039,54.199,56.152,0
1483809962.238,43.457,62.012,38.574,67.871,89.355,0
1483809962.242,47.363,69.336,45.898,79.102,100.098,0
1483809962.246,46.387,63.477,50.781,82.520,56.152,0
1483809962.250,58.594,66.406,50.781,67.383,70.312,0
1483809962.254,65.430,73.242,41.016,44.922,70.801,0
1483809962.258,62.988,77.637,49.805,53.223,68.848,0
1483809962.262,59.570,75.195,59.570,68.848,74.219,0
1483809962.266,52.734,62.012,29.785,60.547,57.129,0
1483809962.269,54.688,58.594,20.996,51.758,71.289,0
1483809962.273,52.734,47.363,27.832,43.457,88.379,0
1483809962.277,50.781,51.270,24.902,40.527,58.105,0
1483809962.281,52.734,64.941,21.973,39.551,23.926,0
1483809962.285,47.363,54.688,21.973,39.551,32.715,0
1483809962.289,47.363,53.223,26.367,46.387,69.824,0
1483809962.293,44.434,61.523,28.809,48.828,57.617,0
1483809962.297,44.922,56.152,30.762,37.598,20.996,0
1483809962.301,51.758,64.453,30.273,28.809,58.105,0
1483809962.305,55.176,76.660,32.227,38.086,73.730,0
1483809962.309,57.617,75.684,39.062,47.363,70.801,0
1483809962.312,63.477,81.055,41.992,44.922,61.035,0
1483809962.316,71.289,69.824,45.410,39.551,59.082,0
1483809962.320,67.871,67.383,47.852,43.457,85.938,0
1483809962.324,72.754,79.102,62.500,56.641,85.449,0
1483809962.328,62.988,73.242,55.176,61.035,65.430,0
1483809962.332,40.527,55.664,35.645,59.570,56.152,0
1483809962.336,43.945,54.688,41.016,56.641,69.824,0
1483809962.340,37.109,67.383,43.457,52.246,79.102,0
1483809962.344,20.508,51.758,37.598,54.688,69.824,0
1483809962.348,25.879,53.223,39.551,62.012,66.406,0
1483809962.352,22.949,69.824,51.758,61.035,68.359,0
1483809962.355,14.648,67.871,49.316,62.012,67.383,0
1483809962.359,16.113,71.289,49.316,64.453,71.777,0
1483809962.363,18.066,62.988,55.664,62.012,81.055,0
1483809962.367,24.414,67.383,53.223,66.895,84.473,0
1483809962.371,26.855,72.266,50.293,75.684,68.848,0
1483809962.375,26.855,60.059,60.547,74.707,62.988,0
1483809962.379,33.691,75.195,49.316,57.617,52.246,0
1483809962.383,40.039,59.082,36.621,53.711,37.109,0
1483809962.387,38.574,48.340,37.109,62.012,42.480,0
1483809962.391,31.738,67.383,31.738,53.223,46.875,0
1483809962.394,33.203,75.684,38.086,55.664,86.914,0
1483809962.398,37.598,65.430,40.527,66.406,99.121,0
1483809962.402,39.062,56.641,42.969,69.336,73.730,0
1483809962.406,44.434,55.176,44.434,75.195,108.398,0
1483809962.410,42.969,51.758,41.992,79.102,124.512,0
1483809962.414,38.574,63.965,40.039,83.008,100.586,0
1483809962.418,43.457,63.477,36.621,85.449,117.188,0
1483809962.422,56.152,51.270,38.086,77.637,108.398,0
1483809962.426,60.059,63.477,54.199,72.754,100.586,0
1483809962.430,47.852,68.359,63.965,75.684,83.008,0
1483809962.434,34.180,45.898,44.922,71.777,82.520,0
1483809962.437,39.062,54.199,34.668,74.707,125.977,0
1483809962.441,45.410,57.129,40.039,76.660,179.199,0
1483809962.445,54.688,46.387,42.969,68.848,212.891,0
1483809962.449,53.223,52.246,40.527,58.105,166.992,0
1483809962.453,36.621,60.059,34.180,49.805,191.406,0
1483809962.457,37.109,54.199,33.203,48.340,195.801,0
1483809962.461,46.387,60.059,40.527,64.453,155.273,0
1483809962.465,51.758,49.316,40.039,62.988,197.266,0
1483809962.469,57.617,41.016,38.086,55.176,205.078,0
1483809962.473,56.152,50.781,35.645,57.129,177.246,0
1483809962.477,46.875,52.734,41.504,54.688,148.926,0
1483809962.480,57.617,68.359,63.965,70.312,129.395,0
1483809962.484,59.570,71.289,55.664,64.453,154.297,0
1483809962.488,48.340,55.176,31.738,48.828,174.316,0
1483809962.492,36.621,56.152,36.133,53.711,149.414,0
1483809962.496,36.621,46.387,35.645,51.758,125.488,0
1483809962.500,43.945,35.645,35.156,51.758,163.574,0
1483809962.504,40.039,56.641,40.527,61.035,184.082,0
1483809962.508,36.133,75.684,40.039,54.688,180.664,0
1483809962.512,37.598,57.617,39.551,47.852,161.621,0
1483809962.516,38.086,46.387,36.133,48.340,120.117,0
1483809962.519,31.250,61.035,35.156,48.340,123.047,1
1483809962.523,28.809,73.242,44.922,55.176,128.418,0
1483809962.527,20.508,70.312,43.457,55.176,133.301,0
1483809962.531,20.020,65.430,47.852,41.016,114.258,0
1483809962.535,26.855,65.918,69.336,47.363,106.934,0
1483809962.539,15.137,53.711,52.734,56.152,103.516,0
1483809962.543,10.742,50.293,28.320,43.457,113.770,0
1483809962.547,14.648,34.180,31.250,32.715,112.793,0
1483809962.551,16.113,26.367,34.180,22.461,106.934,0
1483809962.555,11.230,48.340,37.109,18.555,113.770,0
1483809962.559,6.836,42.480,38.574,33.691,94.727,0
1483809962.562,5.371,54.688,40.039,46.875,79.590,0
1483809962.566,4.395,68.848,43.457,42.480,80.078,0
1483809962.570,11.230,42.969,41.016,23.926,82.031,0
1483809962.574,13.184,29.785,37.109,10.742,99.121,0
1483809962.578,6.836,57.129,35.156,16.602,86.426,0
1483809962.582,12.207,68.848,43.945,31.738,64.453,0
1483809962.586,17.578,52.246,54.199,30.273,99.609,0
1483809962.590,8.789,44.922,31.738,22.949,117.188,0
1483809962.594,4.883,53.711,27.832,33.203,47.852,0
1483809962.598,14.648,50.781,39.551,34.180,20.020,0
1483809962.602,22.461,34.180,35.156,34.668,58.105,0
1483809962.605,23.438,39.551,39.551,49.316,78.613,0
1483809962.609,28.320,55.664,40.527,49.805,37.598,0
1483809962.613,32.715,58.105,35.645,44.922,20.996,0
1483809962.617,41.992,54.199,42.969,54.688,70.801,0
1483809962.621,41.504,41.992,39.551,58.105,89.355,0
1483809962.625,42.969,40.527,46.387,59.082,52.246,0
1483809962.629,47.363,39.062,54.199,66.895,10.742,0
1483809962.633,49.316,27.832,43.457,69.336,69.336,0
1483809962.637,60.547,31.738,49.316,75.195,72.266,0
1483809962.641,59.082,43.945,70.801,76.172,57.129,0
1483809962.644,47.363,40.039,56.641,65.430,75.195,0
1483809962.648,35.156,29.785,36.621,71.289,49.805,0
1483809962.652,39.551,27.344,38.574,80.566,35.645,0
1483809962.656,52.734,33.203,41.992,74.707,38.086,0
1483809962.660,49.316,43.457,42.969,71.777,37.109,0
1483809962.664,50.781,31.738,41.992,71.289,38.086,0
1483809962.668,65.430,28.809,44.434,70.312,32.227,0
1483809962.672,61.035,38.574,41.504,69.824,-23.438,0
1483809962.676,44.434,32.715,38.086,72.266,-4.883,0
1483809962.680,43.457,37.598,36.621,77.148,47.363,0
1483809962.684,60.059,53.223,56.152,84.473,40.039,0
1483809962.687,63.477,60.059,63.965,81.543,47.363,0
1483809962.691,44.922,44.434,40.527,67.383,85.938,0
1483809962.695,35.645,36.133,33.691,59.570,72.754,0
1483809962.699,43.457,22.949,35.645,54.688,26.855,0
1483809962.703,49.805,33.691,43.457,57.617,32.715,0
1483809962.707,43.945,52.734,40.527,58.105,66.895,0
1483809962.711,38.574,46.875,35.645,52.734,47.852,0
1483809962.715,41.992,45.898,37.598,56.641,32.227,0
1483809962.719,46.875,39.062,41.992,79.102,53.223,0
1483809962.723,52.734,48.828,44.922,82.520,57.617,0
1483809962.727,58.105,49.316,42.480,61.523,39.062,0
1483809962.730,52.734,41.504,43.945,50.781,47.363,0
1483809962.734,48.828,48.340,42.969,53.711,61.035,0
1483809962.738,55.176,65.430,58.594,69.824,50.781,0
1483809962.742,63.477,60.547,70.312,76.172,51.270,0
1483809962.746,52.734,45.410,44.434,65.430,42.480,0
1483809962.750,36.621,47.363,36.621,65.430,41.504,0
1483809962.754,29.785,49.805,49.805,72.266,62.500,0
1483809962.758,35.645,53.711,47.363,74.219,45.898,0
1483809962.762,38.086,47.852,39.551,62.988,-8.789,0
1483809962.766,38.574,59.082,44.434,48.828,1.953,0
1483809962.769,40.527,69.824,43.945,45.898,39.551,0
1483809962.773,37.109,56.641,41.504,53.711,44.434,0
1483809962.777,46.875,60.059,45.898,64.941,40.039,0
1483809962.781,55.176,53.711,43.945,70.312,35.156,0
1483809962.785,52.734,52.246,41.992,61.035,49.805,0
1483809962.789,57.617,67.871,44.922,61.523,53.711,0
1483809962.793,62.500,50.293,37.598,70.312,34.180,0
1483809962.797,77.148,48.340,51.270,65.430,37.598,0
1483809962.801,77.148,64.453,59.570,57.129,66.406,0
1483809962.805,60.059,67.383,33.691,56.641,68.359,0
1483809962.809,60.059,74.707,26.855,66.895,35.156,0
1483809962.812,55.176,66.895,33.203,61.035,34.668,0
1483809962.816,52.734,62.988,36.133,40.527,11.719,0
1483809962.820,66.406,62.012,38.086,27.344,17.090,0
1483809962.824,65.918,57.129,43.457,32.227,73.730,0
1483809962.828,49.316,56.641,48.828,56.641,67.871,0
1483809962.832,54.199,53.711,54.688,57.617,36.621,0
1483809962.836,65.918,45.898,54.688,44.922,24.902,0
1483809962.840,67.383,43.457,50.293,40.039,63.477,0
1483809962.844,62.988,18.555,47.852,42.480,48.828,0
1483809962.848,48.828,19.531,58.105,62.012,-5.371,0
1483809962.852,45.410,68.359,83.496,65.430,-9.277,0
1483809962.855,41.992,62.500,70.312,42.480,28.320,0
1483809962.859,37.598,41.504,44.922,29.785,56.641,0
1483809962.863,40.527,48.340,53.711,42.480,20.508,0
1483809962.867,37.109,41.992,59.570,56.152,19.531,0
1483809962.871,27.832,38.086,55.176,60.059,54.199,0
1483809962.875,28.320,39.551,59.082,58.594,43.945,0
1483809962.879,28.320,40.039,60.547,55.664,11.719,0
1483809962.883,33.203,46.387,55.664,48.340,28.320,0
1483809962.887,41.016,46.387,50.293,42.480,63.477,0
1483809962.891,43.457,45.898,49.316,52.734,44.922,0
1483809962.894,41.016,15.625,60.059,55.176,-16.602,0
1483809962.898,42.480,16.113,61.523,59.082,-41.016,0
1483809962.902,48.828,66.895,58.105,74.219,17.090,0
1483809962.906,45.898,78.613,51.758,59.082,45.898,0
1483809962.910,52.246,71.777,62.988,48.340,14.160,0
1483809962.914,60.059,71.777,70.312,62.500,12.695,0
1483809962.918,63.965,63.477,50.293,59.570,62.012,0
1483809962.922,63.477,62.988,46.875,65.430,54.688,0
1483809962.926,60.059,46.875,48.340,78.613,2.441,0
1483809962.930,65.430,44.922,51.270,75.684,-4.395,0
1483809962.934,75.684,70.801,50.781,63.477,35.645,0
1483809962.937,73.730,80.078,48.828,54.688,42.969,0
1483809962.941,65.430,71.289,51.758,59.082,16.113,0
1483809962.945,80.566,75.195,49.316,70.312,-12.207,0
1483809962.949,89.844,80.566,48.828,69.824,49.316,0
1483809962.953,81.055,68.848,53.711,71.289,71.289,0
1483809962.957,81.543,80.078,54.688,64.941,32.715,0
1483809962.961,88.379,81.055,54.199,55.176,38.086,0
1483809962.965,88.867,79.590,55.664,58.105,75.195,0
1483809962.969,85.938,87.891,52.734,69.824,41.016,0
1483809962.973,87.891,80.078,71.289,85.938,11.230,0
1483809962.977,84.473,67.871,68.848,75.195,29.297,0
1483809962.980,73.242,74.219,43.457,55.664,16.113,0
1483809962.984,62.988,72.754,46.875,61.523,28.320,0
1483809962.988,62.012,68.848,52.246,69.824,51.270,0
1483809962.992,67.871,68.359,54.199,77.637,51.758,0
1483809962.996,71.289,66.895,53.711,72.266,31.738,0
1483809963.000,70.801,72.266,57.617,60.059,14.160,0
1483809963.004,71.777,64.453,59.082,51.758,5.371,0
1483809963.008,71.289,67.871,52.734,51.270,26.855,0
1483809963.012,60.059,74.707,53.223,53.711,10.742,0
1483809963.016,57.617,59.082,53.223,45.410,21.484,0
1483809963.019,49.805,64.941,49.805,35.156,48.340,0
1483809963.023,44.434,72.754,49.316,34.668,31.738,0
1483809963.027,56.641,61.523,67.383,45.410,-11.230,0
1483809963.031,60.547,60.059,69.336,48.340,-9.277,0
1483809963.035,56.152,76.660,47.852,35.645,33.691,0
1483809963.039,51.270,78.125,43.945,27.344,66.406,0
1483809963.043,46.875,73.242,42.969,27.344,15.137,0
1483809963.047,40.527,74.707,38.574,34.180,-36.133,0
1483809963.051,33.691,73.242,38.086,34.180,1.953,0
1483809963.055,41.504,69.336,37.109,32.227,11.230,0
1483809963.059,47.852,68.848,36.621,35.645,14.648,0
1483809963.062,49.805,72.266,38.086,31.250,19.043,0
1483809963.066,61.523,71.777,45.410,31.250,31.250,0
1483809963.070,61.523,73.730,42.480,27.344,20.020,0
1483809963.074,44.922,76.660,37.109,25.879,18.066,0
1483809963.078,43.457,77.148,38.574,29.785,-2.441,0
1483809963.082,63.477,87.891,51.758,28.320,-20.996,0
1483809963.086,62.988,93.262,61.523,34.180,2.930,0
1483809963.090,44.922,82.031,35.156,24.902,-2.441,0
1483809963.094,34.668,75.684,21.973,15.625,-12.695,0
1483809963.098,24.902,73.730,28.320,21.973,-7.324,0
1483809963.102,25.391,76.660,30.273,34.180,20.508,0
1483809963.105,31.250,76.172,30.273,26.855,25.879,0
1483809963.109,23.926,67.871,29.785,3.418,-12.695,0
1483809963.113,7.324,56.641,29.785,-10.742,24.902,0
1483809963.117,-2.441,58.105,29.297,-14.160,52.734,0
1483809963.121,-2.441,70.801,25.391,-12.695,21.484,0
1483809963.125,-7.812,69.824,23.438,-15.625,14.648,0
1483809963.129,-15.625,63.965,15.625,-24.902,30.273,0
1483809963.133,-21.484,66.406,24.414,-34.180,23.926,0
1483809963.137,-28.320,60.059,41.992,-37.109,31.250,0
1483809963.141,-45.410,41.992,18.555,-55.176,17.090,0
1483809963.144,-61.035,55.664,3.418,-66.406,-2.441,0
1483809963.148,-56.641,56.152,10.254,-64.941,13.672,0
1483809963.152,-48.340,40.527,9.766,-66.406,-16.113,0
1483809963.156,-47.852,41.992,12.207,-55.664,-24.902,0
1483809963.160,-38.086,42.969,17.090,-48.340,11.230,0
1483809963.164,-21.973,39.551,17.578,-58.105,1.953,0
1483809963.168,-15.137,43.457,19.043,-61.523,-16.602,0
1483809963.172,-5.859,35.645,21.484,-49.805,-1.953,0
1483809963.176,-6.348,8.301,19.531,-29.297,12.207,0
1483809963.180,-3.906,35.645,38.574,-20.020,4.883,0
1483809963.184,2.930,72.754,55.176,-25.879,-12.695,0
1483809963.187,2.930,57.129,32.715,-27.832,5.859,0
1483809963.191,11.719,45.898,25.391,-22.949,24.414,0
1483809963.195,18.066,30.762,28.809,-15.625,7.812,0
1483809963.199,27.832,20.996,30.762,-6.348,-16.602,0
1483809963.203,46.387,38.574,38.574,8.789,7.324,0
1483809963.207,56.152,54.688,40.039,33.203,27.832,0
1483809963.211,58.105,50.781,40.039,34.180,-13.184,0
1483809963.215,62.500,42.480,43.457,20.996,-10.742,0
1483809963.219,63.965,42.480,50.781,31.250,13.672,0
1483809963.223,82.031,44.434,76.660,57.617,4.395,0
1483809963.227,89.844,41.504,60.059,61.523,-37.109,0
1483809963.230,89.355,44.922,31.250,50.293,-43.945,0
1483809963.234,96.680,45.410,35.645,50.781,-0.977,0
1483809963.238,106.445,48.340,41.016,58.105,-4.883,0
1483809963.242,107.910,47.363,44.922,66.895,1.953,0
1483809963.246,102.539,51.758,49.805,74.707,31.250,0
1483809963.250,112.793,50.781,58.105,79.590,12.207,0
1483809963.254,112.305,42.969,55.664,80.078,11.230,0
1483809963.258,103.027,47.852,50.293,71.289,33.203,0
1483809963.262,107.910,52.246,51.758,70.312,11.230,0
1483809963.266,113.770,62.012,50.293,77.637,-19.531,0
1483809963.269,115.723,70.801,71.777,84.961,-27.344,0
1483809963.273,107.910,59.570,71.777,86.426,-1.465,0
1483809963.277,97.656,51.270,51.270,79.590,1.953,0
1483809963.281,99.609,56.641,55.176,85.449,10.254,0
1483809963.285,95.703,36.621,60.547,87.402,16.602,0
1483809963.289,96.680,23.926,60.547,85.449,3.906,0
1483809963.293,104.492,48.828,63.477,90.332,25.391,0
1483809963.297,97.656,45.410,63.477,92.285,8.301,0
1483809963.301,98.145,41.016,60.059,97.656,3.418,0
1483809963.305,107.910,41.992,64.453,99.609,4.395,0
1483809963.309,97.168,35.645,63.965,94.238,4.395,0
1483809963.312,92.285,26.855,60.547,94.727,-1.953,0
1483809963.316,102.539,30.273,66.406,96.680,-19.531,0
1483809963.320,114.746,51.758,79.590,97.168,-5.859,0
1483809963.324,120.117,46.875,63.477,96.191,9.277,0
1483809963.328,112.305,33.203,50.781,97.656,-9.766,0
1483809963.332,105.957,27.832,61.523,102.051,-20.020,0
1483809963.336,102.051,39.551,68.359,105.957,20.020,0
1483809963.340,87.402,38.086,70.312,113.281,32.227,0
1483809963.344,86.914,30.762,65.430,117.676,-12.207,0
1483809963.348,98.145,38.574,59.570,103.516,-21.973,0
1483809963.352,102.051,30.762,58.105,92.285,12.207,0
1483809963.355,100.098,32.715,66.895,105.957,21.484,0
1483809963.359,103.516,31.250,64.941,104.492,-18.066,0
1483809963.363,101.562,29.785,62.988,96.680,-23.438,0
1483809963.367,99.609,49.805,80.078,93.262,17.578,0
1483809963.371,100.586,44.922,71.289,78.125,28.320,0
1483809963.375,99.609,29.785,53.711,72.754,4.883,0
1483809963.379,82.031,28.320,58.594,84.473,1.465,0
1483809963.383,69.824,24.902,63.965,86.914,1.953,0
1483809963.387,67.871,26.855,59.082,75.195,16.602,0
1483809963.391,65.430,39.551,55.664,63.965,16.602,0
1483809963.394,65.918,38.574,61.523,51.758,-3.906,0
1483809963.398,64.941,32.227,55.176,47.363,3.906,0
1483809963.402,69.824,33.203,49.316,53.223,9.277,0
1483809963.406,84.473,55.176,72.754,59.570,32.227,0
1483809963.410,80.078,59.082,68.848,51.270,14.160,0
1483809963.414,68.848,45.898,46.387,54.199,0.000,0
1483809963.418,65.918,35.645,48.828,72.754,23.926,0
1483809963.422,60.059,29.297,55.176,71.777,-18.555,0
1483809963.426,64.941,30.762,56.152,56.641,-5.859,0
1483809963.430,73.242,35.156,59.082,57.129,30.762,0
1483809963.434,64.453,44.434,59.570,70.312,15.137,0
1483809963.437,54.199,40.527,62.012,71.289,14.648,0
1483809963.441,63.965,48.828,70.801,74.707,21.973,0
1483809963.445,59.570,42.969,66.406,75.195,9.766,0
1483809963.449,61.035,34.668,75.684,73.730,-20.996,0
1483809963.453,63.965,43.945,88.867,69.824,-8.789,0
1483809963.457,48.828,32.715,67.871,63.477,13.184,0
1483809963.461,39.551,10.742,53.711,51.758,11.230,0
1483809963.465,37.109,14.160,57.617,41.992,6.836,0
1483809963.469,48.828,18.555,60.059,45.410,14.648,0
1483809963.473,54.199,29.297,58.105,48.340,51.758,0
1483809963.477,46.875,35.645,51.758,49.805,44.434,0
1483809963.480,45.410,34.668,50.781,48.828,10.742,0
1483809963.484,41.016,44.434,56.152,53.711,20.996,0
1483809963.488,44.434,38.574,60.547,58.105,28.809,0
1483809963.492,46.387,28.809,57.129,55.176,15.137,0
1483809963.496,53.223,33.691,55.664,60.059,-14.648,0
1483809963.500,71.289,41.016,76.660,66.406,-26.367,0
1483809963.504,60.059,34.668,69.336,63.965,25.879,0
1483809963.508,43.457,19.043,46.387,57.617,24.414,0
1483809963.512,48.828,10.742,51.270,58.594,-20.508,0
1483809963.516,50.781,18.555,48.828,58.105,-6.348,0
1483809963.519,52.246,29.785,48.340,61.523,26.367,0
1483809963.523,57.617,39.062,50.293,67.383,44.434,0
1483809963.527,60.547,49.805,48.340,63.477,29.785,0
1483809963.531,59.082,48.828,50.293,60.547,23.438,0
1483809963.535,59.082,48.828,47.363,58.105,54.688,0
1483809963.539,52.246,51.270,56.152,60.547,41.016,0
1483809963.543,47.363,57.129,77.637,61.035,7.324,0
1483809963.547,41.992,39.551,59.082,50.781,17.578,0
1483809963.551,43.457,34.668,45.898,49.316,47.363,0
1483809963.555,47.363,49.805,48.340,52.246,38.086,0
1483809963.559,43.457,30.273,40.039,38.086,-13.184,0
1483809963.562,42.480,38.574,42.480,28.809,8.789,0
1483809963.566,41.992,65.430,45.898,30.273,38.574,0
1483809963.570,44.922,70.801,43.945,38.086,13.184,0
1483809963.574,51.758,64.453,43.457,35.645,5.859,0
1483809963.578,57.617,62.012,46.875,27.344,42.480,0
1483809963.582,48.828,66.406,48.340,29.297,17.090,0
1483809963.586,46.875,68.848,63.477,35.156,15.137,0
1483809963.590,45.898,67.383,62.988,36.133,44.434,0
1483809963.594,32.227,52.246,40.039,37.109,1.465,0
1483809963.598,27.832,45.898,45.410,35.156,-33.691,0
1483809963.602,28.320,45.898,52.246,30.762,-40.039,0
1483809963.605,28.809,41.504,47.852,33.691,30.762,0
1483809963.609,30.762,42.480,42.969,31.250,51.758,0
1483809963.613,38.086,61.523,42.480,34.180,-3.418,0
1483809963.617,53.711,60.059,42.480,36.621,-2.930,0
1483809963.621,61.523,55.176,38.086,28.809,44.922,0
1483809963.625,50.781,56.641,39.062,29.785,51.758,0
1483809963.629,54.199,49.316,42.480,39.062,3.418,0
1483809963.633,55.664,41.016,33.691,38.574,-2.930,0
1483809963.637,50.293,44.922,59.570,44.434,22.949,0
1483809963.641,53.711,58.594,76.172,60.547,11.719,0
1483809963.644,43.945,36.621,41.016,50.293,-10.742,0
1483809963.648,39.551,39.062,32.715,43.945,7.812,0
1483809963.652,49.805,62.988,44.922,51.270,36.621,0
1483809963.656,46.875,50.781,49.805,59.570,14.648,0
1483809963.660,40.039,55.176,40.527,64.941,-11.230,0
1483809963.664,46.875,59.082,35.156,54.199,-15.625,0
1483809963.668,48.340,47.852,41.016,49.805,-7.324,0
1483809963.672,47.852,44.922,42.969,49.805,15.137,0
1483809963.676,51.758,49.805,44.434,53.223,3.906,0
1483809963.680,60.547,52.246,57.617,58.105,0.488,0
1483809963.684,64.941,32.227,46.387,51.758,26.855,0
1483809963.687,61.035,22.949,29.785,48.340,24.902,0
1483809963.691,62.500,39.551,36.133,59.082,28.809,0
1483809963.695,60.059,43.457,42.480,70.801,3.906,0
1483809963.699,59.082,38.086,49.316,70.801,14.160,0
1483809963.703,59.082,45.898,49.805,64.941,22.461,0
1483809963.707,53.711,44.434,51.758,70.312,1.465,0
1483809963.711,59.082,31.738,56.152,71.289,4.395,0
1483809963.715,61.523,21.973,62.500,67.871,6.836,0
1483809963.719,55.664,26.367,60.547,65.430,4.883,0
1483809963.723,61.035,44.922,56.641,70.312,-12.695,0
1483809963.727,74.219,49.805,72.266,84.961,1.465,0
1483809963.730,78.613,59.570,85.938,92.773,8.789,0
1483809963.734,71.777,49.805,68.848,82.520,-9.766,0
1483809963.738,75.195,38.086,59.570,77.148,33.203,0
1483809963.742,80.078,29.297,65.918,76.172,58.594,0
1483809963.746,83.496,37.109,68.848,83.496,15.137,0
1483809963.750,73.730,59.082,69.824,88.379,-5.859,0
1483809963.754,76.172,53.223,66.406,76.172,21.484,0
1483809963.758,84.961,52.246,63.965,67.871,12.695,0
1483809963.762,78.613,57.617,63.477,65.918,-17.578,0
1483809963.766,82.520,65.430,83.496,83.984,-1.465,0
1483809963.769,79.590,58.594,81.055,88.379,9.766,0
1483809963.773,68.359,35.156,54.199,71.777,14.648,0
1483809963.777,63.965,37.598,49.316,69.824,38.574,0
1483809963.781,63.965,59.570,48.828,62.988,20.996,2
1483809963.785,70.801,55.176,55.176,63.965,-8.301,0
1483809963.789,74.707,46.387,54.199,69.824,7.812,0
1483809963.793,70.312,44.434,53.711,71.289,-9.277,0
1483809963.797,67.383,42.480,53.711,71.289,-63.477,0
1483809963.801,71.289,41.016,52.246,72.754,-50.781,0
1483809963.805,86.426,45.410,54.199,77.637,18.555,0
1483809963.809,83.984,45.410,48.340,63.965,36.621,0
1483809963.812,78.613,46.875,47.852,56.152,15.137,0
1483809963.816,86.914,51.758,62.012,67.383,32.227,0
1483809963.820,77.637,43.457,43.457,62.012,51.270,0
1483809963.824,67.383,43.945,22.949,48.340,30.273,0
1483809963.828,66.406,51.270,27.344,43.457,-9.277,0
1483809963.832,56.152,47.363,26.367,37.109,-30.762,0
1483809963.836,50.781,48.828,23.926,27.832,30.762,0
1483809963.840,52.734,56.152,23.438,20.996,38.574,0
1483809963.844,46.387,57.617,24.414,26.367,-26.855,0
1483809963.848,29.297,58.594,29.297,23.438,-8.301,0
1483809963.852,17.090,52.734,24.902,19.531,23.926,0
1483809963.855,23.438,56.641,13.672,9.766,28.809,0
1483809963.859,21.973,53.223,29.785,4.883,2.441,0
1483809963.863,3.906,50.781,26.855,-2.441,4.883,0
1483809963.867,-12.695,64.453,4.883,-17.090,43.457,0
1483809963.871,-18.066,73.242,10.742,-19.531,36.133,0
1483809963.875,-18.066,74.219,16.602,-22.949,14.648,0
1483809963.879,-28.320,55.664,17.578,-27.832,23.926,0
1483809963.883,-40.039,48.828,18.066,-36.621,4.883,0
1483809963.887,-34.668,52.734,22.949,-41.992,-14.160,0
1483809963.891,-36.621,43.457,23.438,-43.457,7.324,0
1483809963.894,-44.922,49.805,22.949,-41.016,24.414,0
1483809963.898,-43.945,55.664,26.855,-40.527,16.602,0
1483809963.902,-44.434,46.875,24.414,-45.410,27.832,0
1483809963.906,-30.273,48.828,33.691,-38.574,47.363,0
1483809963.910,-19.043,41.016,53.711,-28.320,35.645,0
1483809963.914,-32.715,28.320,35.645,-33.203,13.184,0
1483809963.918,-27.832,38.086,26.367,-25.879,-13.184,0
1483809963.922,-16.602,41.504,32.227,-14.648,2.441,0
1483809963.926,-8.301,25.391,31.738,-9.766,22.461,0
1483809963.930,-0.977,28.809,38.574,0.977,-8.789,0
1483809963.934,-3.418,40.527,40.039,7.324,10.254,0
1483809963.937,-0.977,45.898,41.504,10.254,56.641,0
1483809963.941,12.695,42.969,44.434,20.996,67.383,0
1483809963.945,18.555,35.645,40.527,23.438,45.410,0
1483809963.949,22.461,34.180,39.062,24.902,19.531,0
1483809963.953,37.109,45.898,41.016,35.156,27.832,0
1483809963.957,40.527,50.781,43.457,45.410,21.973,0
1483809963.961,42.969,45.410,38.574,41.016,28.809,0
1483809963.965,55.664,59.082,48.340,43.945,40.039,0
1483809963.969,54.199,54.688,72.266,59.570,32.715,0
1483809963.973,47.852,50.293,53.711,58.105,14.648,0
1483809963.977,50.781,49.316,43.457,59.570,-30.273,0
1483809963.980,63.477,52.734,53.223,67.871,-37.109,0
1483809963.984,77.637,61.523,52.246,74.707,11.719,0
1483809963.988,76.172,50.293,53.223,70.312,38.574,0
1483809963.992,79.590,45.898,56.152,70.312,8.789,0
1483809963.996,81.543,48.828,51.758,72.266,20.020,0
1483809964.000,82.031,43.457,50.293,75.684,43.945,0
1483809964.004,85.449,50.781,53.711,80.078,17.090,0
1483809964.008,93.750,48.340,54.199,82.520,33.691,0
1483809964.012,96.680,52.246,63.477,86.426,38.086,0
1483809964.016,98.633,62.500,77.637,89.844,1.953,0
1483809964.019,99.121,47.363,62.012,78.613,7.812,0
1483809964.023,96.680,38.086,50.293,68.848,31.738,0
1483809964.027,97.656,43.945,55.664,73.242,3.418,0
1483809964.031,103.516,41.016,60.059,84.961,24.414,0
1483809964.035,113.770,52.734,62.988,95.215,12.695,0
1483809964.039,120.117,64.941,64.453,95.215,13.184,0
1483809964.043,124.512,56.152,62.012,97.168,59.570,0
1483809964.047,116.699,50.781,62.012,104.004,32.715,0
1483809964.051,110.352,59.082,62.500,106.445,6.348,0
1483809964.055,114.258,56.641,62.500,104.492,30.762,0
1483809964.059,112.793,46.875,57.617,97.168,42.969,0
1483809964.062,117.188,42.969,55.176,95.703,26.367,0
1483809964.066,119.629,39.062,63.477,103.516,-0.977,0
1483809964.070,122.070,43.945,80.566,110.840,0.488,0
1483809964.074,127.441,37.109,74.219,105.469,38.574,0
1483809964.078,121.094,42.969,58.594,100.098,4.883,0
1483809964.082,109.375,67.871,64.453,93.750,-12.207,0
1483809964.086,114.746,59.570,59.570,96.191,26.855,0
1483809964.090,114.746,52.246,57.617,105.469,20.020,0
1483809964.094,111.328,52.246,61.523,100.098,-5.859,0
1483809964.098,113.281,39.551,62.988,96.191,-1.465,0
1483809964.102,107.910,39.551,66.895,91.797,29.297,0
1483809964.105,108.398,40.039,64.453,90.820,31.250,0
1483809964.109,110.840,32.715,75.684,99.121,4.883,0
1483809964.113,104.980,45.410,89.355,96.680,4.883,0
1483809964.117,91.797,46.387,65.918,86.914,25.879,0
1483809964.121,83.984,40.527,55.664,84.961,39.062,0
1483809964.125,84.961,31.738,63.965,87.891,7.324,0
1483809964.129,96.680,34.668,63.965,76.660,-4.883,0
1483809964.133,104.004,59.082,59.570,65.430,17.578,0
1483809964.137,88.867,45.898,62.012,69.336,56.641,0
1483809964.141,82.520,35.645,63.477,72.266,13.184,0
1483809964.144,84.961,44.434,61.035,74.219,0.977,0
1483809964.148,86.426,41.016,62.012,77.148,20.996,0
1483809964.152,86.426,50.293,72.754,72.266,0.488,0
1483809964.156,84.961,49.316,61.523,62.988,14.648,0
1483809964.160,84.961,45.898,47.363,60.547,7.812,0
1483809964.164,74.219,50.293,50.781,64.453,29.297,0
1483809964.168,68.359,39.551,47.363,66.406,31.738,0
1483809964.172,73.242,44.922,49.805,67.871,-1.953,0
1483809964.176,75.684,43.457,49.316,66.895,4.883,0
1483809964.180,76.660,39.062,44.434,60.059,18.555,0
1483809964.184,77.637,55.176,46.387,58.594,24.902,0
1483809964.187,71.777,62.012,50.293,65.918,19.043,0
1483809964.191,67.871,51.758,42.969,78.125,28.320,0
1483809964.195,77.148,49.316,57.617,87.402,32.227,0
1483809964.199,89.355,55.176,66.895,87.891,6.836,0
1483809964.203,83.984,54.688,41.016,80.078,10.742,0
1483809964.207,78.613,55.664,37.109,73.730,12.207,0
1483809964.211,82.520,45.410,40.527,78.613,-6.348,0
1483809964.215,77.637,48.340,41.504,83.984,-18.066,0
1483809964.219,87.891,44.922,43.945,79.102,-7.324,0
1483809964.223,97.656,42.480,40.039,71.777,27.344,0
1483809964.227,96.680,47.363,41.992,72.266,27.832,0
1483809964.230,94.727,38.574,41.992,67.383,19.043,0
1483809964.234,90.332,43.945,42.480,61.523,16.113,0
1483809964.238,90.820,48.828,42.969,59.570,41.016,0
1483809964.242,90.820,41.504,40.527,58.594,42.480,0
1483809964.246,87.402,29.297,38.086,60.547,3.418,0
1483809964.250,86.426,29.785,42.969,66.406,12.695,0
1483809964.254,85.938,51.758,56.152,74.707,22.949,0
1483809964.258,80.078,53.711,46.875,62.988,11.719,0
1483809964.262,69.824,40.039,32.227,38.086,-32.227,0
1483809964.266,74.219,41.992,29.785,34.180,-15.625,0
1483809964.269,92.285,52.246,29.785,41.016,45.410,0
1483809964.273,97.168,59.082,29.297,30.762,35.156,0
1483809964.277,95.703,56.641,28.320,29.297,19.043,0
1483809964.281,96.191,60.059,33.691,37.109,30.762,3
1483809964.285,91.797,56.641,57.617,40.527,30.273,0
1483809964.289,74.219,36.621,49.805,40.527,16.602,0
1483809964.293,62.988,33.691,29.785,41.992,0.488,0
1483809964.297,70.312,39.062,38.574,46.875,-13.672,0
1483809964.301,73.242,30.273,41.504,43.945,10.742,0
1483809964.305,72.266,34.180,38.574,43.945,38.574,0
1483809964.309,65.918,36.133,41.992,57.129,18.066,0
1483809964.312,55.664,35.156,47.852,65.430,0.977,0
1483809964.316,58.105,47.363,52.246,62.988,15.137,0
1483809964.320,64.941,47.363,61.035,64.453,18.555,0
1483809964.324,75.684,41.504,77.637,62.988,13.184,0
1483809964.328,76.660,35.645,62.988,50.781,31.738,0
1483809964.332,63.965,28.320,44.434,48.340,29.297,0
1483809964.336,59.082,27.344,51.758,63.965,8.301,0
1483809964.340,63.477,38.086,54.688,76.172,38.574,0
1483809964.344,74.707,37.109,53.223,67.871,36.133,0
1483809964.348,75.195,39.062,55.664,57.129,9.277,0
1483809964.352,64.453,37.109,57.617,61.523,17.578,0
1483809964.355,68.848,34.180,59.570,66.406,34.180,0
1483809964.359,79.590,44.434,58.594,58.594,39.551,0
1483809964.363,83.984,35.156,58.594,54.688,13.672,0
1483809964.367,87.402,44.434,58.594,65.918,7.324,0
1483809964.371,79.590,34.180,52.734,62.988,16.113,0
1483809964.375,81.055,39.062,58.594,63.477,33.203,0
1483809964.379,85.449,67.383,65.918,74.219,41.992,0
1483809964.383,79.590,54.199,48.828,62.988,42.480,0
1483809964.387,79.102,48.340,40.039,58.594,41.992,0
1483809964.391,71.289,43.945,41.504,62.500,40.527,0
1483809964.394,74.219,37.109,42.480,63.477,13.672,0
1483809964.398,82.031,38.086,45.898,56.152,-17.090,0
1483809964.402,81.543,47.852,45.898,51.758,-0.977,0
1483809964.406,76.172,58.105,52.734,63.477,26.367,0
1483809964.410,63.477,41.016,55.176,61.523,4.395,0
1483809964.414,60.547,23.438,49.316,52.734,-28.809,0
1483809964.418,68.359,45.898,47.852,53.223,5.859,0
1483809964.422,71.289,51.270,67.383,61.035,19.531,0
1483809964.426,61.035,39.062,65.430,64.453,-11.230,0
1483809964.430,54.688,39.062,47.852,52.246,-13.184,0
1483809964.434,52.734,43.945,56.641,48.340,16.602,0
1483809964.437,35.645,26.367,52.734,51.758,41.992,0
1483809964.441,18.066,17.578,54.688,50.781,-5.859,0
1483809964.445,8.301,41.504,62.500,39.551,-15.625,0
1483809964.449,8.301,29.785,56.152,35.156,43.457,0
1483809964.453,13.672,19.531,53.223,43.945,31.738,0
1483809964.457,10.742,39.062,51.270,38.086,4.395,0
1483809964.461,4.395,45.410,48.828,28.320,19.531,0
1483809964.465,3.906,43.457,57.129,30.273,40.527,0
1483809964.469,12.207,45.898,75.195,41.992,55.176,0
1483809964.473,7.812,38.574,59.570,41.016,31.738,0
1483809964.477,9.766,18.555,41.504,23.438,10.254,0
1483809964.480,21.484,22.949,51.758,25.391,20.020,0
1483809964.484,22.949,37.109,49.805,32.227,9.766,0
1483809964.488,30.273,23.926,45.410,28.320,0.488,0
1483809964.492,42.480,18.066,47.852,26.367,0.488,0
1483809964.496,41.504,34.180,47.852,32.715,24.414,0
1483809964.500,39.551,42.969,48.340,42.969,24.414,0
1483809964.504,60.547,48.340,64.941,51.758,25.391,0
1483809964.508,60.547,48.828,55.664,53.223,50.781,0
1483809964.512,58.594,38.574,39.062,52.246,16.602,0
1483809964.516,71.289,37.109,42.480,48.828,2.441,0
1483809964.519,67.383,47.852,41.992,42.480,38.086,0
1483809964.523,62.012,45.898,41.016,45.410,45.898,0
1483809964.527,67.383,47.363,41.016,58.594,-1.465,0
1483809964.531,60.059,50.293,41.504,71.777,-31.250,0
1483809964.535,61.035,46.387,42.480,66.895,1.953,0
1483809964.539,67.871,37.109,40.039,54.199,24.414,0
1483809964.543,64.941,39.551,38.086,52.734,1.953,0
1483809964.547,69.336,50.781,37.598,58.594,-49.316,0
1483809964.551,75.684,71.777,50.781,59.570,-5.859,0
1483809964.555,71.777,65.430,52.246,59.570,52.734,0
1483809964.559,69.336,42.969,37.598,55.664,8.301,0
1483809964.562,71.289,53.711,38.086,49.805,-40.527,0
1483809964.566,66.895,62.012,40.039,51.758,-16.113,0
1483809964.570,64.941,57.617,40.527,58.594,38.574,0
1483809964.574,70.312,62.500,40.527,64.453,37.598,0
1483809964.578,76.172,63.477,38.574,59.570,-26.855,0
1483809964.582,78.613,56.641,41.016,59.082,-39.062,0
1483809964.586,80.566,55.664,49.316,58.594,24.414,0
1483809964.590,79.102,61.523,49.805,59.082,11.230,0
1483809964.594,62.988,55.176,47.363,62.012,-23.926,0
1483809964.598,64.941,59.082,59.082,67.871,0.488,0
1483809964.602,81.055,61.523,63.965,64.941,20.996,0
1483809964.605,75.684,56.641,44.434,54.199,-12.695,0
1483809964.609,73.730,68.359,37.598,61.523,-10.742,0
1483809964.613,66.895,63.477,40.527,65.430,15.625,0
1483809964.617,66.406,58.105,42.969,64.941,-1.465,0
1483809964.621,65.918,56.152,39.551,67.383,12.695,0
1483809964.625,62.012,52.246,40.527,65.918,13.184,0
1483809964.629,68.359,54.199,43.457,68.359,-3.906,0
1483809964.633,58.594,55.664,43.457,64.453,-6.836,0
1483809964.637,54.688,59.082,54.199,53.223,-18.555,0
1483809964.641,61.035,55.176,38.086,42.969,-0.488,0
1483809964.644,54.199,49.316,20.996,36.133,4.883,0
1483809964.648,41.016,53.223,24.902,34.180,-23.438,0
1483809964.652,30.273,51.270,30.273,25.879,-24.902,0
1483809964.656,27.344,55.176,28.320,18.066,1.465,0
1483809964.660,20.508,67.871,20.508,14.160,6.348,0
1483809964.664,2.930,63.477,20.996,6.836,-3.906,0
1483809964.668,-0.977,52.734,18.555,-8.789,6.348,0
1483809964.672,-6.836,51.270,8.789,-20.508,9.766,0
1483809964.676,-14.648,56.152,19.531,-22.461,-2.930,0
1483809964.680,-17.578,48.340,31.250,-22.949,-1.953,0
1483809964.684,-31.738,39.062,10.254,-37.598,-24.902,0
1483809964.687,-37.598,43.945,0.000,-41.016,2.441,0
1483809964.691,-46.387,36.621,3.906,-33.691,32.715,0
1483809964.695,-60.059,31.738,5.371,-41.992,-4.395,0
1483809964.699,-50.293,50.293,8.301,-52.246,-27.832,0
1483809964.703,-50.293,60.547,9.766,-48.340,-0.488,0
1483809964.707,-57.129,53.223,8.301,-49.805,13.672,0
1483809964.711,-46.875,47.852,19.531,-53.223,5.371,0
1483809964.715,-35.156,51.758,20.996,-50.781,32.227,0
1483809964.719,-23.926,48.340,30.762,-32.227,34.668,0
1483809964.723,-22.461,49.316,41.992,-15.625,43.945,0
1483809964.727,-26.855,56.641,20.996,-19.531,32.715,0
1483809964.730,-30.273,54.688,13.672,-26.367,1.953,0
1483809964.734,-18.066,55.664,18.555,-25.879,25.391,0
1483809964.738,-0.488,52.246,21.484,-15.625,26.367,0
1483809964.742,-2.930,45.410,22.461,-5.859,-17.578,0
1483809964.746,-7.324,50.781,26.367,-3.906,-19.043,0
1483809964.750,-2.930,55.664,29.785,-4.883,23.926,0
1483809964.754,8.301,59.082,49.316,9.766,17.090,0
1483809964.758,19.043,58.105,46.875,13.184,22.461,0
1483809964.762,28.809,53.711,26.367,3.906,18.555,0
1483809964.766,21.973,47.363,27.344,2.441,-1.465,0
1483809964.769,20.020,38.086,37.598,7.812,0.977,0
1483809964.773,26.855,38.086,41.016,14.648,-16.602,0
1483809964.777,27.344,38.574,40.039,20.020,11.719,0
1483809964.781,39.551,49.316,44.434,28.320,26.367,4
1483809964.785,40.039,64.453,43.945,32.715,30.273,0
1483809964.789,34.180,60.547,58.594,41.016,23.438,0
1483809964.793,39.062,59.570,73.730,48.828,21.484,0
1483809964.797,29.297,55.664,49.805,32.227,11.719,0
1483809964.801,29.297,31.250,41.016,16.113,1.465,0
1483809964.805,39.062,25.879,53.223,21.484,19.043,0
1483809964.809,33.691,44.434,58.105,33.203,30.762,0
1483809964.812,36.133,48.828,63.477,40.039,5.859,0
1483809964.816,42.969,42.480,68.359,43.945,-19.043,0
1483809964.820,38.086,43.945,69.824,48.828,-15.137,0
1483809964.824,40.039,34.668,70.312,55.176,20.996,0
1483809964.828,48.340,28.320,84.961,67.383,33.691,0
1483809964.832,48.828,43.945,85.938,64.453,-8.301,0
1483809964.836,42.969,39.551,63.965,56.152,-13.672,0
1483809964.840,36.621,30.273,62.500,65.430,2.930,0
1483809964.844,28.809,27.344,64.941,61.523,-6.348,0
1483809964.848,25.879,21.484,66.406,56.641,-15.137,0
1483809964.852,27.344,16.113,69.824,59.082,-9.766,0
1483809964.855,25.879,16.113,71.289,67.383,-1.465,0
1483809964.859,27.344,9.766,73.242,65.918,-5.859,0
1483809964.863,30.273,2.930,66.406,52.246,-21.973,0
1483809964.867,43.945,16.113,76.660,42.480,5.371,0
1483809964.871,52.734,34.668,78.613,43.945,26.855,0
1483809964.875,41.016,27.832,56.152,45.410,-18.555,0
1483809964.879,33.691,24.414,58.105,42.480,-29.297,0
1483809964.883,36.621,20.508,61.523,43.945,7.324,0
1483809964.887,44.434,16.113,61.523,46.387,0.000,0
1483809964.891,53.223,35.156,58.594,41.992,-11.230,0
1483809964.894,56.152,48.828,56.152,49.316,-16.602,0
1483809964.898,58.105,44.922,52.734,58.105,-9.766,0
1483809964.902,62.988,48.340,57.617,60.547,9.277,0
1483809964.906,71.777,47.363,66.895,62.500,12.207,0
1483809964.910,76.660,32.227,49.316,57.617,6.348,0
1483809964.914,87.402,32.715,40.039,62.012,9.766,0
1483809964.918,95.215,41.504,42.480,58.594,-2.441,0
1483809964.922,95.215,45.410,44.434,48.828,-12.207,0
1483809964.926,104.492,26.855,49.316,44.922,23.438,0
1483809964.930,105.957,29.297,45.410,47.852,44.922,0
1483809964.934,103.516,46.875,46.875,59.570,2.930,0
1483809964.937,104.980,30.762,43.945,66.895,-8.789,0
1483809964.941,117.188,50.293,54.199,77.148,36.133,0
1483809964.945,125.977,64.453,62.500,80.566,31.250,0
1483809964.949,103.027,47.852,43.457,66.895,21.484,0
1483809964.953,95.215,50.781,41.016,72.266,12.207,0
1483809964.957,100.098,52.734,45.410,80.566,-15.625,0
1483809964.961,107.422,52.246,52.246,77.637,0.488,0
1483809964.965,112.793,49.805,46.387,75.684,0.488,0
1483809964.969,111.328,44.922,32.715,74.219,-20.996,0
1483809964.973,114.746,52.246,42.480,72.266,14.160,0
1483809964.977,109.375,53.711,49.805,75.684,-0.488,0
1483809964.980,99.609,35.156,44.922,78.125,-46.387,0
1483809964.984,110.840,43.945,61.523,88.379,-7.812,0
1483809964.988,110.840,56.152,67.383,78.613,30.762,0
1483809964.992,97.656,34.668,47.363,65.430,17.090,0
1483809964.996,93.750,17.090,39.551,66.406,9.766,0
1483809965.000,96.191,39.551,41.016,66.895,-3.418,0
1483809965.004,98.145,55.664,45.410,74.219,32.227,0
1483809965.008,100.586,48.340,50.293,74.219,29.785,0
1483809965.012,105.469,43.945,50.781,67.871,-9.766,0
1483809965.016,107.910,48.340,71.777,79.590,3.906,0
1483809965.019,107.910,53.223,78.125,89.355,50.293,0
1483809965.023,96.680,35.645,52.734,79.590,61.035,0
1483809965.027,88.379,34.180,60.547,80.078,35.645,0
1483809965.031,97.168,37.598,65.430,84.473,31.738,0
1483809965.035,94.727,36.133,56.641,74.219,29.785,0
1483809965.039,87.891,23.438,57.617,68.359,24.902,0
1483809965.043,85.938,15.137,57.617,63.965,-3.906,0
1483809965.047,79.102,14.160,64.941,63.477,-22.461,0
1483809965.051,74.219,12.695,63.965,66.406,6.348,0
1483809965.055,80.566,40.527,73.242,72.266,7.812,0
1483809965.059,75.195,42.480,78.613,73.730,5.371,0
1483809965.062,63.477,24.902,59.082,65.430,23.926,0
1483809965.066,64.453,24.902,46.387,60.059,21.973,0
1483809965.070,66.406,25.879,48.340,68.359,30.273,0
1483809965.074,74.219,22.949,56.152,64.453,68.848,0
1483809965.078,82.031,15.625,53.223,58.105,71.777,0
1483809965.082,83.984,24.414,42.969,65.918,28.320,0
1483809965.086,76.172,36.621,35.156,69.336,3.418,0
1483809965.090,67.871,31.250,33.691,63.965,20.996,0
1483809965.094,78.125,33.691,53.711,64.941,31.738,0
1483809965.098,88.867,26.367,46.875,76.172,33.691,0
1483809965.102,79.590,20.020,18.066,69.824,23.438,0
1483809965.105,79.102,33.691,24.902,64.453,23.926,0
1483809965.109,84.961,37.598,31.250,70.312,25.391,0
1483809965.113,85.449,41.016,32.715,70.801,-11.230,0
1483809965.117,83.496,32.715,36.621,70.312,13.672,0
1483809965.121,90.820,37.598,39.551,73.730,18.066,0
1483809965.125,90.332,40.527,33.691,80.078,-6.348,0
1483809965.129,88.379,25.879,34.180,77.637,-8.789,0
1483809965.133,91.309,32.227,49.316,75.684,4.395,0
1483809965.137,87.402,36.621,41.016,71.289,57.129,0
1483809965.141,103.027,44.434,49.805,77.637,60.547,0
1483809965.144,102.051,43.457,53.223,83.496,11.230,0
1483809965.148,85.449,29.785,29.785,68.848,-1.465,0
1483809965.152,89.355,41.016,29.785,62.988,20.508,0
1483809965.156,84.961,53.223,36.621,66.895,47.363,0
1483809965.160,81.055,54.688,35.156,70.312,10.254,0
1483809965.164,83.496,53.711,28.809,65.430,-7.812,0
1483809965.168,90.820,44.922,32.227,56.152,23.926,0
1483809965.172,99.609,45.898,37.109,52.246,18.066,0
1483809965.176,88.379,41.992,35.156,53.711,7.324,0
1483809965.180,81.543,54.688,34.668,66.406,14.160,0
1483809965.184,92.285,67.383,52.246,80.566,9.766,0
1483809965.187,88.867,56.641,44.922,69.336,3.418,0
1483809965.191,83.496,56.152,28.809,56.152,9.277,0
1483809965.195,86.914,67.383,32.227,61.035,5.859,0
1483809965.199,86.914,65.918,28.809,63.477,13.184,0
1483809965.203,88.867,58.594,29.297,68.848,46.387,0
1483809965.207,83.496,53.223,39.062,76.660,27.832,0
1483809965.211,77.637,49.805,36.133,80.078,0.488,0
1483809965.215,78.125,37.598,26.367,70.312,26.855,0
1483809965.219,82.031,41.992,30.762,60.547,7.812,0
1483809965.223,87.402,60.547,32.227,60.547,-5.859,0
1483809965.227,83.008,46.387,27.832,54.688,38.574,0
1483809965.230,77.148,44.922,24.414,51.270,24.902,0
1483809965.234,81.543,60.547,44.434,65.430,3.906,0
1483809965.238,84.961,52.246,57.129,73.242,16.113,0
1483809965.242,77.637,65.430,35.156,64.941,3.906,0
1483809965.246,70.801,75.684,26.367,65.430,20.996,0
1483809965.250,75.195,64.941,29.785,61.523,10.742,0
1483809965.254,77.637,61.035,32.227,55.176,2.930,0
1483809965.258,67.871,51.270,30.273,50.293,46.875,0
1483809965.262,67.871,55.176,34.668,50.293,19.531,0
1483809965.266,80.566,58.594,35.645,52.246,9.766,0
1483809965.269,83.008,46.387,41.016,57.129,25.391,0
1483809965.273,80.078,37.598,57.129,70.312,-0.488,0
1483809965.277,76.660,43.945,41.992,76.172,6.836,0
1483809965.281,77.148,46.387,30.762,71.289,-5.859,0
1483809965.285,76.172,37.598,41.992,69.336,4.395,5
1483809965.289,66.406,30.273,40.039,71.777,62.012,0
1483809965.293,63.477,26.855,40.039,62.012,43.945,0
1483809965.297,71.777,20.996,45.898,61.523,-24.902,0
1483809965.301,73.242,9.766,40.527,67.871,-3.418,0
1483809965.305,65.918,20.508,37.109,66.895,57.617,0
1483809965.309,62.988,34.668,38.574,62.012,32.227,0
1483809965.312,63.965,22.949,47.852,69.336,13.184,0
1483809965.316,66.895,18.066,65.918,83.984,24.414,0
1483809965.320,60.059,37.109,51.758,67.383,32.715,0
1483809965.324,54.199,26.367,38.086,56.641,38.574,0
1483809965.328,58.105,10.254,41.016,58.105,4.883,0
1483809965.332,62.012,22.461,43.457,58.105,-28.809,0
1483809965.336,55.176,25.391,41.504,60.059,-9.766,0
1483809965.340,53.223,27.344,42.480,63.965,2.441,0
1483809965.344,55.664,24.414,44.922,67.871,-11.230,0
1483809965.348,53.711,15.625,45.898,72.266,11.230,0
1483809965.352,59.570,14.160,47.363,72.754,42.969,0
1483809965.355,75.684,27.832,51.758,69.336,35.156,0
1483809965.359,85.938,28.809,62.500,58.105,14.160,0
1483809965.363,76.172,20.508,41.504,43.945,32.715,0
1483809965.367,67.383,26.855,25.879,49.805,38.574,0
1483809965.371,64.453,24.902,38.086,50.293,31.250,0
1483809965.375,68.848,25.879,41.992,51.270,58.105,0
1483809965.379,81.543,37.598,48.340,62.500,49.316,0
1483809965.383,80.566,37.598,50.781,62.500,34.180,0
1483809965.387,74.707,42.480,45.898,62.500,29.297,0
1483809965.391,80.078,52.246,49.805,61.523,11.719,0
1483809965.394,82.520,44.922,50.293,54.199,8.789,0
1483809965.398,78.613,27.344,47.363,53.223,-0.977,0
1483809965.402,81.543,36.621,66.895,65.918,0.000,0
1483809965.406,77.637,46.387,63.965,67.871,23.438,0
1483809965.410,68.848,36.133,43.457,61.523,30.762,0
1483809965.414,64.941,34.668,44.922,63.477,16.113,0
1483809965.418,71.777,44.434,49.316,64.453,20.996,0
1483809965.422,77.637,32.715,48.828,62.988,44.922,0
1483809965.426,80.078,26.367,48.340,54.688,19.531,0
1483809965.430,93.750,50.781,54.688,56.641,-8.301,0
1483809965.434,98.633,54.199,56.152,70.801,9.277,0
1483809965.437,99.121,35.645,50.781,75.684,31.738,0
1483809965.441,107.422,51.270,62.012,76.660,26.367,0
1483809965.445,107.422,70.801,64.941,69.336,18.555,0
1483809965.449,98.145,56.641,41.992,64.453,12.695,0
1483809965.453,96.191,52.734,39.062,68.359,36.621,0
1483809965.457,103.027,53.711,39.062,62.012,63.477,0
1483809965.461,99.609,51.758,35.156,52.246,30.273,0
1483809965.465,94.238,56.641,34.180,45.898,33.691,0
1483809965.469,93.750,70.312,28.809,50.293,37.109,0
1483809965.473,88.379,65.430,23.926,50.781,30.273,0
1483809965.477,79.590,60.547,23.926,41.016,-4.883,0
1483809965.480,77.148,65.430,21.484,34.180,-31.250,0
1483809965.484,83.008,66.406,31.250,30.273,17.578,0
1483809965.488,82.520,66.895,34.180,19.043,36.133,0
1483809965.492,61.035,65.918,17.578,7.812,19.043,0
1483809965.496,43.945,60.547,11.719,-4.395,8.301,0
1483809965.500,37.598,58.105,8.301,-7.324,41.016,0
1483809965.504,32.227,57.617,9.277,0.977,45.898,0
1483809965.508,26.855,54.688,7.324,-13.184,5.371,0
1483809965.512,17.578,50.293,8.301,-25.391,-4.883,0
1483809965.516,13.184,49.805,11.230,-25.391,22.949,0
1483809965.519,8.301,45.898,9.766,-23.926,22.461,0
1483809965.523,7.324,54.688,26.367,-15.625,4.395,0
1483809965.527,14.160,29.297,32.715,-13.672,-1.465,0
1483809965.531,13.672,1.465,11.719,-34.668,3.906,0
1483809965.535,13.672,41.992,8.301,-40.527,44.922,0
1483809965.539,14.160,65.918,15.625,-29.297,38.574,0
1483809965.543,10.254,60.547,18.555,-21.973,17.578,0
1483809965.547,10.254,60.547,20.508,-12.695,-3.906,0
1483809965.551,12.695,55.176,25.391,-3.906,22.461,0
1483809965.555,21.484,46.387,21.973,-1.953,49.316,0
1483809965.559,32.227,52.246,40.039,7.812,54.688,0
1483809965.562,28.320,58.594,62.988,16.602,17.090,0
1483809965.566,23.926,33.691,45.898,13.672,1.465,0
1483809965.570,41.504,29.297,38.086,17.578,23.438,0
1483809965.574,59.570,63.965,43.945,12.695,46.875,0
1483809965.578,60.059,61.523,42.480,10.254,29.785,0
1483809965.582,60.059,44.922,45.898,21.484,14.648,0
1483809965.586,65.430,41.992,52.246,27.344,51.758,0
1483809965.590,64.453,35.156,51.270,36.621,61.035,0
1483809965.594,59.570,37.109,52.246,48.340,23.926,0
1483809965.598,50.293,46.387,51.270,45.410,6.348,0
1483809965.602,53.711,49.316,59.082,57.617,61.523,0
1483809965.605,62.988,41.016,75.195,64.453,113.770,0
1483809965.609,65.430,37.598,61.035,51.270,100.586,0
1483809965.613,71.777,54.688,49.316,54.688,119.629,0
1483809965.617,66.406,41.992,50.293,61.523,168.457,0
1483809965.621,65.918,35.645,50.781,64.453,210.938,0
1483809965.625,66.895,47.852,51.758,64.941,161.133,0
1483809965.629,72.266,48.828,50.293,68.848,88.379,0
1483809965.633,85.938,48.828,50.781,71.777,142.578,0
1483809965.637,89.355,46.875,51.270,74.707,171.875,0
1483809965.641,83.496,41.992,49.316,88.379,157.227,0
1483809965.644,78.125,38.086,61.523,94.727,117.676,0
1483809965.648,84.961,47.363,78.125,93.262,104.492,0
1483809965.652,82.520,49.805,62.500,83.984,106.934,0
1483809965.656,70.312,32.715,45.898,79.102,68.359,0
1483809965.660,69.336,27.832,44.434,73.242,38.086,0
1483809965.664,75.195,44.922,45.410,70.801,26.367,0
1483809965.668,80.078,45.898,50.781,80.078,42.969,0
1483809965.672,84.473,43.945,52.246,79.590,60.059,0
1483809965.676,88.867,60.547,53.223,80.566,62.988,0
1483809965.680,92.773,61.523,54.688,90.820,54.199,0
1483809965.684,88.379,50.781,53.711,92.285,40.039,0
1483809965.687,86.426,45.410,56.152,86.914,36.133,0
1483809965.691,91.797,49.316,47.363,89.355,33.691,0
1483809965.695,93.262,54.688,58.594,86.426,40.039,0
1483809965.699,99.609,51.270,64.941,87.891,30.273,0
1483809965.703,89.355,37.598,39.551,84.473,24.414,0
1483809965.707,81.543,44.922,39.062,78.613,35.645,0
1483809965.711,87.891,46.387,50.293,81.055,0.488,0
1483809965.715,90.820,40.039,50.781,90.820,-24.414,0
1483809965.719,94.238,37.109,52.246,93.262,-9.277,0
1483809965.723,96.680,37.109,53.711,93.262,-2.930,0
1483809965.727,89.355,33.203,49.316,94.727,18.555,0
1483809965.730,82.031,25.879,51.270,85.449,6.348,0
1483809965.734,89.355,35.156,51.270,82.031,-21.484,0
1483809965.738,103.516,40.039,63.477,95.703,-6.348,0
1483809965.742,103.027,9.766,63.965,97.168,-7.324,0
1483809965.746,98.633,11.719,43.457,83.496,-38.574,0
1483809965.750,92.285,43.457,40.527,78.125,-30.273,0
1483809965.754,89.844,42.480,42.480,84.961,11.719,0
1483809965.758,102.539,35.156,35.645,89.844,7.812,0
1483809965.762,101.562,35.156,41.992,91.309,-58.594,0
1483809965.766,93.262,43.457,48.828,90.820,-67.383,0
1483809965.769,93.262,37.598,42.969,87.402,-8.789,0
1483809965.773,87.402,32.715,38.574,77.637,-5.859,0
1483809965.777,92.773,50.293,55.176,75.195,-13.184,0
1483809965.781,91.309,43.945,61.035,75.684,-14.160,0
1483809965.785,72.754,30.273,40.527,69.336,-1.953,0
1483809965.789,70.312,47.363,41.504,76.172,-9.277,0
1483809965.793,71.777,31.250,43.457,79.590,-5.859,0
1483809965.797,70.801,21.973,41.504,70.801,-2.930,0
1483809965.801,60.059,43.945,41.992,63.477,-27.344,0
1483809965.805,59.570,40.527,43.945,59.082,-17.578,0
1483809965.809,54.688,38.086,47.363,51.758,-39.551,0
1483809965.812,41.992,32.715,42.969,43.457,-13.184,0
1483809965.816,44.922,25.391,36.133,43.457,20.020,0
1483809965.820,48.828,26.855,54.199,50.293,-13.184,0
1483809965.824,47.852,32.715,51.758,44.922,-22.461,0
1483809965.828,44.434,30.762,24.414,33.691,-14.160,0
1483809965.832,48.828,27.832,28.809,36.133,-14.648,0
1483809965.836,47.852,22.949,34.668,41.992,6.348,0
1483809965.840,49.805,23.438,32.715,48.828,-1.953,0
1483809965.844,59.570,23.438,35.156,53.711,-29.297,0
1483809965.848,55.664,27.344,38.086,56.152,-22.949,0
1483809965.852,50.781,41.016,41.992,54.688,-23.926,0
1483809965.855,50.781,30.273,35.156,47.852,-15.625,0
1483809965.859,52.734,26.367,41.992,56.641,9.766,0
1483809965.863,62.012,39.551,53.711,65.430,6.836,0
1483809965.867,57.129,41.504,29.785,58.105,-4.883,0
1483809965.871,45.410,41.992,23.438,58.594,23.926,0
1483809965.875,46.875,40.527,32.227,54.199,36.133,0
1483809965.879,56.152,34.668,27.344,42.969,6.348,0
1483809965.883,59.570,34.668,33.203,49.316,-5.859,0
1483809965.887,64.453,42.969,40.039,56.152,44.434,0
1483809965.891,68.848,47.363,38.086,57.617,32.715,0
1483809965.894,57.617,35.645,34.180,66.895,-19.531,0
1483809965.898,56.641,18.066,37.598,71.777,-30.762,0
1483809965.902,74.707,40.039,54.688,78.125,-2.930,0
1483809965.906,69.336,56.641,50.293,68.848,12.207,0
1483809965.910,61.035,48.340,34.668,54.688,-15.625,0
1483809965.914,65.430,51.270,27.344,58.594,-20.508,0
1483809965.918,63.965,45.410,35.645,56.641,18.066,0
1483809965.922,59.570,43.945,40.039,52.734,32.715,0
1483809965.926,68.359,49.805,35.645,51.758,-11.719,0
1483809965.930,74.707,38.086,34.180,54.199,-20.996,0
1483809965.934,65.918,40.039,32.227,59.082,30.273,0
1483809965.937,59.082,50.293,32.227,55.664,51.270,0
1483809965.941,58.594,34.668,31.738,53.711,22.949,0
1483809965.945,67.383,37.109,52.734,62.012,19.531,0
1483809965.949,70.801,63.965,50.293,55.664,42.480,0
1483809965.953,62.988,61.035,30.273,45.410,13.672,0
1483809965.957,65.430,53.711,38.574,50.293,26.367,0
1483809965.961,75.195,51.758,38.086,43.457,41.504,0
1483809965.965,65.430,43.945,38.574,41.504,13.184,0
1483809965.969,53.711,35.156,38.574,44.434,34.668,0
1483809965.973,53.223,38.086,43.457,40.527,55.176,0
1483809965.977,52.246,34.180,45.898,41.016,21.973,0
1483809965.980,62.500,37.598,48.828,45.898,2.441,0
1483809965.984,65.430,53.711,60.059,47.852,16.602,0
1483809965.988,60.059,45.898,39.062,39.551,25.879,0
1483809965.992,46.875,34.668,30.273,37.109,43.945,0
1483809965.996,43.457,35.645,37.109,31.250,68.848,0
1483809966.000,44.434,31.738,41.504,30.273,43.945,0
1483809966.004,41.504,33.691,37.109,31.250,10.254,0
1483809966.008,38.574,45.898,28.320,38.086,53.711,0
1483809966.012,33.691,43.457,36.621,41.504,39.551,0
1483809966.016,32.715,41.504,34.180,32.715,25.879,0
1483809966.019,33.691,42.480,22.949,28.320,52.246,0
1483809966.023,45.898,52.246,43.457,34.668,47.852,0
1483809966.027,46.387,37.109,38.574,28.809,40.527,0
1483809966.031,34.668,28.809,13.184,16.602,28.809,0
1483809966.035,29.785,50.781,11.230,7.812,33.203,0
1483809966.039,26.367,48.828,10.742,-2.930,34.180,0
1483809966.043,23.438,41.992,13.672,1.953,20.996,0
1483809966.047,32.715,49.316,14.648,14.160,4.883,0
1483809966.051,42.480,56.641,12.695,16.113,11.719,0
1483809966.055,28.320,53.711,13.184,10.254,76.172,0
1483809966.059,21.973,42.480,9.766,10.254,69.336,0
1483809966.062,27.832,38.574,22.461,13.672,25.879,0
1483809966.066,29.297,40.527,45.898,7.324,39.551,0
1483809966.070,26.855,39.062,31.738,-12.207,33.691,0
1483809966.074,22.461,50.781,7.812,-18.555,22.461,0
1483809966.078,19.043,39.062,7.812,-16.602,-0.977,0
1483809966.082,14.648,35.156,10.742,-17.578,-5.371,0
1483809966.086,14.160,53.711,11.230,-14.160,34.180,0
1483809966.090,17.090,57.129,12.695,-5.859,42.480,0
1483809966.094,15.625,64.941,11.230,0.000,14.648,0
1483809966.098,26.855,67.871,30.273,1.953,14.160,0
1483809966.102,36.133,64.453,35.645,4.395,50.781,0
1483809966.105,26.367,58.594,13.672,8.789,38.086,0
1483809966.109,16.602,61.035,16.113,1.465,15.625,0
1483809966.113,28.809,61.523,18.555,4.883,27.344,0
1483809966.117,37.598,59.082,32.715,14.648,5.371,0
1483809966.121,43.457,47.852,40.527,15.137,26.855,0
1483809966.125,50.781,49.316,25.879,26.855,13.672,0
1483809966.129,45.898,67.871,33.203,34.180,-1.953,0
1483809966.133,50.781,63.477,39.551,39.062,14.648,0
1483809966.137,69.336,55.664,33.691,52.734,3.418,0
1483809966.141,74.707,62.988,45.898,61.035,41.992,0
1483809966.144,59.082,54.199,33.203,57.617,47.363,0
1483809966.148,52.246,45.410,20.508,55.664,23.438,0
1483809966.152,54.199,47.363,31.250,56.152,33.691,0
1483809966.156,59.082,32.227,33.691,50.293,45.898,0
1483809966.160,71.777,28.320,31.250,53.223,36.621,0
1483809966.164,70.801,48.828,35.645,70.312,7.324,0
1483809966.168,67.871,59.082,33.691,69.824,9.766,0
1483809966.172,75.684,57.129,35.645,72.754,11.719,0
1483809966.176,70.801,53.223,56.152,86.426,-6.836,0
1483809966.180,64.453,52.734,52.734,81.055,-0.977,0
1483809966.184,71.289,43.457,28.809,72.754,0.000,0
1483809966.187,75.684,18.066,27.832,74.219,45.898,0
1483809966.191,71.289,7.324,39.062,82.031,62.500,0
1483809966.195,67.383,32.227,41.992,87.402,35.645,0
1483809966.199,70.312,44.434,42.480,83.496,35.645,0
1483809966.203,79.102,44.922,48.828,80.566,55.176,0
1483809966.207,71.777,41.016,60.059,83.984,51.270,0
1483809966.211,65.430,36.133,54.199,89.355,26.367,0
1483809966.215,77.637,29.785,54.199,91.309,17.090,0
1483809966.219,89.844,40.039,67.871,78.125,-10.742,0
1483809966.223,85.938,43.945,52.734,60.547,9.277,0
1483809966.227,70.801,38.086,45.410,56.152,10.742,0
1483809966.230,64.941,32.227,43.457,71.289,14.648,0
1483809966.234,68.359,21.973,55.664,75.684,47.363,0
1483809966.238,58.105,13.672,54.199,63.965,30.762,0
1483809966.242,52.246,29.297,39.062,73.730,20.996,0
1483809966.246,59.082,45.410,47.363,82.031,21.484,0
1483809966.250,62.012,51.758,54.199,69.336,42.969,0
1483809966.254,55.664,53.223,51.758,64.453,47.852,0
1483809966.258,62.988,53.223,64.453,78.613,0.488,0
1483809966.262,67.383,51.758,66.895,81.543,18.066,0
1483809966.266,56.641,42.969,48.828,74.707,27.344,0
1483809966.269,62.988,45.410,46.387,77.637,16.602,0
1483809966.273,64.453,40.039,46.875,77.637,31.738,0
1483809966.277,56.152,33.691,41.016,67.383,33.691,0
1483809966.281,57.617,31.250,38.574,65.430,21.484,0
1483809966.285,55.176,30.762,41.016,71.777,12.695,0
1483809966.289,52.246,37.598,50.293,66.406,8.789,0
1483809966.293,58.105,40.039,50.293,66.895,4.395,0
1483809966.297,61.523,39.062,41.504,71.289,25.879,0
1483809966.301,67.383,39.551,57.129,75.195,31.250,0
1483809966.305,62.500,39.551,56.641,76.172,40.039,0
1483809966.309,50.781,40.039,41.992,65.918,41.992,0
1483809966.312,57.129,28.809,41.016,67.871,26.855,0
1483809966.316,62.012,36.621,36.133,69.824,9.766,0
1483809966.320,55.176,44.922,42.480,70.312,36.133,0
1483809966.324,56.152,27.344,42.480,82.031,73.730,0
1483809966.328,61.035,36.133,37.598,88.379,34.668,0
1483809966.332,72.754,52.734,38.574,89.355,-12.207,0
1483809966.336,82.031,37.598,38.086,78.125,14.648,0
1483809966.340,87.891,35.156,55.664,73.730,52.734,0
1483809966.344,92.773,47.852,65.918,85.938,6.348,0
1483809966.348,76.660,47.852,34.180,77.148,1.465,0
1483809966.352,71.289,28.809,21.484,68.848,37.109,0
1483809966.355,79.102,22.461,27.344,68.359,27.832,0
1483809966.359,77.148,50.293,32.227,75.684,-1.953,0
1483809966.363,71.777,40.039,35.645,79.590,-9.766,0
1483809966.367,72.266,23.926,40.039,71.777,34.180,0
1483809966.371,80.566,31.250,45.898,68.359,61.523,0
1483809966.375,74.707,28.809,43.945,56.152,8.789,0
1483809966.379,80.566,38.574,52.246,65.918,-8.301,0
1483809966.383,89.844,44.922,54.199,91.309,41.992,0
1483809966.387,78.125,40.527,32.227,77.637,62.012,0
1483809966.391,65.430,40.527,26.855,55.664,35.156,0
1483809966.394,64.453,37.598,36.621,49.805,6.348,0
1483809966.398,79.102,40.039,37.109,55.664,-3.418,0
1483809966.402,81.055,42.480,30.273,63.477,5.371,0
1483809966.406,75.684,44.922,31.738,63.477,25.391,0
1483809966.410,70.801,29.785,37.109,61.035,35.156,0
1483809966.414,68.848,23.926,35.645,59.570,43.945,0
1483809966.418,82.031,47.852,56.641,62.988,23.438,0
1483809966.422,83.496,57.617,52.246,57.129,0.977,0
1483809966.426,61.523,55.176,29.297,52.734,20.996,0
1483809966.430,56.152,46.387,32.715,57.129,37.598,0
1483809966.434,73.242,45.898,35.645,56.152,26.855,0
1483809966.437,70.801,49.805,33.691,61.523,31.738,0
1483809966.441,62.500,40.527,27.832,64.453,47.852,0
1483809966.445,65.430,43.945,37.598,50.293,24.902,0
1483809966.449,69.336,52.246,36.133,46.875,0.977,0
1483809966.453,59.570,48.828,24.902,53.223,40.527,0
1483809966.457,48.340,48.828,28.809,48.828,49.316,0
1483809966.461,51.758,47.363,41.016,54.688,15.137,0
1483809966.465,46.387,44.434,40.527,59.570,-21.484,0
1483809966.469,51.758,35.645,54.688,62.500,-4.395,0
1483809966.473,56.152,31.738,58.594,63.965,51.270,0
1483809966.477,45.898,46.387,45.410,68.359,51.758,0
1483809966.480,47.852,44.434,40.039,68.848,12.207,0
1483809966.484,55.176,38.086,36.621,58.105,-11.230,0
1483809966.488,51.758,42.480,41.504,53.223,28.320,0
1483809966.492,42.969,43.945,44.922,57.617,40.039,0
1483809966.496,37.109,46.387,48.828,59.082,-0.977,0
1483809966.500,36.133,33.203,48.828,59.082,-22.949,0
1483809966.504,41.016,25.879,51.758,56.641,8.301,0
1483809966.508,51.270,42.969,60.059,65.430,15.137,0
1483809966.512,53.223,45.898,44.434,61.035,-28.809,0
1483809966.516,52.246,28.320,28.809,40.527,-24.902,0
1483809966.519,47.363,25.879,32.227,40.527,9.277,0
1483809966.523,36.133,37.109,42.969,48.828,30.762,0
1483809966.527,40.039,32.227,43.945,48.828,-4.883,0
1483809966.531,50.781,41.992,40.039,34.668,2.930,0
1483809966.535,44.922,43.457,36.133,31.738,58.105,0
1483809966.539,38.086,37.109,33.691,38.086,55.176,0
1483809966.543,53.711,50.781,48.828,47.852,15.137,0
1483809966.547,62.500,56.641,52.246,50.781,16.602,0
1483809966.551,63.477,48.340,26.855,45.410,32.715,0
1483809966.555,55.176,41.504,19.043,55.176,8.789,0
1483809966.559,55.664,40.039,30.762,60.059,-33.203,0
1483809966.562,64.941,39.551,27.832,52.734,-38.086,0
1483809966.566,62.988,41.504,19.531,63.965,26.855,0
1483809966.570,55.664,45.898,30.762,74.707,36.133,0
1483809966.574,51.758,45.898,37.598,68.359,38.086,0
1483809966.578,63.965,38.086,32.227,53.223,35.645,0
1483809966.582,65.918,35.156,35.156,49.316,12.207,0
1483809966.586,60.547,47.363,38.574,64.941,21.973,0
1483809966.590,62.500,55.664,50.293,62.012,24.414,0
1483809966.594,53.711,57.129,48.340,60.059,12.207,0
1483809966.598,53.223,42.969,25.391,58.105,6.348,0
1483809966.602,61.523,38.086,36.133,49.316,24.414,0
1483809966.605,57.617,46.875,41.016,49.316,59.082,0
1483809966.609,53.223,49.805,31.738,60.547,41.504,0
1483809966.613,60.059,39.551,37.109,68.848,29.785,0
1483809966.617,61.523,37.598,40.527,66.895,4.395,0
1483809966.621,52.734,38.086,36.133,57.617,2.930,0
1483809966.625,48.340,36.621,39.062,58.105,30.273,0
1483809966.629,57.617,50.293,64.941,67.383,1.953,0
1483809966.633,67.871,47.363,57.617,65.918,37.598,0
1483809966.637,56.641,29.297,36.133,52.734,58.105,0
1483809966.641,49.805,31.250,41.504,49.316,47.363,0
1483809966.644,54.688,42.969,38.574,59.570,25.879,0
1483809966.648,68.359,37.109,41.504,57.129,-3.418,0
1483809966.652,65.918,28.320,48.828,48.828,10.742,0
1483809966.656,50.293,29.297,49.805,53.711,12.695,0
1483809966.660,43.945,29.785,51.270,62.012,-14.648,0
1483809966.664,46.875,43.457,53.223,65.918,-5.371,0
1483809966.668,49.316,31.250,48.340,69.336,53.711,0
1483809966.672,51.758,23.438,44.434,55.176,53.223,0
1483809966.676,48.340,42.480,45.898,55.664,25.879,0
1483809966.680,64.941,52.246,61.523,77.148,9.766,0
1483809966.684,80.078,45.410,59.570,72.754,29.785,0
1483809966.687,65.430,30.762,37.598,55.176,48.828,0
1483809966.691,58.594,29.297,44.922,55.664,7.812,0
1483809966.695,53.223,47.363,48.828,61.035,2.441,0
1483809966.699,55.664,53.711,45.410,62.500,40.039,0
1483809966.703,60.059,39.551,36.133,61.035,37.109,0
1483809966.707,63.965,47.363,32.227,54.199,38.574,0
1483809966.711,68.848,49.805,42.480,52.734,32.227,0
1483809966.715,73.242,42.969,36.133,52.246,17.090,0
1483809966.719,72.754,53.711,37.598,50.293,48.828,0
1483809966.723,76.660,58.105,56.152,60.547,73.730,0
1483809966.727,78.125,54.199,47.363,58.594,39.551,0
1483809966.730,71.289,49.316,27.344,48.828,31.250,0
1483809966.734,68.359,52.734,27.832,53.223,25.879,0
1483809966.738,65.918,46.875,34.180,48.340,-14.160,0
1483809966.742,75.195,45.410,33.691,36.621,24.414,0
1483809966.746,78.125,51.758,34.668,41.504,32.715,0
1483809966.750,66.406,47.852,31.250,50.293,-9.277,0
1483809966.754,62.988,30.273,32.227,54.199,6.836,0
1483809966.758,57.617,32.715,41.016,58.594,29.297,0
1483809966.762,63.965,55.176,51.758,60.547,26.367,0
1483809966.766,69.824,59.570,59.570,64.941,38.086,0
1483809966.769,56.641,47.852,42.969,55.664,19.043,0
1483809966.773,55.176,42.969,33.203,44.434,28.320,0
1483809966.777,52.734,42.480,28.809,49.805,39.551,0
1483809966.781,54.199,48.340,38.086,56.641,5.859,0
1483809966.785,49.805,47.852,37.109,54.688,12.695,0
1483809966.789,39.062,23.926,31.250,54.199,43.945,0
1483809966.793,40.039,18.066,37.109,56.152,33.203,0
1483809966.797,34.668,33.203,30.273,51.270,-22.949,0
1483809966.801,41.504,40.039,31.250,43.945,-4.883,0
1483809966.805,44.922,55.176,39.551,46.387,45.898,0
1483809966.809,39.062,62.988,35.156,51.758,21.484,0
1483809966.812,48.828,68.359,44.434,59.570,-17.090,0
1483809966.816,58.105,71.289,58.105,58.594,21.484,0
1483809966.820,52.246,54.199,35.156,42.480,59.082,0
1483809966.824,56.641,57.129,24.902,41.504,45.410,0
1483809966.828,63.477,62.988,29.297,41.992,27.344,0
1483809966.832,58.594,56.152,34.668,34.180,26.367,0
1483809966.836,53.711,52.246,40.039,35.645,43.945,0
1483809966.840,54.688,53.711,33.691,46.387,33.691,0
1483809966.844,53.223,51.270,38.086,56.641,3.906,0
1483809966.848,59.082,55.664,40.039,56.641,21.973,0
1483809966.852,78.613,66.895,55.664,50.781,36.621,0
1483809966.855,80.078,64.941,54.688,44.434,41.992,0
1483809966.859,70.312,62.988,25.879,31.738,55.176,0
1483809966.863,71.777,59.082,27.832,23.438,48.340,0
1483809966.867,67.871,61.523,37.109,30.762,11.719,0
1483809966.871,70.801,62.500,37.598,45.410,-8.789,0
1483809966.875,66.895,57.129,45.898,58.105,19.043,0
1483809966.879,57.129,58.105,50.293,62.012,6.836,0
1483809966.883,54.688,38.574,42.480,52.246,13.184,0
1483809966.887,49.316,30.762,49.805,53.223,-2.930,0
1483809966.891,47.852,51.758,55.664,58.105,0.000,0
1483809966.894,53.223,50.781,41.992,55.176,54.688,0
1483809966.898,57.617,60.547,62.500,59.082,13.184,0
1483809966.902,50.781,67.871,57.617,52.734,-7.324,0
1483809966.906,52.734,56.152,30.762,41.992,38.574,0
1483809966.910,65.430,62.988,31.250,35.156,59.570,0
1483809966.914,60.547,66.406,27.344,27.832,8.789,0
1483809966.918,49.805,41.992,31.250,30.273,-7.324,0
1483809966.922,51.270,37.598,37.109,40.527,16.113,0
1483809966.926,63.477,64.453,32.715,46.875,4.883,0
1483809966.930,71.289,66.406,30.273,41.504,-8.789,0
1483809966.934,60.547,53.711,33.203,34.668,6.836,0
1483809966.937,58.594,49.316,35.156,39.551,33.691,0
1483809966.941,71.289,59.082,51.270,54.199,55.176,0
1483809966.945,73.730,60.547,39.551,54.199,27.832,0
1483809966.949,70.312,57.129,19.043,45.410,11.230,0
1483809966.953,77.637,59.570,23.926,54.688,20.508,0
1483809966.957,77.148,41.016,25.391,60.059,-2.441,0
1483809966.961,80.078,43.457,34.668,57.129,6.348,0
1483809966.965,88.867,62.988,38.086,59.570,27.832,0
1483809966.969,88.379,57.129,41.992,65.430,41.992,0
1483809966.973,85.449,54.199,43.945,59.082,29.785,0
1483809966.977,73.730,50.781,39.062,56.152,-16.602,0
1483809966.980,68.848,45.410,41.504,60.059,-16.602,0
1483809966.984,70.801,35.645,40.039,56.152,7.324,0
1483809966.988,62.988,42.480,61.035,54.199,9.766,0
1483809966.992,56.641,49.316,56.641,56.152,-9.277,0
1483809966.996,50.293,38.574,39.062,50.293,9.766,0
1483809967.000,50.781,42.480,40.527,45.898,42.480,0
1483809967.004,70.801,49.805,31.250,52.734,30.273,0
1483809967.008,82.031,43.945,37.598,55.664,35.156,0
1483809967.012,75.684,28.809,44.922,65.918,49.805,0
1483809967.016,62.500,32.715,46.387,71.777,29.785,0
1483809967.019,61.523,41.504,46.387,62.988,43.945,0
1483809967.023,68.359,45.898,40.039,60.059,29.297,0
1483809967.027,84.961,45.410,58.594,72.266,24.414,0
1483809967.031,94.727,28.809,71.777,66.895,43.457,0
1483809967.035,93.750,43.457,48.340,62.500,28.320,0
1483809967.039,92.285,48.828,38.086,66.895,38.086,0
1483809967.043,90.332,37.598,44.922,64.453,30.762,0
1483809967.047,100.098,42.969,42.969,63.965,19.043,0
1483809967.051,98.633,41.016,40.527,73.242,38.086,0
1483809967.055,95.215,36.621,47.363,79.102,41.016,0
1483809967.059,103.516,45.898,41.992,72.754,25.879,0
1483809967.062,102.539,40.039,36.621,68.359,20.508,0
1483809967.066,88.379,27.344,40.527,63.477,-23.926,0
1483809967.070,96.191,35.645,57.617,70.312,23.438,0
1483809967.074,98.633,35.645,53.223,74.219,61.035,0
1483809967.078,68.848,20.020,42.969,55.664,32.715,0
1483809967.082,58.105,24.902,42.480,50.293,60.547,0
1483809967.086,65.430,18.066,33.203,51.758,73.730,0
1483809967.090,61.035,19.043,35.645,35.645,45.898,0
1483809967.094,48.340,44.922,29.785,30.762,13.672,0
1483809967.098,33.203,38.086,35.156,30.273,0.000,0
1483809967.102,17.578,32.715,40.039,29.297,16.113,0
1483809967.105,23.438,39.551,33.203,38.574,28.809,0
1483809967.109,26.855,42.480,47.852,34.668,11.719,0
1483809967.113,14.160,39.551,33.203,11.719,-6.348,0
1483809967.117,5.371,33.691,10.254,-4.883,43.457,0
1483809967.121,-0.488,23.926,16.113,-1.953,42.969,0
1483809967.125,3.906,16.113,21.973,1.953,-5.371,0
1483809967.129,3.418,21.484,22.949,2.441,1.465,0
1483809967.133,-4.395,34.180,24.902,0.488,2.930,0
1483809967.137,-5.859,30.762,37.109,-14.648,18.555,0
1483809967.141,-16.113,21.484,27.344,-14.160,17.578,0
1483809967.144,-3.418,32.715,35.156,7.812,5.859,0
1483809967.148,0.977,23.438,38.086,12.695,26.367,0
1483809967.152,-10.742,14.648,19.531,-0.977,28.809,0
1483809967.156,-7.812,27.832,21.973,-10.742,6.348,0
1483809967.160,-4.395,10.254,25.879,-4.883,-0.977,0
1483809967.164,0.977,11.719,34.180,9.277,32.715,0
1483809967.168,0.000,33.691,36.621,17.578,21.484,0
1483809967.172,-3.906,30.273,40.527,10.254,-19.043,0
1483809967.176,-4.395,28.320,37.109,6.836,8.301,0
1483809967.180,-4.395,28.320,43.457,28.320,25.391,0
1483809967.184,2.441,29.297,56.641,25.391,10.742,0
1483809967.187,-1.953,23.926,36.621,-4.883,22.949,0
1483809967.191,-8.789,15.137,28.320,-6.348,30.273,0
1483809967.195,-3.418,17.090,28.320,4.883,28.809,0
1483809967.199,-2.930,21.973,34.180,10.254,20.996,0
1483809967.203,-1.953,24.902,38.574,18.555,9.277,0
1483809967.207,-0.488,25.879,40.039,19.531,-5.371,0
1483809967.211,-3.418,17.578,37.598,16.602,6.836,0
1483809967.215,0.488,15.625,48.828,26.855,18.066,0
1483809967.219,-3.418,24.414,51.758,31.250,-16.602,0
1483809967.223,-14.160,17.090,35.645,12.207,30.273,0
1483809967.227,-11.719,-3.906,45.410,3.906,60.547,0
1483809967.230,-4.395,15.625,35.156,11.230,-1.953,0
1483809967.234,-8.301,22.949,33.203,19.531,-15.625,0
1483809967.238,-5.859,19.531,42.969,28.809,32.715,0
1483809967.242,16.602,24.414,37.598,38.086,58.594,0
1483809967.246,21.484,29.297,41.504,41.016,36.621,0
1483809967.250,14.160,40.527,45.410,37.109,7.324,0
1483809967.254,18.555,45.410,44.434,29.785,34.668,0
1483809967.258,17.578,49.316,32.715,30.762,31.738,0
1483809967.262,13.184,40.039,23.438,34.668,-22.461,0
1483809967.266,13.672,36.133,28.320,34.668,-5.859,0
1483809967.269,19.043,33.691,31.250,27.832,57.129,0
1483809967.273,25.879,41.016,25.879,21.973,28.320,0
1483809967.277,25.391,37.109,17.090,28.809,-28.320,0
1483809967.281,20.508,38.574,17.090,40.039,18.555,0
1483809967.285,17.090,39.551,25.391,30.762,53.711,0
1483809967.289,33.691,37.598,17.578,16.113,24.414,0
1483809967.293,41.504,53.711,18.066,25.879,9.766,0
1483809967.297,38.574,66.895,34.668,45.410,23.926,0
1483809967.301,33.203,54.688,18.066,38.574,41.016,0
1483809967.305,25.391,56.152,7.324,32.227,15.137,0
1483809967.309,20.020,61.523,15.625,34.180,-3.418,0
1483809967.312,27.344,51.758,24.902,30.273,13.184,0
1483809967.316,29.297,50.293,24.414,20.996,54.199,0
1483809967.320,34.180,52.734,16.113,11.230,61.523,0
1483809967.324,41.992,53.711,20.020,25.391,38.086,0
1483809967.328,51.758,41.504,25.391,42.480,35.645,0
1483809967.332,73.730,45.410,43.945,47.363,31.250,0
1483809967.336,73.242,62.012,42.480,48.828,17.090,0
1483809967.340,66.895,53.711,15.137,45.898,28.320,0
1483809967.344,67.871,56.641,25.879,53.223,29.785,0
1483809967.348,76.660,65.918,35.156,64.941,-0.488,0
1483809967.352,77.148,61.523,37.598,71.777,17.090,0
1483809967.355,75.195,49.316,41.016,70.801,78.613,0
1483809967.359,85.449,46.387,37.598,74.219,64.941,0
1483809967.363,92.285,50.781,36.621,74.219,26.855,0
1483809967.367,88.867,50.781,38.574,76.660,-3.418,0
1483809967.371,78.613,51.270,37.598,83.984,-2.930,0
1483809967.375,90.332,59.570,53.223,97.168,49.805,0
1483809967.379,86.426,72.754,63.477,107.910,13.672,0
1483809967.383,80.566,67.383,39.062,93.750,-30.762,0
1483809967.387,93.750,49.805,33.203,72.266,14.648,0
1483809967.391,96.191,51.270,34.668,68.359,19.531,0
1483809967.394,90.332,65.918,35.156,72.754,-5.859,0
1483809967.398,77.637,65.918,36.621,83.008,-15.625,0
1483809967.402,72.754,63.965,35.156,92.773,11.230,0
1483809967.406,68.359,60.547,39.062,76.172,43.457,0
1483809967.410,72.754,59.570,40.039,56.152,22.461,0
1483809967.414,81.055,64.941,37.109,58.105,0.000,0
1483809967.418,89.844,64.453,51.270,78.613,26.367,0
1483809967.422,87.402,68.359,48.828,76.172,50.293,0
1483809967.426,71.289,61.523,29.297,56.641,11.230,0
1483809967.430,60.547,57.617,28.809,50.781,4.395,0
1483809967.434,61.523,53.711,38.086,58.105,19.531,0
1483809967.437,64.941,50.781,44.922,62.012,13.672,0
1483809967.441,60.059,58.594,32.715,56.152,0.000,0
1483809967.445,57.129,58.594,28.320,52.246,-18.066,0
1483809967.449,62.988,54.199,41.992,53.223,5.859,0
1483809967.453,70.801,54.688,42.969,61.035,7.812,0
1483809967.457,75.684,56.152,44.434,69.824,-9.766,0
1483809967.461,86.426,58.105,56.641,77.637,29.297,0
1483809967.465,82.031,62.500,41.504,68.359,46.387,0
1483809967.469,70.312,67.871,30.762,62.500,4.395,0
1483809967.473,67.871,59.082,48.828,69.824,21.973,0
1483809967.477,72.266,40.039,50.781,76.660,19.531,0
1483809967.480,76.172,43.945,40.527,79.102,5.859,0
1483809967.484,74.707,56.641,45.410,71.777,18.066,0
1483809967.488,78.125,41.016,51.758,66.406,45.410,0
1483809967.492,82.031,35.156,45.898,65.430,65.918,0
1483809967.496,89.844,51.758,56.152,72.754,43.945,0
1483809967.500,99.609,53.711,73.242,88.379,16.113,0
1483809967.504,104.492,47.852,52.734,79.102,29.785,0
1483809967.508,116.211,49.316,41.016,68.359,41.016,0
1483809967.512,106.445,53.711,49.316,77.148,35.156,0
1483809967.516,92.285,54.688,55.176,82.031,22.949,0
1483809967.519,95.215,44.434,63.477,73.730,41.504,0
1483809967.523,94.727,38.574,51.270,79.590,66.406,0
1483809967.527,88.379,45.898,46.875,92.285,37.598,0
1483809967.531,85.938,47.363,49.805,97.656,-9.766,0
1483809967.535,83.496,39.551,41.016,90.332,-4.883,0
1483809967.539,88.379,43.457,60.547,90.332,65.918,0
1483809967.543,88.867,39.062,69.336,84.473,39.551,0
1483809967.547,84.961,33.203,50.781,72.266,-16.113,0
1483809967.551,88.379,33.203,49.805,81.055,28.320,0
1483809967.555,80.078,40.527,54.688,88.379,50.781,0
1483809967.559,68.848,33.691,55.664,89.355,31.250,0
1483809967.562,72.266,20.020,49.805,82.031,9.277,0
1483809967.566,82.031,45.898,46.387,72.266,31.738,0
1483809967.570,73.242,49.316,60.547,70.312,42.480,0
1483809967.574,72.754,49.316,60.547,65.918,16.602,0
1483809967.578,86.426,58.105,45.410,65.918,-3.418,0
1483809967.582,88.379,49.805,65.918,72.754,28.320,0
1483809967.586,91.309,48.828,71.777,83.496,60.059,0
1483809967.590,84.473,45.410,47.363,71.777,22.461,0
1483809967.594,68.359,41.016,41.016,54.199,8.301,0
1483809967.598,59.082,31.738,48.828,55.176,24.902,0
1483809967.602,65.918,24.902,47.852,57.129,43.457,0
1483809967.605,72.754,45.410,44.434,54.199,25.879,0
1483809967.609,75.684,47.363,48.828,66.895,-2.930,0
1483809967.613,77.637,41.016,47.852,70.801,17.090,0
1483809967.617,75.195,50.781,54.688,63.477,50.293,0
1483809967.621,76.660,49.316,66.895,57.617,45.898,0
1483809967.625,82.031,36.621,49.316,54.199,14.648,0
1483809967.629,88.379,34.668,38.086,61.523,41.504,0
1483809967.633,92.773,44.434,44.922,55.664,58.594,0
1483809967.637,84.961,50.781,43.457,61.035,10.254,0
1483809967.641,79.590,48.340,40.039,67.383,25.391,0
1483809967.644,79.590,45.410,44.922,65.430,50.781,0
1483809967.648,82.031,46.875,39.551,64.453,1.465,0
1483809967.652,89.844,51.270,38.574,59.570,8.301,0
1483809967.656,88.867,48.828,45.898,58.105,37.109,0
1483809967.660,83.496,42.969,43.945,59.082,21.973,0
1483809967.664,88.379,43.945,60.547,65.430,25.879,0
1483809967.668,88.867,55.664,59.570,67.383,33.691,0
1483809967.672,74.707,51.758,28.320,67.383,34.668,0
1483809967.676,68.359,36.621,26.855,68.359,13.184,0
1483809967.680,62.988,43.945,36.621,58.594,1.465,0
1483809967.684,56.641,44.922,42.480,60.547,36.621,0
1483809967.687,60.547,39.551,41.992,66.406,45.898,0
1483809967.691,57.617,50.293,39.551,68.359,53.223,0
1483809967.695,57.617,55.176,40.527,67.383,17.578,0
1483809967.699,65.918,48.828,46.875,56.641,-26.367,0
1483809967.703,61.523,43.457,40.039,50.781,8.301,0
1483809967.707,58.105,54.688,50.781,56.641,53.223,0
1483809967.711,59.082,63.477,62.988,61.035,17.090,0
1483809967.715,59.570,54.199,37.109,58.594,0.977,0
1483809967.719,62.500,48.828,26.855,58.594,50.781,0
1483809967.723,58.594,43.945,33.203,63.965,53.223,0
1483809967.727,42.480,41.016,38.086,54.688,9.277,0
1483809967.730,41.016,42.480,35.645,41.016,31.250,0
1483809967.734,44.434,43.457,34.180,42.969,55.664,0
1483809967.738,39.551,46.875,30.273,39.551,42.969,0
1483809967.742,40.039,40.527,19.043,26.855,49.316,0
1483809967.746,41.992,46.387,31.738,28.809,38.574,0
1483809967.750,28.320,48.828,37.598,25.391,51.270,0
1483809967.754,13.672,35.645,18.555,16.602,59.082,0
1483809967.758,23.926,46.387,12.207,8.789,40.039,0
1483809967.762,21.973,54.688,10.254,7.812,32.715,0
1483809967.766,7.812,49.316,14.648,9.277,25.879,0
1483809967.769,13.672,45.898,13.184,6.348,44.434,0
1483809967.773,7.324,41.504,11.719,0.000,46.387,0
1483809967.777,5.859,24.414,20.020,-11.719,29.297,0
1483809967.781,19.531,34.180,18.555,-7.812,50.781,0
1483809967.785,18.066,44.922,31.250,-8.789,60.059,0
1483809967.789,5.859,32.227,19.043,-15.625,87.402,0
1483809967.793,-1.953,34.180,-3.906,-19.531,97.656,0
1483809967.797,3.418,35.645,-3.906,-20.996,61.035,0
1483809967.801,13.184,30.273,0.977,-14.160,34.668,0
1483809967.805,20.996,17.578,3.418,-3.418,52.734,0
1483809967.809,15.625,25.879,7.324,1.953,74.219,0
1483809967.812,18.066,41.016,4.883,-2.441,48.340,0
1483809967.816,30.273,40.039,3.906,-4.883,41.504,0
1483809967.820,23.926,47.852,21.973,-7.812,56.152,0
1483809967.824,25.879,34.668,32.227,-8.301,48.340,0
1483809967.828,38.574,27.344,19.043,8.789,20.020,0
1483809967.832,41.992,50.781,35.645,23.438,20.508,0
1483809967.836,39.551,54.199,33.691,24.902,46.875,0
1483809967.840,33.691,48.828,14.160,21.973,37.109,0
1483809967.844,31.250,50.293,25.391,13.184,40.039,0
1483809967.848,36.621,49.805,32.715,8.301,36.621,0
1483809967.852,36.621,46.387,34.668,8.789,28.809,0
1483809967.855,32.715,37.109,37.109,13.672,39.551,0
1483809967.859,26.367,37.598,46.875,20.996,24.902,0
1483809967.863,32.227,50.781,61.523,39.551,6.348,0
1483809967.867,41.016,46.387,58.105,37.109,35.645,0
1483809967.871,23.926,30.762,55.176,32.715,42.969,0
1483809967.875,14.160,34.180,49.805,47.852,16.113,0
1483809967.879,24.414,42.480,37.598,49.316,-12.695,0
1483809967.883,33.691,43.457,46.875,48.340,13.672,0
1483809967.887,28.809,50.781,49.316,50.293,53.223,0
1483809967.891,32.715,58.594,46.875,52.734,27.344,0
1483809967.894,46.875,60.547,55.664,47.363,-10.254,0
1483809967.898,51.270,56.152,54.688,36.133,9.766,0
1483809967.902,55.664,51.270,39.551,41.992,26.367,0
1483809967.906,65.918,56.641,51.270,62.012,17.090,0
1483809967.910,71.289,67.871,56.641,70.312,26.367,0
1483809967.914,62.988,62.988,44.922,56.641,46.387,0
1483809967.918,66.406,61.035,42.969,47.852,42.969,0
1483809967.922,83.984,62.012,32.715,62.988,-4.395,0
1483809967.926,86.914,57.129,33.203,69.336,14.648,0
1483809967.930,84.473,56.641,38.574,63.965,41.016,0
1483809967.934,92.285,58.594,37.109,48.828,15.137,0
1483809967.937,108.887,54.199,35.645,43.945,26.367,0
1483809967.941,114.258,66.895,49.316,57.129,45.898,0
1483809967.945,101.074,65.430,41.504,50.781,45.410,0
1483809967.949,91.797,58.594,26.855,47.363,34.180,0
1483809967.953,95.215,66.895,35.156,50.781,58.105,0
1483809967.957,92.773,63.965,29.785,45.898,77.637,0
1483809967.961,83.984,51.758,33.691,38.574,48.340,0
1483809967.965,84.961,51.758,30.762,44.434,17.578,0
1483809967.969,84.961,59.082,20.020,52.734,25.391,0
1483809967.973,76.172,59.570,25.879,47.363,51.270,0
1483809967.977,70.801,57.617,33.691,32.715,33.203,0
1483809967.980,62.012,54.199,30.273,26.367,16.602,0
1483809967.984,68.848,55.664,42.969,43.457,44.922,0
1483809967.988,79.102,51.758,58.594,61.523,64.453,0
1483809967.992,66.406,41.992,31.250,51.758,57.129,0
1483809967.996,56.152,36.133,20.996,30.762,16.602,0
1483809968.000,58.105,36.133,40.039,30.762,28.809,0
1483809968.004,62.500,31.250,45.898,37.109,59.082,0
1483809968.008,59.570,27.344,43.945,33.203,43.457,0
1483809968.012,44.922,33.203,47.852,36.621,14.648,0
1483809968.016,42.480,33.691,41.504,45.410,29.297,0
1483809968.019,50.781,34.180,62.500,44.922,41.504,0
1483809968.023,39.551,37.598,75.684,48.828,31.738,0
1483809968.027,22.461,32.227,51.270,40.039,20.996,0
1483809968.031,25.391,17.090,46.387,31.738,21.973,0
1483809968.035,33.691,20.996,53.711,33.203,23.438,0
1483809968.039,30.762,33.203,58.594,27.832,34.668,0
1483809968.043,22.461,31.250,51.270,35.645,32.715,0
1483809968.047,18.555,21.973,49.805,42.969,1.465,0
1483809968.051,20.996,38.086,68.359,47.363,19.531,0
1483809968.055,18.555,28.809,66.895,42.480,22.461,0
1483809968.059,23.438,15.625,53.223,30.762,4.883,0
1483809968.062,37.598,41.992,53.223,34.180,21.973,0
1483809968.066,41.016,42.480,57.129,42.480,43.945,0
1483809968.070,42.969,36.133,60.547,53.223,0.977,0
1483809968.074,47.363,36.133,54.688,53.223,-7.324,0
1483809968.078,41.992,33.203,60.059,46.875,28.809,0
1483809968.082,45.410,32.715,64.453,51.270,6.836,0
1483809968.086,55.664,39.062,55.664,62.500,0.000,0
1483809968.090,55.176,40.039,67.383,67.871,19.043,0
1483809968.094,48.340,36.133,78.125,62.988,14.160,0
1483809968.098,40.527,28.320,60.059,53.223,-7.812,0
1483809968.102,41.016,23.438,66.895,48.828,-21.973,0
1483809968.105,42.480,27.344,70.801,61.035,-1.953,0
1483809968.109,39.062,37.598,62.500,63.965,52.246,0
1483809968.113,41.504,40.527,61.035,53.711,41.016,0
1483809968.117,38.086,37.598,52.734,44.922,6.836,0
1483809968.121,40.039,32.227,74.219,39.062,27.344,0
1483809968.125,46.875,38.086,78.125,45.410,30.762,0
1483809968.129,37.598,45.410,42.969,41.504,4.395,0
1483809968.133,39.062,30.762,39.551,29.785,25.879,0
1483809968.137,44.922,23.926,42.480,31.738,69.824,0
1483809968.141,49.805,43.945,43.457,42.480,46.387,0
1483809968.144,55.176,41.016,40.527,42.480,7.324,0
1483809968.148,54.688,37.109,35.156,32.715,29.785,0
1483809968.152,59.570,54.199,63.477,32.715,40.527,0
1483809968.156,70.801,58.105,66.406,46.875,28.320,0
1483809968.160,67.871,41.016,43.457,54.199,2.441,0
1483809968.164,56.641,40.527,48.340,52.246,-22.461,0
1483809968.168,63.477,54.199,45.410,44.922,16.602,0
1483809968.172,68.848,46.875,38.086,50.781,32.715,0
1483809968.176,63.477,48.828,40.039,57.617,11.230,0
1483809968.180,62.988,58.594,37.598,57.617,24.902,0
1483809968.184,69.336,48.828,43.945,61.035,54.199,0
1483809968.187,69.336,50.293,41.992,58.105,37.109,0
1483809968.191,72.754,56.641,20.020,55.176,4.395,0
1483809968.195,75.195,45.898,29.785,56.152,11.230,0
1483809968.199,84.961,56.152,54.688,61.035,12.207,0
1483809968.203,85.449,56.152,51.758,51.270,38.574,0
1483809968.207,81.543,43.945,28.809,49.805,35.645,0
1483809968.211,80.566,54.688,23.926,49.316,25.879,0
1483809968.215,80.566,54.199,27.344,51.758,54.688,0
1483809968.219,85.449,31.250,35.156,59.082,48.340,0
1483809968.223,89.355,25.391,37.598,57.129,38.086,0
1483809968.227,96.680,55.176,28.320,77.148,58.594,0
1483809968.230,101.074,66.895,27.832,83.008,35.645,0
1483809968.234,99.121,48.340,52.734,86.426,23.926,0
1483809968.238,85.449,36.621,57.129,86.426,62.988,0
1483809968.242,83.008,44.434,28.320,84.961,68.359,0
1483809968.246,99.121,46.875,30.273,96.191,44.922,0
1483809968.250,105.469,40.039,34.668,96.191,15.625,0
1483809968.254,92.773,30.273,43.945,87.891,0.977,0
1483809968.258,90.332,37.598,46.387,81.055,6.348,0
1483809968.262,105.469,44.434,34.668,70.312,17.090,0
1483809968.266,111.816,41.016,29.297,71.289,5.371,0
1483809968.269,108.398,37.109,27.832,92.285,12.207,0
1483809968.273,100.098,35.156,20.996,97.168,39.062,0
1483809968.277,103.027,49.316,32.715,88.379,31.738,0
1483809968.281,101.562,51.758,40.039,79.102,-5.859,0
1483809968.285,86.426,45.410,20.996,76.660,8.789,0
1483809968.289,86.426,51.758,19.043,81.543,28.809,0
1483809968.293,92.285,44.434,33.691,77.637,-13.672,0
1483809968.297,82.031,45.898,48.340,71.777,-54.199,0
1483809968.301,87.402,46.387,34.668,85.938,-19.531,0
1483809968.305,97.656,40.039,28.809,103.027,34.180,0
1483809968.309,92.773,45.410,39.551,90.820,-1.465,0
1483809968.312,89.355,40.039,38.574,61.523,-52.734,0
1483809968.316,94.238,34.668,31.250,57.617,-43.945,0
1483809968.320,102.539,46.387,47.363,71.777,13.672,0
1483809968.324,98.145,55.176,44.922,75.195,2.441,0
1483809968.328,98.145,48.340,24.414,80.078,-61.035,0
1483809968.332,100.098,44.922,37.598,81.543,-27.832,0
1483809968.336,89.355,46.875,46.387,75.684,0.977,0
1483809968.340,86.426,40.527,52.246,71.777,-15.625,0
1483809968.344,89.844,37.598,57.129,78.125,-8.789,0
1483809968.348,91.309,44.922,48.340,76.660,38.086,0
1483809968.352,84.473,41.992,41.504,63.477,17.578,0
1483809968.355,80.566,41.016,49.805,79.590,-19.531,0
1483809968.359,75.195,37.598,56.641,80.078,-26.855,0
1483809968.363,61.035,35.645,39.062,55.176,-2.930,0
1483809968.367,62.500,32.227,30.762,61.523,34.668,0
1483809968.371,69.336,28.809,42.480,71.289,29.297,0
1483809968.375,75.684,51.270,43.457,70.801,13.184,0
1483809968.379,74.707,53.223,27.832,71.777,14.160,0
1483809968.383,63.477,49.805,34.180,69.336,13.184,0
1483809968.387,57.617,49.316,39.551,64.453,-17.578,0
1483809968.391,53.711,41.992,39.062,64.453,7.324,0
1483809968.394,46.387,30.762,41.992,61.523,33.691,0
1483809968.398,49.805,37.598,45.410,58.594,7.324,0
1483809968.402,59.570,62.988,58.105,67.871,-3.906,0
1483809968.406,51.758,56.641,46.875,69.824,9.277,0
1483809968.410,49.316,39.062,25.391,64.453,20.020,0
1483809968.414,53.711,43.945,22.949,62.500,9.277,0
1483809968.418,55.176,50.293,34.180,55.176,32.227,0
1483809968.422,58.105,54.199,44.922,51.758,36.133,0
1483809968.426,66.895,55.664,20.508,61.523,13.672,0
1483809968.430,68.359,45.410,22.461,57.129,7.324,0
1483809968.434,69.336,49.316,26.367,52.246,-8.789,0
1483809968.437,70.312,48.828,13.184,69.824,13.672,0
1483809968.441,63.965,64.941,40.039,86.914,41.992,0
1483809968.445,60.547,68.359,46.875,76.660,13.672,0
1483809968.449,52.246,46.875,24.902,59.082,-24.902,0
1483809968.453,56.641,48.828,24.902,51.758,17.578,0
1483809968.457,59.082,56.641,28.809,50.781,61.523,0
1483809968.461,65.430,57.617,28.809,62.988,15.625,0
1483809968.465,72.266,55.176,34.180,61.523,-5.859,0
1483809968.469,66.406,52.246,47.363,59.570,18.066,0
1483809968.473,65.918,44.434,37.109,67.383,-11.230,0
1483809968.477,66.895,42.969,31.738,66.895,-17.578,0
1483809968.480,57.617,41.992,43.945,62.012,10.254,0
1483809968.484,61.523,43.457,49.316,63.477,14.648,0
1483809968.488,75.684,45.898,59.082,76.172,13.184,0
1483809968.492,68.359,36.621,54.199,68.848,6.836,0
1483809968.496,67.383,34.668,39.551,53.711,13.672,0
1483809968.500,68.359,33.203,47.852,61.035,1.465,0
1483809968.504,64.453,28.320,52.246,69.336,8.789,0
1483809968.508,62.988,30.762,52.734,63.477,23.438,0
1483809968.512,55.176,23.926,47.363,56.152,3.418,0
1483809968.516,65.918,24.414,45.898,62.988,4.883,0
1483809968.519,68.848,29.297,47.852,73.242,1.465,0
1483809968.523,59.570,19.531,58.105,67.383,-23.926,0
1483809968.527,74.219,28.809,76.660,64.453,-32.227,0
1483809968.531,73.730,35.645,54.199,55.176,2.930,0
1483809968.535,66.406,24.902,41.992,48.828,3.418,0
1483809968.539,62.012,23.438,61.035,57.129,-21.973,0
1483809968.543,62.988,23.926,56.152,59.082,-1.465,0
1483809968.547,69.336,20.508,40.039,64.941,10.254,0
1483809968.551,71.777,21.484,46.875,62.988,0.488,0
1483809968.555,68.848,16.602,56.641,53.223,30.273,0
1483809968.559,71.289,7.812,55.176,57.617,41.016,0
1483809968.562,70.312,26.367,52.246,69.824,4.395,0
1483809968.566,62.500,34.668,45.898,70.312,-2.930,0
1483809968.570,71.777,27.832,50.293,65.430,13.672,0
1483809968.574,84.473,37.598,69.336,71.289,30.762,0
1483809968.578,73.730,37.109,54.199,69.336,10.254,0
1483809968.582,73.730,28.809,41.016,67.871,17.578,0
1483809968.586,71.777,23.926,49.805,67.871,31.250,0
1483809968.590,68.848,8.301,46.875,71.777,28.809,0
1483809968.594,74.219,22.461,52.246,74.707,0.488,0
1483809968.598,79.590,43.945,47.363,71.289,18.555,0
1483809968.602,85.449,49.805,32.715,75.684,59.570,0
1483809968.605,93.262,46.875,31.250,80.078,64.453,0
1483809968.609,95.215,38.574,31.250,81.055,19.531,0
1483809968.613,91.309,50.293,55.176,84.961,-34.668,0
1483809968.617,84.961,58.594,59.570,82.031,26.367,0
1483809968.621,79.590,50.293,30.273,73.242,68.359,0
1483809968.625,71.777,45.410,37.598,62.012,7.812,0
1483809968.629,62.012,43.457,39.062,63.965,0.488,0
1483809968.633,57.129,37.598,30.273,69.824,44.434,0
1483809968.637,55.664,37.598,41.016,57.129,53.223,0
1483809968.641,57.129,36.621,50.781,58.594,26.367,0
1483809968.644,57.129,33.691,48.340,59.570,17.090,0
1483809968.648,61.523,32.715,38.574,54.688,29.785,0
1483809968.652,71.777,42.480,37.109,56.641,21.973,0
1483809968.656,68.848,49.805,47.852,65.918,9.277,0
1483809968.660,51.758,32.227,45.898,56.641,30.273,0
1483809968.664,58.105,28.320,30.273,54.688,31.250,0
1483809968.668,56.152,36.621,18.555,52.246,9.766,0
1483809968.672,53.223,52.734,28.809,41.016,5.371,0
1483809968.676,60.059,55.664,37.109,36.621,15.625,0
1483809968.680,56.641,53.223,36.133,27.832,34.668,0
1483809968.684,57.129,56.152,31.250,34.180,11.719,0
1483809968.687,58.594,50.781,28.320,40.527,-11.230,0
1483809968.691,65.918,45.410,37.109,38.086,4.395,0
1483809968.695,62.988,43.945,37.598,37.109,34.180,0
1483809968.699,65.430,52.734,49.805,49.316,43.457,0
1483809968.703,68.848,53.711,55.664,49.316,18.066,0
1483809968.707,52.734,37.109,20.996,37.109,35.156,0
1483809968.711,47.852,33.691,12.207,38.086,19.531,0
1483809968.715,49.805,38.574,18.555,33.203,8.789,0
1483809968.719,47.363,51.758,17.578,39.551,34.668,0
1483809968.723,48.340,52.246,32.227,41.016,74.707,0
1483809968.727,50.781,30.273,39.551,31.738,73.730,0
1483809968.730,53.711,39.062,24.902,40.527,25.391,0
1483809968.734,52.734,58.594,17.090,42.480,31.738,0
1483809968.738,48.828,59.570,11.719,40.527,48.340,0
1483809968.742,57.617,59.570,33.203,47.363,39.551,0
1483809968.746,59.570,54.199,39.062,42.969,11.230,0
1483809968.750,58.594,47.363,23.926,35.645,-4.883,0
1483809968.754,62.012,43.457,20.996,28.809,21.973,0
1483809968.758,52.246,42.480,29.785,32.715,25.391,0
1483809968.762,49.316,47.363,28.320,40.039,-19.043,0
1483809968.766,49.805,56.152,18.555,44.922,5.859,0
1483809968.769,59.082,51.758,21.973,44.922,61.035,0
1483809968.773,64.453,49.316,29.785,32.715,78.125,0
1483809968.777,64.941,43.457,30.762,39.062,52.734,0
1483809968.781,70.801,35.645,37.109,48.828,46.875,0
1483809968.785,72.266,30.762,42.969,34.180,63.965,0
1483809968.789,68.359,36.133,46.875,41.992,25.879,0
1483809968.793,70.801,45.410,49.316,53.223,9.766,0
1483809968.797,62.988,41.992,46.387,43.457,32.715,0
1483809968.801,55.176,38.574,37.598,45.898,65.430,0
1483809968.805,46.875,36.621,35.156,47.363,50.293,0
1483809968.809,41.504,38.086,40.039,44.922,10.254,0
1483809968.812,47.852,40.039,41.992,45.410,44.434,0
1483809968.816,39.551,41.016,38.574,45.410,56.641,0
1483809968.820,40.039,40.039,32.715,41.504,26.855,0
1483809968.824,42.969,43.945,33.691,38.086,25.879,0
1483809968.828,38.086,35.156,37.109,33.691,12.695,0
1483809968.832,26.855,28.320,37.598,39.062,17.578,0
1483809968.836,22.949,53.223,45.898,56.152,26.367,0
1483809968.840,30.273,61.523,49.316,59.082,30.762,0
1483809968.844,31.250,54.688,35.156,41.504,16.602,0
1483809968.848,26.367,53.711,34.180,23.926,7.324,0
1483809968.852,25.879,54.199,39.062,25.391,19.531,0
1483809968.855,36.621,59.082,39.551,38.086,47.363,0
1483809968.859,47.363,57.617,25.391,49.805,89.355,0
1483809968.863,53.223,41.504,20.996,62.012,39.062,0
1483809968.867,56.641,49.316,35.156,62.988,-8.301,0
1483809968.871,61.523,60.059,49.805,48.828,42.480,0
1483809968.875,56.152,51.270,25.879,43.457,77.148,0
1483809968.879,54.199,54.688,18.555,44.922,26.855,0
1483809968.883,54.688,54.199,28.809,41.016,6.348,0
1483809968.887,57.129,51.758,35.156,38.086,49.316,0
1483809968.891,68.359,50.781,38.086,36.621,73.730,0
1483809968.894,53.711,41.016,31.738,37.109,-3.418,0
1483809968.898,42.480,42.969,25.879,36.621,-45.898,0
1483809968.902,41.504,49.316,30.273,28.320,11.230,0
1483809968.906,36.621,47.363,48.340,17.090,39.551,0
1483809968.910,40.527,46.875,33.203,13.672,41.016,0
1483809968.914,44.434,49.316,28.809,14.648,38.086,0
1483809968.918,39.062,49.805,43.457,9.766,36.133,0
1483809968.922,26.855,43.945,24.414,-1.953,24.902,0
1483809968.926,24.414,37.109,16.602,-15.625,20.508,0
1483809968.930,16.602,32.227,23.438,-17.090,26.855,0
1483809968.934,10.742,36.133,19.531,-10.254,64.453,0
1483809968.937,12.207,41.016,16.113,-20.508,51.270,0
1483809968.941,8.301,36.621,19.531,-27.832,-5.859,0
1483809968.945,-5.859,27.832,20.996,-14.160,1.953,0
1483809968.949,-12.207,33.203,21.973,-10.742,35.156,0
1483809968.953,-8.301,43.945,29.297,-22.461,28.320,0
1483809968.957,-3.906,43.945,48.828,-33.203,27.344,0
1483809968.961,-1.953,39.062,36.133,-40.527,37.598,0
1483809968.965,-12.207,32.227,20.020,-35.156,48.828,0
1483809968.969,-8.789,25.879,13.672,-20.996,62.500,0
1483809968.973,0.488,33.691,22.461,-24.902,77.637,0
1483809968.977,-4.883,45.410,25.391,-29.785,63.477,0
1483809968.980,-0.977,43.457,12.695,-19.531,46.387,0
1483809968.984,2.441,39.062,25.391,-13.672,20.508,0
1483809968.988,-0.977,44.922,35.645,-6.836,11.230,0
1483809968.992,9.277,56.152,47.363,0.488,23.438,0
1483809968.996,15.137,38.086,37.598,-1.953,19.043,0
1483809969.000,12.695,23.438,28.809,-4.395,19.531,0
1483809969.004,8.789,38.574,39.551,-8.301,9.766,0
1483809969.008,3.906,44.922,36.133,-3.418,48.340,0
1483809969.012,6.836,43.457,41.992,8.789,66.406,0
1483809969.016,15.137,42.969,57.129,10.254,27.344,0
1483809969.019,12.695,43.945,57.129,17.578,30.273,0
1483809969.023,9.766,45.898,77.148,17.090,46.875,0
1483809969.027,24.902,46.875,77.637,22.949,36.133,0
1483809969.031,35.645,39.551,45.898,27.344,-2.930,0
1483809969.035,35.645,37.109,49.316,35.156,5.859,0
1483809969.039,40.039,41.992,59.082,38.086,26.367,0
1483809969.043,39.551,53.223,59.570,29.297,11.719,0
1483809969.047,32.715,62.012,55.176,35.156,7.324,0
1483809969.051,45.410,55.664,42.480,41.016,34.668,0
1483809969.055,48.828,44.434,46.387,37.598,60.059,0
1483809969.059,51.270,59.570,64.453,59.570,50.781,0
1483809969.062,58.594,46.875,69.824,66.406,27.344,0
1483809969.066,61.523,35.645,46.875,56.152,18.066,0
1483809969.070,66.895,58.594,41.992,54.199,58.105,0
1483809969.074,60.547,47.363,50.781,50.293,44.922,0
1483809969.078,69.336,39.551,44.922,55.176,-6.836,0
1483809969.082,78.125,45.898,42.969,60.547,-9.277,0
1483809969.086,74.219,44.922,49.316,54.688,7.812,0
1483809969.090,79.102,37.598,50.781,61.035,42.969,0
1483809969.094,83.984,38.086,47.852,66.895,40.039,0
1483809969.098,93.750,47.363,74.707,79.590,-16.602,0
1483809969.102,92.773,49.805,68.359,89.355,-15.137,0
1483809969.105,88.379,46.387,40.527,78.125,31.250,0
1483809969.109,87.891,38.086,48.828,70.801,26.855,0
1483809969.113,86.914,30.762,57.129,80.078,46.875,0
1483809969.117,84.961,19.531,44.434,84.961,56.641,0
1483809969.121,80.078,26.855,44.434,77.637,-0.488,0
1483809969.125,83.008,35.156,63.965,66.895,-6.836,0
1483809969.129,96.191,33.691,59.570,65.430,8.789,0
1483809969.133,103.027,38.086,45.410,65.918,27.344,0
1483809969.137,93.262,27.832,45.898,68.848,11.230,0
1483809969.141,90.332,34.668,67.383,79.102,9.277,0
1483809969.144,81.055,37.109,62.500,79.590,21.973,0
1483809969.148,76.172,20.508,45.410,81.543,30.762,0
1483809969.152,82.031,24.414,62.988,79.102,22.949,0
1483809969.156,80.566,26.367,58.105,66.406,15.137,0
1483809969.160,83.496,29.785,42.969,68.848,30.273,0
1483809969.164,86.426,26.855,55.176,79.590,23.438,0
1483809969.168,88.867,18.555,64.941,86.914,21.973,0
1483809969.172,90.820,25.391,58.594,87.402,25.391,0
1483809969.176,99.609,39.062,68.848,90.820,41.992,0
1483809969.180,93.750,44.434,75.195,86.914,9.277,0
1483809969.184,84.473,31.250,49.805,81.543,10.254,0
1483809969.187,92.773,27.832,41.992,88.867,53.223,0
1483809969.191,91.797,27.832,55.664,85.938,52.246,0
1483809969.195,88.379,29.297,67.871,83.984,15.137,0
1483809969.199,92.285,21.973,55.176,88.379,1.953,0
1483809969.203,93.262,27.832,54.199,86.914,47.363,0
1483809969.207,91.309,37.598,59.570,81.543,54.199,0
1483809969.211,93.750,37.598,47.852,89.844,27.832,0
1483809969.215,91.797,29.785,62.500,95.703,6.836,0
1483809969.219,91.797,27.344,63.965,94.727,20.020,0
1483809969.223,84.961,38.574,44.434,90.332,62.012,0
1483809969.227,79.590,32.715,38.574,87.891,19.043,0
1483809969.230,81.543,28.809,33.203,87.891,-14.160,0
1483809969.234,88.867,34.180,37.598,83.008,15.137,0
1483809969.238,92.285,41.504,40.527,91.797,25.391,0
1483809969.242,80.078,34.668,60.059,87.402,27.832,0
1483809969.246,77.148,31.250,57.617,71.777,6.348,0
1483809969.250,82.031,41.016,53.223,78.613,28.320,0
1483809969.254,77.148,33.203,57.617,87.402,50.293,0
1483809969.258,68.848,20.996,39.551,78.125,37.109,0
1483809969.262,59.082,32.227,46.387,61.035,27.832,0
1483809969.266,54.199,34.668,40.039,60.547,15.137,0
1483809969.269,60.547,17.090,35.645,67.383,0.000,0
1483809969.273,51.758,9.766,48.340,56.641,10.742,0
1483809969.277,46.875,28.809,52.246,53.711,31.250,0
1483809969.281,47.852,31.250,50.293,60.059,47.363,0
1483809969.285,55.664,27.832,59.570,57.129,52.246,0
1483809969.289,62.988,36.621,68.848,59.082,33.691,0
1483809969.293,42.969,27.832,66.895,48.828,12.207,0
1483809969.297,40.039,26.367,56.641,50.781,0.000,0
1483809969.301,49.805,33.691,44.434,66.406,-12.207,0
1483809969.305,47.363,36.133,41.992,64.453,6.348,0
1483809969.309,41.016,32.227,39.551,56.641,30.762,0
1483809969.312,48.340,24.902,33.691,50.781,44.922,0
1483809969.316,48.340,18.066,31.250,44.434,11.719,0
1483809969.320,51.270,30.273,22.461,43.457,9.277,0
1483809969.324,59.570,33.691,27.344,51.270,41.504,0
1483809969.328,63.477,45.898,38.086,52.734,0.000,0
1483809969.332,57.129,49.805,24.414,42.480,-9.277,0
1483809969.336,48.828,30.273,14.648,39.551,30.273,0
1483809969.340,58.594,18.555,10.742,45.898,32.227,0
1483809969.344,67.871,40.039,9.766,52.734,20.996,0
1483809969.348,69.824,72.754,4.395,51.270,17.578,0
1483809969.352,65.430,52.246,0.000,46.387,26.367,0
1483809969.355,59.082,34.668,8.301,43.457,41.504,0
1483809969.359,56.152,51.270,7.812,49.316,7.812,0
1483809969.363,56.152,53.711,7.812,49.805,-34.180,0
1483809969.367,66.895,55.664,15.137,46.387,-5.859,0
1483809969.371,84.473,63.477,31.250,45.410,14.160,0
1483809969.375,74.219,53.223,16.113,44.434,-4.883,0
1483809969.379,49.805,45.898,10.742,41.016,-0.488,0
1483809969.383,46.387,36.621,27.832,44.922,41.016,0
1483809969.387,57.129,37.109,20.996,54.688,47.852,0
1483809969.391,53.223,41.992,24.414,51.758,45.410,0
1483809969.394,48.828,42.480,32.715,59.570,38.574,0
1483809969.398,58.594,39.062,30.762,59.570,22.461,0
1483809969.402,62.988,33.203,36.621,43.457,36.621,0
1483809969.406,59.082,30.762,47.363,41.016,33.203,0
1483809969.410,58.594,33.691,43.945,58.105,27.344,0
1483809969.414,60.547,33.691,52.246,73.242,35.156,0
1483809969.418,52.246,28.320,39.551,69.824,44.922,0
1483809969.422,49.805,18.555,35.645,64.941,26.367,0
1483809969.426,57.129,24.414,50.293,52.734,-1.465,0
1483809969.430,70.312,40.039,41.016,51.758,-1.465,0
1483809969.434,78.613,35.156,42.480,55.176,0.977,0
1483809969.437,78.613,27.344,55.664,59.570,5.859,0
1483809969.441,70.312,13.672,52.734,71.289,50.293,0
1483809969.445,62.012,21.973,54.688,70.801,48.828,0
1483809969.449,54.688,32.715,52.734,56.641,18.555,0
1483809969.453,44.434,37.109,59.570,59.570,23.438,0
1483809969.457,42.480,35.156,58.594,59.570,16.602,0
1483809969.461,39.062,17.578,38.086,53.711,41.992,0
1483809969.465,41.504,29.297,35.645,60.547,29.785,0
1483809969.469,42.480,29.785,46.875,54.199,-12.695,0
1483809969.473,41.992,20.996,52.734,46.387,33.203,0
1483809969.477,52.246,35.156,44.922,53.711,53.711,0
1483809969.480,61.035,47.363,42.480,70.801,39.062,0
1483809969.484,58.594,51.758,33.691,63.965,50.293,0
1483809969.488,52.246,35.645,13.184,45.898,66.895,0
1483809969.492,46.875,53.711,44.434,44.922,52.246,0
1483809969.496,57.129,75.195,59.570,57.129,32.715,0
1483809969.500,58.105,60.059,20.508,62.012,18.066,0
1483809969.504,48.340,56.152,19.043,46.875,30.762,0
1483809969.508,48.340,41.992,39.551,44.922,47.363,0
1483809969.512,54.199,44.922,36.133,56.152,-3.906,0
1483809969.516,68.848,65.430,20.996,64.453,6.836,0
1483809969.519,69.336,67.871,30.762,59.570,56.152,0
1483809969.523,62.988,60.059,23.438,54.688,77.148,0
1483809969.527,56.152,60.059,20.020,46.875,59.570,0
1483809969.531,57.617,64.941,24.902,38.086,12.695,0
1483809969.535,60.547,74.219,30.273,41.016,20.020,0
1483809969.539,62.012,73.730,34.180,51.270,43.457,0
1483809969.543,61.523,61.035,15.625,39.062,28.809,0
1483809969.547,50.293,59.082,8.301,20.508,4.395,0
1483809969.551,48.340,76.660,24.902,29.297,20.508,0
1483809969.555,49.805,67.383,24.902,32.227,24.902,0
1483809969.559,39.551,49.805,29.297,20.996,12.207,0
1483809969.562,38.086,71.289,26.855,11.719,30.273,0
1483809969.566,47.852,84.473,11.230,12.207,37.109,0
1483809969.570,52.246,91.309,32.227,20.508,32.715,0
1483809969.574,38.574,80.078,48.340,30.762,32.227,0
1483809969.578,28.809,59.082,23.438,25.879,48.340,0
1483809969.582,35.645,54.688,11.230,16.602,68.359,0
1483809969.586,36.133,59.082,18.066,25.391,56.641,0
1483809969.590,29.785,51.270,29.785,20.508,32.715,0
1483809969.594,29.297,48.340,24.902,19.043,34.180,0
1483809969.598,23.926,45.410,19.531,28.320,45.410,0
1483809969.602,25.879,37.598,24.902,23.926,23.438,0
1483809969.605,36.621,32.715,35.156,20.508,23.438,0
1483809969.609,37.598,17.578,51.758,20.996,52.246,0
1483809969.613,43.945,27.832,37.109,38.574,42.480,0
1483809969.617,40.039,48.340,32.227,33.691,37.109,0
1483809969.621,45.410,41.992,54.199,25.879,68.848,0
1483809969.625,54.688,35.156,54.199,31.738,62.012,0
1483809969.629,42.480,27.832,29.297,33.691,26.367,0
1483809969.633,30.273,29.297,26.855,24.902,30.762,0
1483809969.637,21.973,33.203,33.203,21.484,49.805,0
1483809969.641,20.996,24.902,27.344,17.090,46.875,0
1483809969.644,19.043,27.832,27.344,16.602,15.625,0
1483809969.648,22.461,36.621,29.297,12.207,-5.859,0
1483809969.652,20.508,36.133,24.414,4.883,28.809,0
1483809969.656,24.414,37.598,33.691,6.836,62.012,0
1483809969.660,23.926,39.062,62.500,7.324,38.086,0
1483809969.664,17.090,45.410,44.922,12.207,12.207,0
1483809969.668,23.926,44.434,9.277,8.789,9.766,0
1483809969.672,18.555,42.480,19.531,-1.953,39.551,0
1483809969.676,12.207,45.898,26.855,-3.418,55.176,0
1483809969.680,16.602,54.199,23.926,4.883,22.461,0
1483809969.684,19.043,51.270,25.391,-5.371,11.230,0
1483809969.687,17.090,52.734,23.926,-2.441,37.598,0
1483809969.691,19.043,57.129,27.832,8.789,35.645,0
1483809969.695,20.020,54.199,21.973,5.371,24.902,0
1483809969.699,19.531,56.641,17.090,0.488,41.016,0
1483809969.703,29.297,62.012,45.898,-3.906,33.203,0
1483809969.707,14.648,49.805,52.246,-10.254,34.668,0
1483809969.711,11.719,41.504,17.090,6.836,21.973,0
1483809969.715,20.020,46.875,31.738,4.883,32.227,0
1483809969.719,13.672,41.992,40.039,-4.395,30.762,0
1483809969.723,12.207,43.945,29.297,14.648,14.648,0
1483809969.727,6.348,41.016,32.227,18.066,42.969,0
1483809969.730,7.324,33.691,27.344,20.996,41.504,0
1483809969.734,24.902,42.969,41.992,28.809,30.762,0
1483809969.738,27.832,53.223,43.457,30.762,54.688,0
1483809969.742,18.555,48.340,17.578,28.809,70.801,0
1483809969.746,15.625,44.922,15.137,25.391,57.617,0
1483809969.750,8.789,36.621,38.574,-0.488,35.156,0
1483809969.754,7.812,32.227,48.340,-16.602,25.391,0
1483809969.758,16.113,42.480,32.227,3.418,65.918,0
1483809969.762,19.043,45.898,43.945,22.949,33.203,0
1483809969.766,16.602,39.551,41.016,33.203,22.949,0
1483809969.769,23.926,42.480,23.926,28.320,48.340,0
1483809969.773,33.203,52.734,54.688,25.391,45.410,0
1483809969.777,33.203,54.199,58.594,29.297,35.156,0
1483809969.781,30.762,38.574,25.391,23.926,-8.301,0
1483809969.785,25.879,39.062,33.203,26.367,17.090,0
1483809969.789,19.531,44.434,47.363,32.715,65.918,0
1483809969.793,18.555,32.227,53.223,26.367,55.176,0
1483809969.797,16.113,29.785,55.176,22.949,10.742,0
1483809969.801,17.090,50.781,46.387,20.508,1.465,0
1483809969.805,11.719,59.082,29.297,24.414,14.648,0
1483809969.809,16.113,61.035,56.641,28.809,18.066,0
1483809969.812,37.598,60.547,77.148,27.832,27.344,0
1483809969.816,46.875,42.480,42.969,23.926,55.176,0
1483809969.820,43.457,38.574,28.809,21.973,83.984,0
1483809969.824,25.391,41.992,49.805,29.785,51.270,0
1483809969.828,18.066,45.898,56.641,32.227,39.551,0
1483809969.832,36.133,51.758,51.270,34.668,76.660,0
1483809969.836,39.551,42.969,58.105,38.086,92.773,0
1483809969.840,38.086,43.945,68.359,41.504,98.145,0
1483809969.844,49.805,56.152,66.406,47.363,52.734,0
1483809969.848,51.758,54.199,43.457,41.504,60.547,0
1483809969.852,54.199,49.316,50.293,46.875,115.723,0
1483809969.855,58.594,49.805,63.965,47.852,122.070,0
1483809969.859,59.082,46.875,52.734,40.527,91.797,0
1483809969.863,51.270,35.645,47.852,42.480,60.547,0
1483809969.867,49.805,37.598,48.828,43.457,62.988,0
1483809969.871,49.316,37.598,52.246,40.039,43.945,0
1483809969.875,52.734,45.410,81.055,42.969,34.668,0
1483809969.879,47.852,47.363,99.609,35.645,29.785,0
1483809969.883,41.016,34.180,56.152,29.785,48.828,0
1483809969.887,48.828,34.180,40.527,38.086,36.133,0
1483809969.891,52.734,39.062,50.293,43.945,10.742,0
1483809969.894,45.410,27.832,57.129,44.922,43.457,0
1483809969.898,44.922,17.090,65.430,37.598,61.523,0
1483809969.902,49.316,28.809,52.246,31.738,57.129,0
1483809969.906,41.016,36.133,39.551,35.156,63.965,0
1483809969.910,36.133,48.340,62.012,44.434,54.199,0
1483809969.914,35.156,51.758,55.176,37.109,44.922,0
1483809969.918,38.574,37.598,24.902,26.367,52.734,0
1483809969.922,49.316,36.133,31.738,23.926,42.969,0
1483809969.926,44.434,42.480,37.598,32.227,37.109,0
1483809969.930,41.504,33.203,38.086,46.387,5.859,0
1483809969.934,48.828,41.992,43.945,39.551,-18.555,0
1483809969.937,43.945,47.363,49.316,24.414,43.945,0
1483809969.941,46.875,44.434,46.387,27.344,55.664,0
1483809969.945,54.688,52.246,48.340,33.691,8.789,0
1483809969.949,50.781,46.875,30.762,36.133,20.020,0
1483809969.953,49.316,42.969,17.090,35.645,38.574,0
1483809969.957,51.270,43.457,22.461,33.203,36.133,0
1483809969.961,50.781,36.621,25.879,27.832,44.922,0
1483809969.965,49.805,30.762,27.344,31.738,33.203,0
1483809969.969,50.781,28.320,27.344,37.109,46.387,0
1483809969.973,52.246,45.898,22.949,45.898,47.363,0
1483809969.977,41.504,42.969,18.066,49.316,-23.926,0
1483809969.980,36.621,35.156,35.156,34.668,5.859,0
1483809969.984,42.969,35.645,63.477,36.621,74.219,0
1483809969.988,50.293,30.273,34.180,41.992,33.203,0
1483809969.992,61.523,32.715,3.418,42.969,4.883,0
1483809969.996,72.754,35.645,3.418,51.270,29.297,0
1483809970.000,71.777,33.691,17.090,43.457,43.945,0
1483809970.004,75.195,33.203,23.438,52.246,12.207,0
1483809970.008,74.219,42.480,16.113,58.594,-15.625,0
1483809970.012,68.848,40.527,25.391,55.664,-11.719,0
1483809970.016,73.242,37.598,15.625,63.477,-5.859,0
1483809970.019,71.289,41.504,12.695,63.477,18.555,0
1483809970.023,67.871,39.551,42.969,67.383,-1.465,0
1483809970.027,67.383,28.320,37.109,62.012,-28.809,0
1483809970.031,71.777,29.785,18.066,51.758,-22.949,0
1483809970.035,77.637,33.203,26.855,52.246,4.883,0
1483809970.039,72.754,17.090,29.297,60.059,11.230,0
1483809970.043,74.219,13.672,16.602,67.871,-0.488,0
1483809970.047,74.219,13.184,21.973,68.359,15.625,0
1483809970.051,70.801,25.879,25.879,67.871,31.738,0
1483809970.055,68.359,49.805,16.602,63.477,33.691,0
1483809970.059,69.336,50.781,20.996,56.641,28.809,0
1483809970.062,85.449,53.711,35.645,67.383,18.066,0
1483809970.066,89.355,57.617,42.969,67.871,-0.488,0
1483809970.070,82.520,42.480,24.902,50.293,-12.695,0
1483809970.074,82.520,34.668,26.367,57.129,34.668,0
1483809970.078,80.078,33.203,19.043,65.430,41.992,0
1483809970.082,73.730,36.621,3.906,67.383,1.953,0
1483809970.086,72.266,38.086,28.809,66.895,-2.441,0
1483809970.090,68.359,40.527,42.969,63.965,36.621,0
1483809970.094,71.289,37.598,19.043,73.730,45.898,0
1483809970.098,77.637,40.039,14.160,77.148,20.508,0
1483809970.102,74.219,33.203,20.020,73.730,29.785,0
1483809970.105,76.172,30.762,46.875,66.406,34.668,0
1483809970.109,66.406,66.895,61.035,62.500,15.137,0
1483809970.113,64.453,68.848,26.855,68.359,-9.277,0
1483809970.117,61.523,56.641,39.062,63.965,18.066,0
1483809970.121,63.965,54.199,41.992,64.941,47.852,0
1483809970.125,76.172,62.500,18.555,71.289,-5.371,0
1483809970.129,77.148,56.641,19.043,60.547,-0.977,0
