timestamps,TP9,AF7,AF8,TP10,Right AUX,Marker0
1504326093.864,32.715,102.051,88.867,32.227,23.438,0
1504326093.868,90.332,28.809,0.977,9.277,14.160,0
1504326093.872,58.105,26.855,-36.621,1.465,10.742,0
1504326093.876,52.246,63.477,13.672,20.020,9.277,0
1504326093.880,69.824,39.551,8.301,18.555,15.625,0
1504326093.884,-15.137,22.461,1.953,3.418,28.809,0
1504326093.888,-13.672,-17.090,-91.797,26.367,7.812,0
1504326093.892,50.781,32.715,-82.031,25.879,-17.090,0
1504326093.896,71.289,134.277,95.215,6.836,16.602,0
1504326093.900,48.340,28.320,-6.348,17.090,59.082,0
1504326093.903,25.391,9.277,-75.684,30.762,32.227,0
1504326093.907,24.902,96.191,28.809,45.898,38.574,0
1504326093.911,40.527,81.543,26.855,60.059,62.500,0
1504326093.915,3.906,13.184,-40.039,35.156,60.059,0
1504326093.919,31.250,17.578,-38.086,19.043,57.129,0
1504326093.923,107.910,87.402,33.203,25.391,56.152,0
1504326093.927,33.203,55.664,10.254,34.668,45.898,0
1504326093.931,-40.527,-12.695,-82.031,53.711,53.711,0
1504326093.935,13.672,7.324,-80.566,56.152,38.574,0
1504326093.939,75.684,130.371,107.422,42.969,52.734,0
1504326093.943,104.492,106.934,121.582,35.645,97.168,0
1504326093.946,58.105,9.277,-34.668,46.875,74.707,0
1504326093.950,15.137,31.250,-12.695,58.594,59.570,0
1504326093.954,35.156,87.402,83.496,35.156,72.754,0
1504326093.958,6.836,52.246,60.547,3.906,84.961,0
1504326093.962,43.945,-11.230,-39.551,11.719,68.848,0
1504326093.966,119.629,54.199,20.020,46.387,61.035,0
1504326093.970,-6.836,109.863,132.812,36.133,89.355,0
1504326093.974,-72.754,57.129,72.754,20.996,102.051,0
1504326093.978,27.344,-26.367,-75.684,26.855,90.820,0
1504326093.982,40.039,48.828,14.160,20.996,102.539,0
1504326093.985,21.973,126.465,175.781,18.555,125.000,0
1504326093.989,34.180,61.523,87.402,15.137,134.766,0
1504326093.993,0.000,59.082,42.969,18.066,140.137,0
1504326093.997,-19.043,96.680,128.418,32.227,151.855,0
1504326094.001,37.598,76.172,108.398,32.715,152.344,0
1504326094.005,70.801,43.945,61.035,14.648,164.551,0
1504326094.009,45.410,44.434,119.141,3.906,209.961,0
1504326094.013,-4.883,78.125,141.113,34.180,229.492,0
1504326094.017,-35.645,54.688,91.309,67.871,238.281,0
1504326094.021,-6.348,-3.906,5.859,80.078,213.867,0
1504326094.025,31.738,-3.906,19.531,74.707,203.613,0
1504326094.028,101.074,118.652,169.922,45.410,236.816,0
1504326094.032,154.785,132.812,183.105,20.508,276.855,0
1504326094.036,62.012,-6.836,10.742,34.180,298.828,0
1504326094.040,-77.637,15.137,11.719,65.918,287.109,0
1504326094.044,-57.129,118.652,162.109,77.148,302.246,0
1504326094.048,-3.906,64.941,123.047,46.387,332.031,0
1504326094.052,23.438,46.387,39.551,49.805,327.637,0
1504326094.056,28.809,73.730,71.777,60.059,329.590,0
1504326094.060,59.570,68.848,113.770,34.668,352.539,0
1504326094.064,96.680,37.109,55.176,25.391,349.121,0
1504326094.068,83.008,26.855,28.809,52.246,329.102,0
1504326094.071,86.914,29.785,44.922,56.641,325.684,0
1504326094.075,100.098,52.734,97.168,43.945,350.098,0
1504326094.079,91.309,51.270,76.660,61.523,352.539,0
1504326094.083,66.406,-6.836,-55.176,64.453,319.336,0
1504326094.087,82.031,50.781,10.254,54.688,283.203,0
1504326094.091,52.246,126.465,199.707,27.344,301.758,0
1504326094.095,29.785,27.832,76.172,25.879,324.219,0
1504326094.099,45.898,7.324,-29.785,70.801,294.434,0
1504326094.103,1.465,88.867,72.266,78.125,267.578,0
1504326094.107,-15.137,80.078,117.676,45.410,299.316,0
1504326094.110,40.039,-0.977,0.977,68.848,291.504,0
1504326094.114,56.641,-12.207,-23.926,84.961,267.090,0
1504326094.118,24.414,-8.301,52.734,35.645,253.418,0
1504326094.122,30.762,35.645,55.176,19.531,231.445,0
1504326094.126,47.363,-0.488,-28.809,45.410,210.449,0
1504326094.130,72.754,-24.902,-61.035,61.523,168.457,0
1504326094.134,66.406,96.680,116.699,44.922,167.969,0
1504326094.138,-24.414,29.297,66.406,22.461,172.852,0
1504326094.142,-27.832,-62.500,-95.215,13.184,137.695,0
1504326094.146,41.992,-5.371,-0.488,22.949,103.027,0
1504326094.150,54.199,80.078,141.113,54.199,101.074,0
1504326094.153,104.004,20.020,36.133,47.363,88.379,0
1504326094.157,99.121,19.531,-8.789,42.969,71.777,0
1504326094.161,41.504,30.762,22.949,53.711,44.434,0
1504326094.165,51.758,-6.836,-10.742,61.035,3.418,0
1504326094.169,92.285,46.875,41.504,75.684,10.742,0
1504326094.173,65.918,-0.977,-12.207,67.383,-6.348,0
1504326094.177,4.883,21.484,35.156,53.711,-35.645,0
1504326094.181,-2.930,107.422,172.363,68.359,-24.902,0
1504326094.185,1.953,21.484,22.949,67.871,-50.781,0
1504326094.189,14.648,22.949,15.137,60.547,-70.312,0
1504326094.193,74.707,61.523,110.840,58.594,-69.336,0
1504326094.196,109.863,19.043,24.414,53.223,-74.219,0
1504326094.200,57.617,-23.926,-41.016,28.320,-95.703,0
1504326094.204,61.523,30.273,57.617,31.738,-101.074,0
1504326094.208,83.984,74.219,97.656,54.199,-71.289,0
1504326094.212,41.504,27.344,47.852,45.410,-55.176,0
1504326094.216,20.508,-16.602,12.695,60.547,-64.453,0
1504326094.220,49.316,-9.766,-34.668,60.059,-123.047,0
1504326094.224,76.660,111.328,124.023,27.832,-115.723,0
1504326094.228,103.516,61.035,125.488,34.180,-71.777,0
1504326094.232,67.383,-29.785,-67.383,46.875,-113.281,0
1504326094.235,-38.086,25.391,-13.184,48.340,-102.051,0
1504326094.239,-48.340,51.270,112.305,41.016,-62.012,0
1504326094.243,33.203,13.672,55.176,2.441,-73.730,0
1504326094.247,95.215,13.184,-45.410,-0.977,-85.449,0
1504326094.251,64.941,49.805,20.508,25.391,-75.195,0
1504326094.255,49.316,23.926,35.645,80.078,-41.016,0
1504326094.259,20.996,5.371,16.602,56.152,-43.945,0
1504326094.263,-1.465,-39.551,-25.879,8.301,-80.078,0
1504326094.267,54.199,3.418,-15.137,75.195,-111.328,0
1504326094.271,112.793,112.305,143.066,95.703,-78.125,0
1504326094.275,134.277,14.648,56.152,53.223,-56.152,0
1504326094.278,69.824,-35.156,-39.062,59.570,-116.211,0
1504326094.282,21.484,59.570,42.969,90.820,-147.949,0
1504326094.286,24.414,83.008,96.191,80.078,-114.258,0
1504326094.290,74.707,12.207,37.109,68.848,-103.027,0
1504326094.294,113.281,2.930,71.289,62.012,-122.070,0
1504326094.298,107.422,56.152,114.746,61.035,-105.957,0
1504326094.302,92.773,40.527,57.617,81.543,-85.449,0
1504326094.306,92.285,-33.203,-16.602,59.570,-84.961,0
1504326094.310,73.242,6.836,-27.832,47.363,-103.027,0
1504326094.314,23.438,72.754,73.242,63.477,-117.188,0
1504326094.318,44.434,53.711,104.492,72.754,-120.117,0
1504326094.321,106.934,1.953,37.109,71.289,-98.145,0
1504326094.325,116.211,-1.953,22.949,42.480,-101.074,0
1504326094.329,77.148,102.539,206.055,28.320,-84.961,0
1504326094.333,26.367,45.898,139.648,53.223,-44.922,0
1504326094.337,52.246,27.344,50.781,31.250,-32.227,0
1504326094.341,95.215,54.688,106.934,21.484,-14.648,0
1504326094.345,130.371,51.758,127.930,65.430,-31.738,0
1504326094.349,76.660,32.715,149.902,43.457,-29.297,0
1504326094.353,-49.316,-29.785,67.383,40.039,-3.418,0
1504326094.357,-6.836,41.992,76.660,99.121,7.812,0
1504326094.360,88.867,104.004,167.969,104.492,13.672,0
1504326094.364,116.699,42.480,134.766,45.410,-8.301,0
1504326094.368,65.430,48.340,126.953,36.133,1.465,0
1504326094.372,16.113,85.938,160.156,55.664,38.086,0
1504326094.376,30.273,70.801,165.039,61.523,62.988,0
1504326094.380,122.559,51.758,137.695,75.195,64.941,0
1504326094.384,195.312,41.016,97.656,66.406,54.688,0
1504326094.388,43.945,83.496,132.812,55.664,45.410,0
1504326094.392,-29.297,74.707,164.551,57.129,54.688,0
1504326094.396,45.898,21.973,99.609,56.641,64.453,0
1504326094.400,57.617,-12.207,89.844,32.715,52.734,0
1504326094.403,77.148,45.898,159.668,39.551,46.387,0
1504326094.407,122.559,116.699,216.309,52.246,65.918,0
1504326094.411,187.500,3.906,94.238,30.762,76.172,0
1504326094.415,157.227,-19.531,21.973,41.016,39.062,0
1504326094.419,44.434,140.137,225.586,65.430,40.527,0
1504326094.423,2.441,79.102,191.406,80.078,72.754,0
1504326094.427,56.641,28.809,81.543,59.570,59.570,0
1504326094.431,82.520,56.152,127.441,27.344,74.219,0
1504326094.435,37.598,54.199,142.578,31.738,73.730,0
1504326094.439,3.906,75.195,152.832,45.898,74.219,0
1504326094.443,6.348,8.789,50.293,46.875,64.941,0
1504326094.446,17.578,19.531,42.480,40.527,47.363,0
1504326094.450,34.668,87.891,145.996,40.039,68.848,0
1504326094.454,88.867,84.961,141.602,57.129,71.777,0
1504326094.458,117.676,-20.508,0.000,62.012,28.809,0
1504326094.462,82.520,45.898,78.613,49.805,30.762,0
1504326094.466,22.949,134.277,255.859,49.805,105.957,0
1504326094.470,12.695,17.090,90.332,60.059,96.191,0
1504326094.474,1.465,30.273,73.730,67.871,80.566,0
1504326094.478,-21.973,76.172,128.418,20.020,101.074,0
1504326094.482,-37.109,43.457,110.840,-25.879,93.750,0
1504326094.485,-0.488,10.254,24.902,1.465,79.590,0
1504326094.489,59.570,2.441,-32.227,15.625,63.965,0
1504326094.493,64.453,19.043,2.441,4.395,40.039,0
1504326094.497,53.223,65.430,41.504,8.301,26.367,0
1504326094.501,-14.648,34.668,18.555,54.688,46.387,0
1504326094.505,3.418,1.953,-40.039,60.547,15.625,0
1504326094.509,83.496,139.648,144.043,27.344,21.484,0
1504326094.513,56.641,126.465,145.508,40.039,35.156,0
1504326094.517,7.324,4.883,-10.254,39.062,7.324,0
1504326094.521,-1.953,40.039,7.324,31.250,7.324,0
1504326094.525,44.434,138.672,113.281,51.270,7.324,0
1504326094.528,119.141,82.520,70.801,57.129,25.391,0
1504326094.532,117.676,71.289,-5.371,37.109,6.836,0
1504326094.536,80.078,85.449,32.227,19.531,-2.441,0
1504326094.540,6.836,62.012,11.230,39.551,8.301,0
1504326094.544,-41.016,123.535,84.473,51.758,36.133,0
1504326094.548,-5.371,33.691,-11.719,46.387,28.320,0
1504326094.552,74.707,38.086,-39.551,31.250,-22.461,0
1504326094.556,114.746,179.199,170.410,21.973,-3.906,0
1504326094.560,20.996,76.172,94.238,19.531,26.855,0
1504326094.564,-8.301,30.273,-29.297,54.199,17.578,0
1504326094.568,22.461,125.977,27.832,59.570,12.207,0
1504326094.571,-51.270,121.582,97.168,35.645,38.574,0
1504326094.575,-9.766,60.059,10.742,40.527,43.945,0
1504326094.579,41.992,77.148,-7.324,47.852,41.992,0
1504326094.583,-13.672,103.027,30.762,50.293,52.246,0
1504326094.587,-9.277,74.219,-22.461,45.410,32.227,0
1504326094.591,46.387,75.195,-20.508,10.742,6.836,0
1504326094.595,68.848,83.496,-17.578,8.301,-20.996,0
1504326094.599,16.602,182.617,93.750,47.363,-23.926,0
1504326094.603,-34.180,158.203,101.562,52.734,-1.953,0
1504326094.607,14.160,76.660,-33.203,24.414,-11.230,0
1504326094.610,122.559,78.125,-50.293,15.625,-4.395,0
1504326094.614,113.770,131.836,42.480,23.926,18.066,0
1504326094.618,-30.273,129.883,73.730,12.695,44.434,0
1504326094.622,-57.129,37.109,-61.523,25.879,30.273,0
1504326094.626,-1.953,93.750,-17.578,39.062,20.508,0
1504326094.630,12.207,133.301,67.871,18.555,65.918,0
1504326094.634,17.578,71.289,-38.574,16.602,76.172,0
1504326094.638,39.062,38.086,-130.859,20.020,59.570,0
1504326094.642,54.199,94.238,-48.828,18.555,57.129,0
1504326094.646,31.738,161.621,116.699,25.879,99.121,0
1504326094.650,35.645,109.375,17.090,23.926,158.203,0
1504326094.653,-3.418,173.340,23.926,48.828,244.141,0
1504326094.657,52.734,194.824,91.797,60.547,368.652,0
1504326094.661,187.988,151.855,61.035,20.996,607.422,0
1504326094.665,88.379,111.816,7.812,1.953,890.625,0
1504326094.669,-29.785,54.199,-60.547,14.648,998.535,0
1504326094.673,41.504,98.145,9.277,39.062,994.629,0
1504326094.677,0.488,92.773,39.062,62.500,998.047,0
1504326094.681,-20.020,-30.273,-104.004,46.875,-1000.000,0
1504326094.685,44.922,9.766,-88.379,38.086,999.512,0
1504326094.689,63.477,128.418,95.703,42.969,999.512,0
1504326094.693,45.898,84.473,70.801,38.574,999.512,0
1504326094.696,37.598,-23.926,-99.121,35.645,999.023,0
1504326094.700,47.363,-8.301,-89.355,38.086,997.070,0
1504326094.704,-7.324,74.219,42.969,49.316,-997.559,0
1504326094.708,30.273,15.625,-17.090,44.922,967.285,0
1504326094.712,88.379,-1.953,-77.637,48.340,891.113,0
1504326094.716,43.945,19.043,-49.316,61.035,845.215,0
1504326094.720,50.293,19.043,-17.090,59.570,785.156,0
1504326094.724,4.395,-19.043,-59.082,62.988,665.527,0
1504326094.728,-22.949,-80.078,-171.387,61.523,553.711,0
1504326094.732,7.812,-1.953,-94.238,64.941,490.234,0
1504326094.735,59.082,90.820,67.871,53.223,456.055,0
1504326094.739,104.492,43.945,20.020,19.531,427.246,0
1504326094.743,89.844,0.488,-88.379,13.184,366.211,0
1504326094.747,95.215,67.383,-3.418,20.508,320.312,0
1504326094.751,124.512,70.312,54.199,31.738,283.691,0
1504326094.755,41.992,14.160,-43.457,54.199,233.398,0
1504326094.759,-71.289,12.207,-59.082,74.707,183.105,0
1504326094.763,-34.180,35.645,-26.855,82.520,128.418,0
1504326094.767,68.848,49.805,-4.395,40.039,112.793,0
1504326094.771,87.402,5.859,-48.340,2.441,90.332,0
1504326094.775,30.762,-16.602,-94.727,29.785,21.973,0
1504326094.778,-6.348,32.227,-50.293,39.062,-2.441,0
1504326094.782,35.156,69.336,-4.883,26.367,-35.645,0
1504326094.786,63.477,-12.207,-92.773,44.922,-67.871,0
1504326094.790,19.043,-40.527,-130.859,64.941,-103.027,0
1504326094.794,69.824,121.094,-114.746,41.016,-116.699,0
1504326094.798,151.855,79.590,-555.664,18.555,-116.699,0
1504326094.802,79.590,-40.039,-897.461,52.734,-171.875,0
1504326094.806,-68.848,6.836,-812.500,46.387,-159.668,0
1504326094.810,-88.379,81.543,-668.457,32.227,-126.465,0
1504326094.814,35.645,29.297,-719.727,44.434,-131.348,0
1504326094.818,120.117,4.883,-742.676,26.367,-157.227,0
1504326094.821,64.453,21.484,-674.316,37.109,-155.273,0
1504326094.825,-17.090,53.711,-604.980,46.875,-121.582,0
1504326094.829,-37.598,98.145,-502.930,43.945,-89.355,0
1504326094.833,29.297,-6.348,-598.145,71.289,-74.219,0
1504326094.837,103.516,13.184,-589.844,62.988,-82.520,0
1504326094.841,88.379,109.375,-398.926,27.832,-50.781,0
1504326094.845,-37.109,17.578,-449.707,22.949,-33.691,0
1504326094.849,-67.871,8.301,-444.336,44.434,-42.969,0
1504326094.853,128.906,41.992,-392.090,56.152,-74.707,0
1504326094.857,206.055,40.527,-358.398,45.410,-83.496,0
1504326094.860,0.488,-9.277,-374.512,33.691,-66.406,0
1504326094.864,-96.191,-15.625,-378.418,43.945,-72.754,0
1504326094.868,-65.430,42.480,-291.992,31.250,-70.312,0
1504326094.872,25.879,69.824,-234.863,-1.465,-64.941,0
1504326094.876,103.516,13.672,-273.438,0.488,-55.176,0
1504326094.880,11.230,-26.855,-342.773,30.273,-83.984,0
1504326094.884,-5.371,118.164,-156.738,51.758,-87.891,0
1504326094.888,62.500,78.613,-143.555,54.199,-50.293,0
1504326094.892,21.973,-1.953,-250.977,30.762,-49.316,0
1504326094.896,64.941,37.598,-206.543,27.832,-43.457,0
1504326094.900,223.633,80.078,-154.785,40.039,-12.207,0
1504326094.903,148.926,26.367,-236.328,40.039,-17.578,0
1504326094.907,-40.039,-8.301,-302.246,25.879,-20.996,0
1504326094.911,-135.742,32.715,-212.891,41.992,-13.184,0
1504326094.915,-133.301,24.902,-187.500,50.781,-9.766,0
1504326094.919,33.691,55.176,-165.527,29.297,-5.859,0
1504326094.923,106.445,-4.883,-217.773,6.348,-6.348,0
1504326094.927,-48.340,22.949,-194.824,16.602,14.648,0
1504326094.931,-71.289,105.957,-52.246,43.945,43.945,0
1504326094.935,30.273,10.742,-131.836,53.711,66.406,0
1504326094.939,79.102,6.348,-153.320,52.246,79.590,0
1504326094.943,127.441,41.016,-117.188,17.090,55.176,0
1504326094.946,128.418,36.133,-95.215,1.953,52.734,0
1504326094.950,-1.465,-12.207,-149.414,49.316,63.477,0
1504326094.954,9.277,1.953,-124.512,74.219,89.844,0
1504326094.958,29.297,38.574,-52.734,47.363,133.301,0
1504326094.962,-70.801,10.742,-97.168,41.992,143.066,0
1504326094.966,-34.180,-0.977,-117.188,36.621,134.766,0
1504326094.970,88.867,12.207,-143.066,-0.488,116.699,0
1504326094.974,90.820,136.719,-13.672,-14.160,126.953,0
1504326094.978,-16.113,132.812,38.574,10.742,167.480,0
1504326094.982,-52.734,3.418,-126.953,29.297,200.195,0
1504326094.985,-34.668,20.996,-122.559,49.316,230.469,0
1504326094.989,20.996,140.137,46.875,41.992,277.344,0
1504326094.993,129.395,93.262,8.789,20.508,333.984,0
1504326094.997,82.031,41.504,-76.660,10.742,342.285,0
1504326095.001,-8.789,83.984,-12.207,27.344,374.512,0
1504326095.005,87.402,66.895,-11.719,44.434,403.809,0
1504326095.009,62.500,32.227,-53.711,40.039,388.184,0
1504326095.013,-44.922,2.441,-82.520,47.852,375.488,0
1504326095.017,-68.359,52.246,-25.391,53.223,383.789,0
1504326095.021,2.930,135.742,105.957,53.223,426.270,0
1504326095.025,129.395,30.762,-17.090,51.758,449.219,0
1504326095.028,94.238,52.246,-18.066,48.340,466.797,0
1504326095.032,13.672,99.609,67.383,52.734,489.258,0
1504326095.036,-25.391,70.312,51.270,46.875,508.301,0
1504326095.040,-23.926,28.320,-1.953,22.949,513.672,0
1504326095.044,53.711,23.438,-32.227,-0.488,492.676,0
1504326095.048,26.855,90.820,41.504,-1.465,469.238,0
1504326095.052,-5.371,57.129,43.945,24.902,497.559,0
1504326095.056,10.254,-34.668,-76.660,40.527,466.309,0
1504326095.060,17.578,-4.883,-90.820,32.227,424.316,0
1504326095.064,0.977,100.586,68.848,29.297,436.035,0
1504326095.068,-9.277,66.406,93.750,25.391,443.848,0
1504326095.071,-30.762,-33.203,-58.105,40.039,422.363,0
1504326095.075,-27.832,0.977,-43.945,54.199,422.363,0
1504326095.079,38.086,49.805,39.062,11.230,443.359,0
1504326095.083,126.465,-20.996,-58.105,-17.578,410.645,0
1504326095.087,52.734,-66.406,-127.930,-12.207,352.539,0
1504326095.091,-54.199,2.441,-22.949,-34.180,315.918,0
1504326095.095,1.953,47.363,69.336,-39.551,332.031,0
1504326095.099,2.441,-20.508,5.371,-9.277,328.613,0
1504326095.103,-44.434,-106.934,-115.723,16.113,304.199,0
1504326095.107,-74.219,-28.320,-30.762,36.621,305.664,0
1504326095.110,-9.277,43.457,93.750,41.504,320.312,0
1504326095.114,84.961,-38.086,-7.324,10.254,307.617,0
1504326095.118,30.762,-66.895,-82.031,6.348,255.371,0
1504326095.122,-46.387,0.000,12.207,17.578,271.973,0
1504326095.126,-44.434,-6.836,41.992,11.230,318.848,0
1504326095.130,36.621,-60.547,-33.691,0.488,321.777,0
1504326095.134,105.469,-50.781,-38.574,7.812,326.172,0
1504326095.138,32.227,-6.836,20.020,13.184,343.750,0
1504326095.142,29.785,-43.457,-24.902,-5.371,347.168,0
1504326095.146,4.883,-81.543,-81.055,0.488,353.516,0
1504326095.150,-95.215,-89.844,-120.117,12.695,348.633,0
1504326095.153,-69.824,28.320,11.230,0.488,342.773,0
1504326095.157,-3.906,66.895,101.074,17.090,378.418,0
1504326095.161,2.441,-65.430,-72.754,30.762,377.930,0
1504326095.165,3.418,-52.734,-68.848,1.465,346.191,0
1504326095.169,118.164,32.715,45.898,-0.488,357.422,0
1504326095.173,125.977,17.090,29.297,18.066,372.559,0
1504326095.177,-9.766,-78.613,-93.262,22.461,348.633,0
1504326095.181,-55.664,-66.406,-86.914,39.551,323.730,0
1504326095.185,-54.199,24.414,61.035,54.199,335.449,0
1504326095.189,2.441,-32.715,3.906,39.062,339.844,0
1504326095.193,69.824,-55.176,-52.246,36.133,329.590,0
1504326095.196,67.383,-50.781,-41.016,42.969,329.590,0
1504326095.200,59.570,-62.500,-41.504,3.906,300.781,0
1504326095.204,18.555,-28.809,7.324,26.367,310.547,0
1504326095.208,33.203,-77.637,-69.824,36.621,318.848,0
1504326095.212,68.359,-40.527,-49.316,25.391,301.758,0
1504326095.216,11.230,69.336,127.930,46.387,369.629,0
1504326095.220,25.879,-24.902,35.645,30.273,444.824,0
1504326095.224,21.484,-51.758,-59.570,21.973,434.082,0
1504326095.228,66.895,36.621,49.805,12.695,401.367,0
1504326095.232,94.727,44.922,147.461,11.719,445.312,0
1504326095.235,-24.902,-23.926,56.152,21.484,451.172,0
1504326095.239,-80.566,-10.742,42.969,28.320,440.430,0
1504326095.243,1.465,9.277,62.500,19.043,453.613,0
1504326095.247,77.637,44.922,83.984,14.648,428.223,0
1504326095.251,44.922,3.418,79.102,28.320,428.711,0
1504326095.255,-0.488,-27.832,9.766,42.969,427.246,0
1504326095.259,12.695,110.840,180.176,34.668,484.863,0
1504326095.263,69.824,68.848,179.688,11.719,549.805,0
1504326095.267,51.758,-26.367,31.738,-0.977,568.848,0
1504326095.271,18.066,-7.812,38.574,6.348,603.027,0
1504326095.275,19.043,99.609,174.805,14.648,712.891,0
1504326095.278,-16.113,45.410,135.254,1.465,878.906,0
1504326095.282,-9.766,18.066,87.891,0.000,976.074,0
1504326095.286,14.648,30.273,100.098,20.508,996.582,0
1504326095.290,-4.395,6.348,84.961,29.785,998.047,0
1504326095.294,0.488,61.523,187.012,28.320,999.023,0
1504326095.298,78.613,-22.949,95.703,32.227,999.512,0
1504326095.302,103.516,2.441,124.023,26.367,999.512,0
1504326095.306,17.090,104.492,320.801,29.785,999.512,0
1504326095.310,-37.109,5.859,227.051,52.246,999.512,0
1504326095.314,-33.203,25.391,368.652,44.922,999.512,0
1504326095.318,-14.648,50.293,583.984,57.617,999.512,0
1504326095.321,54.688,49.805,652.344,62.988,999.512,0
1504326095.325,62.012,37.109,664.062,15.625,999.512,0
1504326095.329,-16.113,22.461,648.438,-2.930,999.512,0
1504326095.333,-8.789,51.270,668.457,9.277,999.512,0
1504326095.337,108.887,23.438,614.258,13.672,999.512,0
1504326095.341,129.883,13.672,592.285,16.602,999.512,0
1504326095.345,129.395,6.836,552.734,19.531,999.512,0
1504326095.349,142.090,116.699,667.969,24.414,999.512,0
1504326095.353,-41.992,89.844,671.875,57.617,999.512,0
1504326095.357,-113.281,-11.230,516.602,49.805,999.512,0
1504326095.360,56.641,26.855,537.598,19.043,999.512,0
1504326095.364,144.043,74.219,592.773,-3.906,999.512,0
1504326095.368,101.074,48.340,543.457,21.484,999.512,0
1504326095.372,79.590,41.992,504.395,53.711,999.512,0
1504326095.376,62.012,50.781,478.027,27.832,999.512,0
1504326095.380,20.996,35.156,427.246,41.016,999.512,0
1504326095.384,-32.227,25.879,374.023,54.199,999.512,0
1504326095.388,45.410,-18.066,280.762,29.785,999.512,0
1504326095.392,149.902,42.480,318.848,7.324,999.512,0
1504326095.396,46.875,119.629,442.871,1.465,999.512,0
1504326095.400,-112.305,26.855,336.914,13.184,999.512,0
1504326095.403,-58.594,-20.996,198.242,36.133,999.512,0
1504326095.407,85.449,55.664,265.625,34.180,999.512,0
1504326095.411,124.512,104.980,351.562,27.344,999.512,0
1504326095.415,47.852,40.527,266.602,55.176,999.512,0
1504326095.419,27.344,14.160,193.848,61.523,999.512,0
1504326095.423,62.988,79.590,240.234,44.922,999.512,0
1504326095.427,90.332,76.172,251.465,48.828,999.512,0
1504326095.431,104.004,-5.371,123.047,46.387,999.512,0
1504326095.435,-38.086,32.715,96.191,62.012,997.559,0
1504326095.439,-45.898,142.090,229.492,72.754,998.535,0
1504326095.443,57.129,150.391,275.879,24.414,976.074,0
1504326095.446,64.453,59.570,133.789,44.922,882.812,0
1504326095.450,66.895,52.734,89.844,78.125,775.391,0
1504326095.454,17.090,161.133,232.910,15.625,714.355,0
1504326095.458,40.527,131.348,223.633,-3.906,715.820,0
1504326095.462,69.336,91.797,132.812,30.273,679.688,0
1504326095.466,56.641,102.539,113.770,26.367,571.777,0
1504326095.470,50.781,137.207,174.316,12.207,535.156,0
1504326095.474,1.953,118.164,150.879,24.414,516.113,0
1504326095.478,-60.059,83.008,83.008,50.293,431.152,0
1504326095.482,-88.867,151.855,170.410,73.730,390.625,0
1504326095.485,-41.992,161.133,210.449,41.504,378.906,0
1504326095.489,94.238,119.141,147.949,6.836,333.008,0
1504326095.493,192.871,76.660,48.340,-2.930,295.898,0
1504326095.497,43.457,77.637,7.324,17.578,232.910,0
1504326095.501,-130.371,152.832,118.652,39.062,203.125,0
1504326095.505,-57.617,123.047,129.395,39.062,168.945,0
1504326095.509,44.922,111.328,-13.184,41.504,124.023,0
1504326095.513,29.785,163.574,-275.391,31.738,113.770,0
1504326095.517,-40.527,131.348,-474.121,20.996,101.074,0
1504326095.521,-99.609,71.777,-570.312,38.086,52.734,0
1504326095.525,-3.906,50.781,-586.914,73.242,13.672,0
1504326095.528,109.863,101.074,-514.648,47.363,1.953,0
1504326095.532,8.301,161.133,-386.719,15.137,17.578,0
1504326095.536,-51.270,51.270,-461.426,10.742,13.184,0
1504326095.540,46.387,28.809,-562.988,-0.977,-47.363,0
1504326095.544,97.168,189.941,-337.891,4.395,-36.621,0
1504326095.548,47.363,113.770,-363.281,29.297,-26.855,0
1504326095.552,-52.734,43.945,-495.117,59.570,-83.008,0
1504326095.556,-100.586,75.195,-426.270,70.801,-96.191,0
1504326095.560,-50.781,96.191,-366.699,53.223,-104.004,0
1504326095.564,9.277,133.301,-291.992,21.973,-96.191,0
1504326095.568,7.812,52.246,-365.723,-5.371,-98.633,0
1504326095.571,29.297,33.691,-408.203,-2.441,-168.457,0
1504326095.575,90.332,123.535,-222.656,18.555,-178.223,0
1504326095.579,130.859,137.207,-136.230,36.621,-125.977,0
1504326095.583,48.828,2.441,-49.805,51.758,-144.043,0
1504326095.587,-53.223,64.941,442.871,42.969,-156.738,0
1504326095.591,-62.012,176.270,788.086,36.133,-101.074,0
1504326095.595,-74.707,74.707,669.434,15.625,-75.684,0
1504326095.599,-52.246,51.758,613.770,-3.418,-61.035,0
1504326095.603,33.203,83.984,629.883,-5.371,-78.125,0
1504326095.607,32.227,87.402,603.027,-25.391,-107.422,0
1504326095.610,12.207,48.828,517.578,-19.531,-125.000,0
1504326095.614,35.156,37.109,489.746,4.883,-124.512,0
1504326095.618,46.875,46.875,473.633,19.043,-144.531,0
1504326095.622,-20.996,69.336,462.891,35.156,-162.598,0
1504326095.626,-81.055,23.438,393.555,25.879,-196.289,0
1504326095.630,20.020,15.137,322.754,6.836,-261.230,0
1504326095.634,88.379,137.695,453.125,16.602,-251.953,0
1504326095.638,-13.184,122.070,462.402,37.598,-234.863,0
1504326095.642,-90.820,0.000,283.203,37.109,-262.695,0
1504326095.646,-64.941,14.648,283.691,28.809,-277.832,0
1504326095.650,-17.090,104.004,424.316,23.438,-279.785,0
1504326095.653,23.438,44.434,363.770,-1.465,-289.062,0
1504326095.657,118.652,40.527,322.754,-15.625,-306.152,0
1504326095.661,178.711,41.992,312.012,7.324,-348.633,0
1504326095.665,39.551,23.438,306.641,40.039,-372.070,0
1504326095.669,-108.398,46.875,319.336,38.086,-378.906,0
1504326095.673,-82.031,23.926,231.445,36.133,-406.250,0
1504326095.677,-27.344,70.801,285.645,51.270,-412.598,0
1504326095.681,89.355,92.773,364.746,24.902,-423.340,0
1504326095.685,145.996,38.086,287.598,-12.207,-450.684,0
1504326095.689,-4.395,-45.898,135.254,24.902,-478.516,0
1504326095.693,-122.070,26.855,206.055,49.805,-481.445,0
1504326095.696,-45.410,101.074,352.539,27.832,-460.449,0
1504326095.700,99.121,-10.254,207.520,34.668,-468.262,0
1504326095.704,161.133,-4.395,167.480,46.875,-492.676,0
1504326095.708,78.613,48.828,259.766,29.297,-489.746,0
1504326095.712,-19.531,5.371,217.285,27.832,-456.543,0
1504326095.716,-56.152,-37.598,118.652,53.711,-488.281,0
1504326095.720,-49.805,3.418,152.344,34.668,-518.555,0
1504326095.724,28.809,86.914,261.719,8.789,-488.281,0
1504326095.728,69.336,52.246,220.215,-6.836,-463.379,0
1504326095.732,55.664,-57.129,62.988,8.789,-474.609,0
1504326095.735,87.891,-23.926,66.895,41.016,-490.723,0
1504326095.739,82.031,101.562,242.676,45.410,-487.793,0
1504326095.743,-13.184,39.551,209.961,33.203,-478.516,0
1504326095.747,-21.484,0.488,136.230,17.090,-450.195,0
1504326095.751,41.992,43.457,174.316,48.340,-446.777,0
1504326095.755,47.852,45.410,215.820,70.801,-431.641,0
1504326095.759,43.457,3.418,122.559,53.223,-427.246,0
1504326095.763,54.688,-34.180,23.438,76.172,-464.355,0
1504326095.767,41.992,33.203,142.578,74.219,-455.566,0
1504326095.771,18.066,107.910,279.297,10.254,-400.391,0
1504326095.775,24.902,27.832,155.762,2.441,-395.996,0
1504326095.778,5.371,24.414,119.629,17.090,-400.879,0
1504326095.782,-32.715,45.410,149.902,14.160,-418.945,0
1504326095.786,14.160,40.527,156.250,30.273,-428.711,0
1504326095.790,5.859,20.020,106.445,56.152,-418.945,0
1504326095.794,-25.391,17.090,85.938,50.293,-404.785,0
1504326095.798,43.457,56.152,137.207,24.414,-417.480,0
1504326095.802,121.094,52.246,140.137,11.719,-435.059,0
1504326095.806,140.625,-2.441,87.402,19.531,-405.762,0
1504326095.810,24.414,-23.438,35.156,28.320,-393.555,0
1504326095.814,-19.531,79.102,161.621,38.086,-415.039,0
1504326095.818,13.672,98.633,238.770,57.617,-382.324,0
1504326095.821,2.441,-27.344,58.594,48.340,-366.211,0
1504326095.825,69.824,-33.203,16.113,21.484,-417.480,0
1504326095.829,90.332,78.613,188.477,33.203,-420.410,0
1504326095.833,32.715,43.945,156.738,46.387,-427.246,0
1504326095.837,51.758,15.625,92.285,44.434,-432.617,0
1504326095.841,67.871,34.180,115.234,47.852,-416.504,0
1504326095.845,56.641,47.363,132.812,26.855,-399.414,0
1504326095.849,15.625,14.160,87.891,9.277,-398.926,0
1504326095.853,-65.918,-24.902,8.301,16.602,-453.125,0
1504326095.857,-53.711,31.250,67.871,28.809,-464.355,0
1504326095.860,-13.184,67.871,144.531,21.973,-448.730,0
1504326095.864,12.695,66.406,152.832,-10.254,-430.664,0
1504326095.868,79.102,-45.898,-35.156,-18.066,-468.262,0
1504326095.872,118.164,21.484,24.902,-8.789,-493.164,0
1504326095.876,36.133,140.137,222.656,0.488,-458.984,0
1504326095.880,-53.711,46.875,100.098,29.297,-448.730,0
1504326095.884,-44.922,46.387,50.293,42.969,-460.449,0
1504326095.888,-0.977,117.676,125.488,19.531,-459.473,0
1504326095.892,109.375,111.816,123.047,4.395,-419.434,0
1504326095.896,166.016,55.664,24.902,21.973,-398.438,0
1504326095.900,38.574,27.832,-34.180,55.664,-403.320,0
1504326095.903,-39.551,86.914,22.949,74.219,-422.852,0
1504326095.907,-34.668,162.598,117.188,56.641,-387.207,0
1504326095.911,-21.484,94.727,32.715,34.668,-349.121,0
1504326095.915,130.859,83.008,-50.781,2.441,-368.164,0
1504326095.919,229.004,236.328,161.133,-4.395,-330.566,0
1504326095.923,117.188,213.867,194.336,35.156,-270.020,0
1504326095.927,-17.578,98.633,21.484,79.102,-228.027,0
1504326095.931,-50.781,103.027,-11.230,90.332,-227.051,0
1504326095.935,13.184,183.105,119.141,78.125,-236.328,0
1504326095.939,36.621,124.023,57.617,75.195,-229.004,0
1504326095.943,33.203,71.289,-32.715,57.617,-229.980,0
1504326095.946,120.605,42.480,-59.082,23.926,-245.117,0
1504326095.950,139.648,48.828,-42.969,9.277,-265.625,0
1504326095.954,19.043,70.801,20.020,18.555,-262.695,0
1504326095.958,-4.395,-53.223,-152.344,50.293,-341.797,0
1504326095.962,46.875,-16.602,-110.352,45.898,-401.855,0
1504326095.966,59.570,76.172,81.055,15.625,-385.742,0
1504326095.970,90.820,-70.312,-110.840,-13.672,-443.848,0
1504326095.974,108.398,-45.410,-101.074,-29.785,-483.398,0
1504326095.978,132.324,10.742,-28.809,4.395,-492.188,0
1504326095.982,106.445,-29.297,-112.305,22.949,-542.969,0
1504326095.985,22.461,-57.617,-173.828,34.180,-559.570,0
1504326095.989,8.789,-72.754,-217.773,55.176,-577.637,0
1504326095.993,45.898,-31.738,-170.898,53.223,-597.656,0
1504326095.997,82.031,-9.766,-151.855,48.828,-606.445,0
1504326096.001,109.375,-47.363,-157.715,56.641,-603.516,0
1504326096.005,137.207,-77.148,-179.199,65.918,-609.863,0
1504326096.009,58.594,54.199,-4.883,51.758,-610.840,0
1504326096.013,-54.199,32.227,16.602,35.156,-583.008,0
1504326096.017,-38.574,-54.688,-148.926,32.227,-589.844,0
1504326096.021,19.531,-15.137,-100.098,43.457,-581.055,0
1504326096.025,32.227,37.598,11.719,45.410,-549.316,0
1504326096.028,18.066,-43.945,-87.402,26.855,-569.824,0
1504326096.032,97.656,-74.219,-137.207,20.020,-597.656,0
1504326096.036,144.531,12.695,37.598,35.156,-581.543,0
1504326096.040,48.828,9.277,98.145,44.434,-544.434,0
1504326096.044,-41.992,36.133,116.699,44.434,-541.504,0
1504326096.048,-42.969,-28.809,50.781,42.480,-557.617,0
1504326096.052,13.184,-22.949,64.941,46.875,-558.105,0
1504326096.056,33.203,83.496,228.516,36.621,-545.898,0
1504326096.060,48.828,18.066,151.367,7.812,-523.926,0
1504326096.064,123.535,-1.465,104.004,20.020,-511.719,0
1504326096.068,135.254,20.508,124.512,49.316,-520.020,0
1504326096.071,49.316,23.438,150.391,61.035,-512.207,0
1504326096.075,-35.156,-19.043,85.449,62.012,-514.160,0
1504326096.079,-67.383,-19.531,44.922,60.059,-527.832,0
1504326096.083,-34.668,7.812,87.402,25.879,-493.164,0
1504326096.087,-11.719,-18.066,10.742,-7.812,-484.863,0
1504326096.091,-0.977,-2.930,7.324,1.953,-489.258,0
1504326096.095,14.648,-50.781,-24.902,-4.395,-494.141,0
1504326096.099,62.988,-12.207,62.012,-7.324,-518.066,0
1504326096.103,95.215,5.371,143.555,21.484,-488.770,0
1504326096.107,26.855,-127.441,-49.805,29.785,-473.145,0
1504326096.110,-39.551,-119.141,-56.152,23.926,-518.555,0
1504326096.114,-23.438,-5.371,132.812,33.691,-503.418,0
1504326096.118,-1.465,-65.918,65.918,34.668,-481.445,0
1504326096.122,35.645,-87.891,16.602,20.508,-485.352,0
1504326096.126,58.105,-56.641,40.039,19.531,-498.535,0
1504326096.130,13.184,-60.547,61.523,34.180,-485.352,0
1504326096.134,-2.441,-84.961,24.902,44.922,-451.660,0
1504326096.138,20.020,-142.578,-99.609,37.109,-471.191,0
1504326096.142,41.992,-62.012,-7.324,22.461,-478.516,0
1504326096.146,38.086,20.020,155.273,13.672,-432.617,0
1504326096.150,8.301,-74.707,27.344,18.066,-426.758,0
1504326096.153,12.695,-70.801,-42.969,8.789,-443.359,0
1504326096.157,45.898,-20.996,15.137,18.555,-443.359,0
1504326096.161,48.340,-22.461,56.641,38.086,-409.180,0
1504326096.165,29.297,-79.102,-29.785,23.438,-373.535,0
1504326096.169,-2.441,-91.797,-79.102,17.578,-388.672,0
1504326096.173,-8.301,-31.738,-15.625,29.297,-396.973,0
1504326096.177,22.949,-28.809,20.996,44.922,-334.473,0
1504326096.181,66.895,-138.184,-107.910,44.922,-305.664,0
1504326096.185,92.285,-149.414,-192.383,59.570,-336.914,0
1504326096.189,38.574,-29.785,-28.809,80.078,-341.797,0
1504326096.193,-47.852,-46.387,12.695,67.383,-307.129,0
1504326096.196,-43.945,-156.250,-166.992,51.270,-289.551,0
1504326096.200,-9.277,-142.090,-168.945,41.504,-321.777,0
1504326096.204,5.859,-69.824,-71.777,32.715,-315.918,0
1504326096.208,31.250,-74.219,-117.676,27.832,-309.570,0
1504326096.212,40.039,-118.652,-220.703,28.809,-338.867,0
1504326096.216,29.785,-100.098,-204.102,40.527,-346.680,0
1504326096.220,12.695,-37.109,-81.543,56.641,-348.633,0
1504326096.224,13.672,-74.219,-207.031,55.664,-373.535,0
1504326096.228,56.641,-170.898,-672.363,45.410,-407.715,0
1504326096.232,86.914,-103.027,-846.191,48.340,-450.195,0
1504326096.235,78.125,17.090,-683.105,51.270,-462.891,0
1504326096.239,46.387,-58.594,-783.203,37.109,-456.543,0
1504326096.243,23.438,-62.500,-832.031,29.785,-490.723,0
1504326096.247,22.949,-44.922,-779.297,45.898,-541.016,0
1504326096.251,44.922,-44.922,-719.727,69.336,-559.082,0
1504326096.255,44.922,-46.387,-679.688,67.383,-568.359,0
1504326096.259,34.180,-47.852,-669.922,49.805,-587.891,0
1504326096.263,41.992,-13.184,-602.051,39.062,-583.984,0
1504326096.267,58.594,-37.109,-618.164,25.879,-612.793,0
1504326096.271,53.711,-37.598,-605.469,29.297,-629.395,0
1504326096.275,44.922,-44.434,-602.539,53.223,-609.863,0
1504326096.278,48.828,11.719,-514.648,79.102,-614.746,0
1504326096.282,37.598,33.203,-405.273,80.078,-605.469,0
1504326096.286,47.363,-68.359,-513.184,73.730,-601.562,0
1504326096.290,48.340,-83.008,-617.188,65.430,-596.191,0
1504326096.294,50.781,44.434,-462.891,43.457,-578.125,0
1504326096.298,90.332,20.508,-401.367,22.949,-538.086,0
1504326096.302,88.867,-86.914,-544.434,16.113,-508.301,0
1504326096.306,44.922,-61.035,-531.738,36.133,-550.293,0
1504326096.310,7.812,26.855,-352.539,42.480,-552.734,0
1504326096.314,-4.883,-6.836,-377.441,38.086,-511.719,0
1504326096.318,-7.324,-44.922,-455.078,41.016,-531.250,0
1504326096.321,1.953,-16.113,-405.762,37.109,-547.363,0
1504326096.325,-3.418,12.695,-320.312,28.320,-512.207,0
1504326096.329,-9.766,12.695,-300.781,37.598,-495.117,0
1504326096.333,12.695,-36.621,-436.523,58.105,-505.859,0
1504326096.337,22.949,9.277,-441.406,58.105,-515.137,0
1504326096.341,35.645,99.121,-253.906,43.945,-476.074,0
1504326096.345,61.035,10.254,-330.078,32.227,-453.613,0
1504326096.349,70.312,-11.719,-422.852,37.598,-492.188,0
1504326096.353,57.129,77.148,-308.105,52.246,-506.836,0
1504326096.357,55.664,77.637,-252.930,62.988,-488.770,0
1504326096.360,72.754,22.949,-333.008,73.242,-461.914,0
1504326096.364,83.008,-5.371,-367.188,59.570,-475.098,0
1504326096.368,70.312,8.301,-354.492,54.688,-489.746,0
1504326096.372,65.430,48.340,-306.152,65.918,-505.371,0
1504326096.376,67.871,-2.930,-323.242,55.176,-551.270,0
1504326096.380,32.715,-30.273,-383.301,41.016,-579.102,0
1504326096.384,49.805,63.477,-266.113,46.387,-577.148,0
1504326096.388,106.445,58.594,-222.168,54.688,-585.938,0
1504326096.392,102.539,-5.371,-309.570,48.828,-592.285,0
1504326096.396,58.594,-5.859,-306.641,26.367,-573.730,0
1504326096.400,43.945,77.637,-174.805,35.156,-569.824,0
1504326096.403,44.922,22.461,-241.699,62.012,-598.633,0
1504326096.407,27.344,14.648,-276.855,53.223,-607.910,0
1504326096.411,9.277,32.227,-234.863,41.992,-598.633,0
1504326096.415,5.859,4.395,-259.277,20.020,-579.590,0
1504326096.419,31.250,48.340,-221.680,0.000,-575.195,0
1504326096.423,60.547,-7.324,-333.984,18.066,-604.004,0
1504326096.427,56.641,11.230,-376.953,40.527,-622.559,0
1504326096.431,54.199,105.469,-227.051,38.086,-620.117,0
1504326096.435,49.316,32.227,-262.695,39.551,-615.234,0
1504326096.439,62.012,45.410,-197.266,45.898,-607.422,0
1504326096.443,92.773,49.805,-111.816,40.527,-608.887,0
1504326096.446,52.246,29.297,-127.441,53.223,-623.047,0
1504326096.450,11.230,20.508,-216.309,62.988,-624.023,0
1504326096.454,39.062,13.184,-284.668,51.758,-654.297,0
1504326096.458,67.383,58.594,-187.012,50.293,-645.020,0
1504326096.462,96.680,16.113,-232.422,46.387,-634.277,0
1504326096.466,102.051,-14.160,-283.691,45.410,-666.016,0
1504326096.470,81.055,-25.391,-309.082,54.199,-731.934,0
1504326096.474,63.965,84.473,-170.410,59.570,-764.648,0
1504326096.478,41.016,73.242,-117.676,66.895,-727.051,0
1504326096.482,46.875,-34.180,-315.918,68.848,-742.676,0
1504326096.485,72.754,-2.441,-333.984,65.430,-797.852,0
1504326096.489,81.055,69.824,-190.430,50.781,-791.016,0
1504326096.493,46.875,39.062,-215.820,42.480,-779.785,0
1504326096.497,52.734,31.738,-297.852,48.340,-792.480,0
1504326096.501,73.242,62.012,-278.320,47.363,-786.133,0
1504326096.505,96.680,65.918,-231.934,52.246,-776.367,0
1504326096.509,104.492,69.824,-208.008,62.988,-787.109,1
1504326096.513,55.664,-3.418,-292.969,77.148,-785.645,0
1504326096.517,96.191,79.102,-226.074,116.699,-803.711,0
1504326096.521,150.879,243.164,56.152,132.812,-776.855,0
1504326096.525,145.508,145.996,-20.996,133.301,-769.043,0
1504326096.528,166.504,97.656,-154.785,120.605,-803.711,0
1504326096.532,183.105,165.527,-47.852,117.676,-788.574,0
1504326096.536,188.965,148.438,-8.789,121.582,-787.598,0
1504326096.540,172.852,93.262,-68.848,115.234,-780.762,0
1504326096.544,105.469,92.285,-55.664,132.324,-775.879,0
1504326096.548,112.305,126.465,-0.977,136.230,-776.855,0
1504326096.552,115.723,111.328,14.160,115.234,-761.719,0
1504326096.556,79.590,59.570,-15.137,98.633,-729.004,0
1504326096.560,93.262,52.734,-54.199,95.703,-717.285,0
1504326096.564,138.672,151.367,103.027,87.891,-708.496,0
1504326096.568,125.000,169.434,237.793,91.797,-692.383,0
1504326096.571,79.590,46.875,107.422,113.281,-666.992,0
1504326096.575,72.266,47.363,69.336,111.816,-663.086,0
1504326096.579,74.219,143.066,213.379,91.309,-664.062,0
1504326096.583,71.289,90.820,148.926,91.309,-648.438,0
1504326096.587,94.727,66.895,32.227,94.238,-649.414,0
1504326096.591,122.559,94.238,57.617,82.520,-652.344,0
1504326096.595,121.582,108.398,126.953,76.660,-644.531,0
1504326096.599,111.328,89.355,121.094,85.449,-611.816,0
1504326096.603,129.883,39.062,6.348,91.797,-614.746,0
1504326096.607,125.488,90.820,48.828,90.820,-633.301,0
1504326096.610,106.934,129.395,180.176,98.633,-600.586,0
1504326096.614,134.766,85.938,150.879,119.629,-570.312,0
1504326096.618,159.668,1.953,-35.645,120.605,-579.102,0
1504326096.622,143.555,55.664,-33.691,97.656,-608.887,0
1504326096.626,92.773,162.109,197.266,78.125,-574.707,0
1504326096.630,72.754,89.355,132.812,97.656,-521.484,0
1504326096.634,79.590,62.500,10.742,111.816,-529.785,0
1504326096.638,66.406,116.699,95.703,78.613,-542.969,0
1504326096.642,58.594,112.793,146.973,60.547,-517.578,0
1504326096.646,66.895,51.758,32.715,56.152,-520.996,0
1504326096.650,79.590,35.156,-16.602,42.969,-513.672,0
1504326096.653,68.359,66.895,0.488,41.992,-532.715,0
1504326096.657,61.035,128.906,104.492,51.758,-530.273,0
1504326096.661,83.496,44.922,37.109,47.363,-514.648,0
1504326096.665,79.102,6.836,-102.539,58.105,-545.410,0
1504326096.669,109.375,146.973,115.723,79.590,-516.602,0
1504326096.673,98.145,100.098,139.648,54.688,-481.445,0
1504326096.677,55.664,60.547,39.062,46.387,-467.285,0
1504326096.681,75.195,66.406,18.555,46.875,-455.566,0
1504326096.685,59.570,91.797,60.547,28.320,-465.820,0
1504326096.689,82.520,104.492,82.520,29.785,-485.352,0
1504326096.693,99.609,53.223,-12.207,43.457,-464.844,0
1504326096.696,53.711,58.105,-15.625,54.688,-447.754,0
1504326096.700,24.414,112.305,97.656,62.988,-442.871,0
1504326096.704,12.695,131.348,158.691,65.430,-415.527,0
1504326096.708,-7.324,39.551,-2.930,58.105,-405.762,0
1504326096.712,17.578,69.824,10.742,53.711,-411.133,0
1504326096.716,78.613,163.086,243.652,71.289,-371.582,0
1504326096.720,110.352,83.008,138.672,82.520,-326.172,0
1504326096.724,51.758,69.336,69.824,65.918,-337.402,0
1504326096.728,15.137,98.145,129.395,61.523,-325.684,0
1504326096.732,45.410,84.961,141.113,70.801,-270.508,0
1504326096.735,50.293,20.996,39.551,66.406,-260.742,0
1504326096.739,21.484,-11.230,-37.598,62.988,-309.082,0
1504326096.743,21.484,38.086,36.621,53.711,-299.316,0
1504326096.747,52.734,79.590,121.094,28.320,-281.250,0
1504326096.751,52.734,5.859,60.059,27.832,-310.059,0
1504326096.755,61.035,-36.621,-69.336,53.711,-318.359,0
1504326096.759,72.266,113.281,123.047,67.383,-287.598,0
1504326096.763,67.383,96.680,187.988,82.031,-283.203,0
1504326096.767,46.387,-36.621,-26.855,79.102,-286.621,0
1504326096.771,33.203,4.883,-6.348,51.270,-262.207,0
1504326096.775,30.273,112.793,148.926,51.758,-266.602,0
1504326096.778,46.387,45.898,50.293,49.805,-298.340,0
1504326096.782,76.660,40.039,3.418,44.922,-276.367,0
1504326096.786,66.406,54.688,41.992,43.457,-237.793,0
1504326096.790,61.523,27.832,-7.324,37.598,-233.398,0
1504326096.794,100.586,82.031,68.848,56.641,-203.613,0
1504326096.798,119.629,-7.812,-42.480,82.520,-205.566,0
1504326096.802,89.844,15.137,-36.133,95.703,-214.844,0
1504326096.806,47.363,144.043,215.332,80.566,-181.152,0
1504326096.810,19.043,45.410,75.684,55.664,-196.289,0
1504326096.814,34.180,7.812,-50.781,45.410,-172.852,0
1504326096.818,37.598,71.777,41.992,35.156,-187.500,0
1504326096.821,61.523,85.449,132.324,22.461,-175.293,0
1504326096.825,40.039,26.367,23.926,27.832,-133.301,0
1504326096.829,-25.879,20.020,-0.977,55.664,-159.668,0
1504326096.833,-11.719,33.691,47.852,55.664,-169.434,0
1504326096.837,-4.395,18.555,6.348,30.273,-139.160,0
1504326096.841,10.254,1.465,-8.789,38.086,-98.145,0
1504326096.845,27.832,-1.465,-53.711,46.387,-140.137,0
1504326096.849,28.809,121.094,129.883,41.992,-143.066,0
1504326096.853,34.668,92.773,186.035,43.945,-129.883,0
1504326096.857,60.547,-18.066,-33.691,53.223,-139.160,0
1504326096.860,89.355,3.418,-44.434,66.406,-169.434,0
1504326096.864,104.980,76.172,104.004,74.707,-152.344,0
1504326096.868,121.582,71.289,114.746,83.984,-66.895,0
1504326096.872,113.281,8.301,-41.016,104.492,-51.270,0
1504326096.876,95.215,46.875,-15.137,94.727,-72.754,0
1504326096.880,96.680,91.309,142.090,78.125,-40.527,0
1504326096.884,77.148,20.996,30.273,78.125,-21.484,0
1504326096.888,72.266,-10.742,-99.609,62.500,-70.312,0
1504326096.892,74.219,68.359,28.320,31.250,-61.035,0
1504326096.896,66.895,137.207,191.895,17.578,-89.844,0
1504326096.900,62.500,65.430,87.402,32.227,-86.426,0
1504326096.903,67.871,71.777,63.965,44.922,-13.184,0
1504326096.907,105.469,87.891,97.168,61.523,-14.648,0
1504326096.911,108.887,78.125,99.609,78.125,-29.785,0
1504326096.915,74.707,40.527,36.621,76.660,-12.695,0
1504326096.919,57.129,26.367,-6.348,80.566,-54.688,0
1504326096.923,41.504,102.051,123.047,82.031,-13.184,0
1504326096.927,74.707,64.941,86.426,76.172,-18.555,0
1504326096.931,122.559,-6.836,-33.691,67.383,-39.062,0
1504326096.935,104.004,-3.418,-90.332,49.805,-7.324,0
1504326096.939,48.828,111.328,101.562,25.391,10.254,0
1504326096.943,7.812,115.723,196.289,35.645,12.207,0
1504326096.946,-3.906,-18.066,-35.645,49.316,-1.953,0
1504326096.950,3.906,-2.441,-55.664,31.250,-24.902,0
1504326096.954,11.230,93.750,109.375,15.137,-26.367,0
1504326096.958,32.227,54.688,62.012,17.578,-23.438,0
1504326096.962,56.152,31.738,-22.461,45.410,-29.785,0
1504326096.966,49.805,47.852,8.789,65.430,-11.719,0
1504326096.970,44.922,54.688,57.129,53.223,-10.254,0
1504326096.974,55.664,41.992,45.410,47.852,-22.949,0
1504326096.978,48.340,-28.809,-90.820,53.711,-11.719,0
1504326096.982,32.715,8.301,-64.453,45.410,9.277,0
1504326096.985,31.738,96.680,116.699,47.852,-16.602,0
1504326096.989,27.344,79.102,136.230,66.895,10.742,0
1504326096.993,25.879,-0.488,-31.738,52.246,58.105,0
1504326096.997,56.641,47.852,3.418,37.598,-1.465,0
1504326097.001,82.031,95.703,178.711,61.035,-33.691,0
1504326097.005,81.543,24.902,76.660,68.848,-31.250,0
1504326097.009,59.570,46.387,50.781,70.801,13.672,0
1504326097.013,28.320,78.613,104.980,58.594,5.371,0
1504326097.017,21.973,53.711,92.773,38.574,-83.496,0
1504326097.021,15.137,39.062,66.406,46.387,-35.645,0
1504326097.025,25.879,16.602,11.230,42.969,23.438,0
1504326097.028,47.363,48.828,15.625,19.531,6.836,0
1504326097.032,54.688,77.148,71.777,19.531,-38.086,0
1504326097.036,52.246,-7.812,-10.254,38.574,-27.344,0
1504326097.040,41.992,-0.488,-75.195,59.570,12.695,0
1504326097.044,41.016,130.371,151.367,51.758,-25.879,0
1504326097.048,46.875,97.656,224.609,30.273,-51.270,0
1504326097.052,60.547,-29.785,2.441,38.574,-29.297,0
1504326097.056,74.219,8.789,15.625,48.340,-35.156,0
1504326097.060,52.734,121.582,239.258,58.594,-12.695,0
1504326097.064,30.762,59.082,168.457,50.293,11.230,0
1504326097.068,52.246,20.996,63.477,59.082,-8.789,0
1504326097.071,62.500,33.691,75.195,72.754,17.578,0
1504326097.075,58.105,53.711,98.145,61.035,29.785,0
1504326097.079,44.922,75.195,126.953,57.129,-9.766,0
1504326097.083,23.926,0.977,-20.508,53.223,26.367,0
1504326097.087,15.137,44.922,0.977,61.523,60.547,0
1504326097.091,21.973,115.234,179.199,62.012,-6.348,0
1504326097.095,41.016,15.625,35.645,47.363,-25.391,0
1504326097.099,73.242,73.730,121.094,41.504,-15.625,0
1504326097.103,46.875,93.750,214.355,63.477,-24.414,0
1504326097.107,6.348,64.453,175.781,75.195,-40.527,0
1504326097.110,16.602,31.250,109.375,62.500,-61.035,0
1504326097.114,24.902,18.555,105.469,53.223,-23.926,0
1504326097.118,43.457,51.758,185.547,55.176,0.000,0
1504326097.122,67.871,86.426,223.633,44.922,-36.621,0
1504326097.126,69.336,57.617,214.844,35.645,-1.465,0
1504326097.130,62.500,-0.488,35.156,54.199,-7.324,0
1504326097.134,53.223,139.160,214.844,78.125,-40.039,0
1504326097.138,40.527,130.371,337.891,79.102,22.949,0
1504326097.142,57.129,18.555,105.469,65.918,71.777,0
1504326097.146,80.566,31.250,61.035,59.570,27.832,0
1504326097.150,102.051,79.102,154.297,60.547,-51.270,0
1504326097.153,97.168,55.664,115.723,50.293,-36.621,0
1504326097.157,75.684,27.344,32.715,49.316,-5.859,0
1504326097.161,30.762,53.223,106.445,66.406,-17.578,0
1504326097.165,16.113,53.711,140.137,64.453,-21.484,0
1504326097.169,25.391,85.938,176.758,55.176,-9.766,0
1504326097.173,20.996,19.531,70.312,41.504,19.531,0
1504326097.177,34.180,22.461,27.832,34.180,-13.672,0
1504326097.181,48.828,125.000,273.926,48.828,-75.684,0
1504326097.185,60.547,55.664,196.777,53.711,-42.480,0
1504326097.189,67.383,49.805,112.305,54.199,8.301,0
1504326097.193,65.430,72.266,126.953,60.059,-48.828,0
1504326097.196,66.406,63.965,138.672,73.730,-94.727,0
1504326097.200,74.219,21.484,71.289,79.590,-44.434,0
1504326097.204,98.145,18.066,70.312,71.777,-40.527,0
1504326097.208,122.559,61.523,224.609,87.891,-1.953,0
1504326097.212,101.074,16.602,167.969,70.312,34.180,0
1504326097.216,63.965,-21.973,88.867,52.734,-29.785,0
1504326097.220,40.039,-7.812,67.871,55.664,-29.297,0
1504326097.224,37.598,111.816,277.344,40.039,18.555,0
1504326097.228,0.488,98.633,370.117,36.133,18.555,0
1504326097.232,-21.973,-51.270,77.637,51.270,-39.551,0
1504326097.235,22.949,-23.926,139.648,71.777,-55.176,0
1504326097.239,43.945,105.469,488.770,61.523,-0.488,0
1504326097.243,30.762,52.734,472.656,61.523,13.672,0
1504326097.247,51.758,5.859,320.312,77.637,-6.836,0
1504326097.251,50.781,47.363,354.492,61.523,3.418,0
1504326097.255,24.902,39.062,400.391,50.781,21.484,0
1504326097.259,36.621,14.648,292.969,70.801,-26.855,0
1504326097.263,28.320,-27.832,151.855,60.059,-34.180,0
1504326097.267,19.043,35.156,234.375,35.156,2.930,0
1504326097.271,46.387,94.727,437.500,37.109,16.113,0
1504326097.275,41.992,24.414,369.629,34.180,-4.883,0
1504326097.278,27.344,23.926,244.629,22.949,13.184,0
1504326097.282,37.598,64.453,213.867,26.367,-25.391,0
1504326097.286,37.109,84.473,298.340,41.504,-12.695,0
1504326097.290,40.527,6.836,135.254,55.664,-11.230,0
1504326097.294,40.527,15.137,87.402,62.988,-25.879,0
1504326097.298,53.223,59.570,145.508,66.406,12.207,0
1504326097.302,76.660,40.039,43.945,73.242,-6.836,0
1504326097.306,65.918,-14.160,-109.375,80.078,20.996,0
1504326097.310,44.922,-15.625,-262.207,69.824,-9.277,0
1504326097.314,36.621,99.609,-77.637,44.922,-44.434,0
1504326097.318,48.828,94.238,1.953,30.762,-11.719,0
1504326097.321,59.570,-15.137,-322.266,33.203,-23.438,0
1504326097.325,31.738,12.695,-212.891,53.223,-32.227,0
1504326097.329,20.996,36.621,62.988,71.289,-31.738,0
1504326097.333,33.691,31.250,163.574,70.801,-35.645,0
1504326097.337,70.801,27.832,188.965,66.895,6.836,0
1504326097.341,101.562,25.879,193.359,73.242,17.090,0
1504326097.345,62.012,79.590,351.562,72.266,-5.859,0
1504326097.349,29.785,39.551,294.922,62.012,-10.742,0
1504326097.353,45.410,-41.016,30.762,54.199,-39.551,0
1504326097.357,48.340,45.410,144.531,41.016,-31.738,0
1504326097.360,14.160,130.371,482.910,29.297,-25.879,0
1504326097.364,-0.488,54.199,408.691,28.809,39.551,0
1504326097.368,25.879,19.043,74.219,31.738,-21.484,0
1504326097.372,68.848,94.727,21.484,27.832,-84.961,0
1504326097.376,73.242,112.305,75.195,53.711,-26.367,0
1504326097.380,59.570,41.992,-230.957,64.941,13.184,0
1504326097.384,65.918,32.227,-467.285,75.195,36.621,0
1504326097.388,70.801,43.457,-544.922,107.910,16.602,0
1504326097.392,85.449,55.176,-637.207,111.816,-25.391,0
1504326097.396,110.840,44.922,-756.348,113.770,17.090,0
1504326097.400,130.859,-10.742,-933.105,111.816,-35.645,0
1504326097.403,109.375,95.703,-882.812,105.469,-29.297,0
1504326097.407,109.375,112.305,-797.363,115.234,-35.156,0
1504326097.411,82.031,14.160,-882.324,101.074,-61.035,0
1504326097.415,45.410,0.977,-879.395,74.219,-15.137,0
1504326097.419,61.035,68.359,-739.258,66.406,-64.453,0
1504326097.423,77.637,73.730,-663.574,41.504,-29.297,0
1504326097.427,91.797,-34.668,-813.477,36.621,-16.113,0
1504326097.431,79.102,0.977,-827.637,62.012,-56.152,0
1504326097.435,67.383,141.602,-463.867,71.289,-71.777,0
1504326097.439,84.961,89.844,-386.230,77.148,-53.711,0
1504326097.443,105.469,55.664,-486.816,69.336,6.836,0
1504326097.446,126.465,52.734,-494.629,66.895,29.785,0
1504326097.450,122.070,63.477,-428.223,86.426,37.109,0
1504326097.454,96.680,65.430,-395.996,97.656,-8.301,0
1504326097.458,85.938,20.996,-489.258,91.797,-76.660,0
1504326097.462,86.914,55.176,-410.156,84.961,-77.148,0
1504326097.466,90.332,47.363,-262.695,83.496,-75.195,0
1504326097.470,67.383,-43.457,-363.281,82.520,-69.336,0
1504326097.474,57.617,-90.820,-589.355,80.078,-62.012,0
1504326097.478,64.453,-5.371,-488.770,70.801,-75.195,0
1504326097.482,39.551,66.895,-197.266,62.988,-85.449,0
1504326097.485,53.223,-10.742,-300.293,42.969,-24.414,0
1504326097.489,67.383,-26.367,-400.879,35.156,-39.062,0
1504326097.493,73.730,15.625,-328.613,44.434,-41.992,0
1504326097.497,73.730,17.090,-282.715,60.059,-7.324,0
1504326097.501,47.363,-16.602,-362.305,57.617,-52.246,0
1504326097.505,34.180,18.555,-263.672,42.969,-46.875,0
1504326097.509,28.809,40.039,-178.711,36.621,-54.688,0
1504326097.513,50.293,37.109,-197.266,25.391,-43.457,0
1504326097.517,98.145,-32.227,-335.938,37.109,-26.367,0
1504326097.521,100.586,-2.930,-375.977,54.688,-51.758,0
1504326097.525,84.961,82.520,-119.141,59.570,-15.137,0
1504326097.528,74.707,50.293,-128.418,66.895,-39.062,0
1504326097.532,65.430,-23.926,-372.070,57.617,-56.152,0
1504326097.536,73.730,6.348,-458.008,50.293,-49.316,0
1504326097.540,68.359,127.441,-123.535,61.035,3.906,0
1504326097.544,57.617,104.980,-29.297,74.707,32.715,0
1504326097.548,49.805,14.648,-281.250,63.477,-4.883,0
1504326097.552,46.387,41.504,-345.215,59.570,-67.383,0
1504326097.556,50.293,168.457,35.156,63.965,-79.102,0
1504326097.560,51.270,105.957,82.031,51.270,-62.500,0
1504326097.564,50.293,40.527,-223.633,46.387,-21.973,0
1504326097.568,46.387,87.402,-287.598,38.086,-47.852,0
1504326097.571,57.617,190.918,64.453,38.574,-89.844,0
1504326097.575,78.125,138.672,134.277,55.176,-67.871,0
1504326097.579,66.406,84.961,-157.715,63.477,-23.438,0
1504326097.583,62.500,158.691,-79.102,60.547,20.996,0
1504326097.587,68.359,122.559,-11.230,55.664,-16.602,0
1504326097.591,50.293,83.008,-186.523,64.941,-42.480,0
1504326097.595,40.039,91.309,-296.875,60.547,-52.734,0
1504326097.599,50.293,196.777,-104.980,65.430,-54.688,0
1504326097.603,65.918,205.566,102.539,60.547,-45.898,0
1504326097.607,56.641,102.539,-125.977,48.340,-42.969,0
1504326097.610,44.434,119.141,-160.645,53.711,-48.340,0
1504326097.614,47.852,164.062,1.953,32.227,-45.898,0
1504326097.618,59.082,122.070,-25.391,18.555,-14.648,0
1504326097.622,48.828,100.098,-134.766,26.855,8.789,0
1504326097.626,45.410,107.910,-194.336,35.156,5.859,0
1504326097.630,68.359,111.328,-140.137,45.898,-48.828,0
1504326097.634,66.895,103.516,-96.191,41.016,-59.082,0
1504326097.638,58.105,89.844,-184.570,33.203,25.879,0
1504326097.642,56.641,143.066,-68.848,41.016,12.695,0
1504326097.646,44.434,156.250,126.953,48.340,10.742,0
1504326097.650,55.176,99.609,64.453,35.645,12.695,0
1504326097.653,60.059,20.508,-257.324,20.020,-19.531,0
1504326097.657,40.527,152.832,-221.680,15.137,-3.906,0
1504326097.661,20.508,308.105,234.375,14.160,34.180,0
1504326097.665,3.418,185.547,96.191,20.508,21.973,0
1504326097.669,7.324,158.203,-158.203,29.297,-30.762,0
1504326097.673,3.418,212.402,-20.020,35.156,-27.344,0
1504326097.677,16.113,175.781,114.746,52.734,0.000,0
1504326097.681,42.480,98.633,-31.250,56.641,28.320,0
1504326097.685,33.691,74.707,-270.508,46.387,7.324,0
1504326097.689,34.668,187.500,-14.648,61.523,-18.555,0
1504326097.693,45.898,207.031,291.992,72.266,-69.824,0
1504326097.696,60.547,82.031,77.637,61.523,-4.395,0
1504326097.700,71.777,74.707,-101.074,55.176,3.906,0
1504326097.704,56.641,191.895,149.414,46.387,-1.465,0
1504326097.708,22.949,141.113,213.867,29.785,36.621,0
1504326097.712,9.766,87.891,-16.602,32.715,-18.555,0
1504326097.716,15.625,136.719,2.441,37.598,14.160,0
1504326097.720,16.602,149.902,96.191,20.020,28.809,0
1504326097.724,11.719,130.371,62.500,8.789,-19.531,0
1504326097.728,9.766,55.176,-187.988,12.207,-27.832,0
1504326097.732,30.762,110.840,-203.125,19.043,-2.930,0
1504326097.735,44.434,206.543,189.941,30.273,-2.441,0
1504326097.739,29.785,136.719,221.680,24.902,32.715,0
1504326097.743,20.020,89.844,-2.441,38.574,3.906,0
1504326097.747,25.391,100.098,-79.102,59.570,-47.363,0
1504326097.751,9.766,167.480,111.816,45.410,-14.160,0
1504326097.755,4.883,140.137,125.977,39.062,14.648,0
1504326097.759,49.316,110.352,-53.711,42.480,8.301,0
1504326097.763,62.500,162.109,7.324,47.363,-55.664,0
1504326097.767,27.832,163.574,141.113,46.875,-69.824,2
1504326097.771,12.207,146.973,60.547,58.594,-37.598,0
1504326097.775,-4.395,183.105,-57.617,55.664,-49.805,0
1504326097.778,-6.348,223.145,9.766,33.203,-6.836,0
1504326097.782,19.531,233.398,155.273,31.250,27.832,0
1504326097.786,34.180,159.668,111.328,29.785,18.555,0
1504326097.790,60.547,123.535,-129.883,40.039,59.082,0
1504326097.794,69.336,240.234,123.535,45.410,46.875,0
1504326097.798,31.250,211.914,318.848,39.062,0.488,0
1504326097.802,14.160,147.461,52.246,42.969,39.551,0
1504326097.806,41.016,188.965,-0.488,58.594,83.984,0
1504326097.810,57.617,224.609,208.984,62.988,88.867,0
1504326097.814,55.664,180.664,194.336,57.617,47.852,0
1504326097.818,45.898,116.699,-65.430,47.363,21.973,0
1504326097.821,46.875,133.789,-118.164,38.574,24.902,0
1504326097.825,51.758,212.891,109.863,25.879,-23.926,0
1504326097.829,50.781,208.496,258.301,15.137,-23.926,0
1504326097.833,52.246,97.168,-8.301,21.973,45.898,0
1504326097.837,43.945,117.188,-109.375,17.578,56.152,0
1504326097.841,50.293,217.285,296.387,14.160,43.945,0
1504326097.845,64.941,153.809,250.488,22.461,71.289,0
1504326097.849,76.660,122.559,83.008,46.875,99.609,0
1504326097.853,62.500,132.812,64.941,71.777,34.180,0
1504326097.857,24.902,145.020,147.461,54.688,34.180,0
1504326097.860,38.574,107.910,85.938,54.688,67.383,0
1504326097.864,67.871,92.285,-29.297,67.871,46.387,0
1504326097.868,55.664,102.051,-15.137,34.180,59.082,0
1504326097.872,29.297,130.371,22.949,-2.441,39.551,0
1504326097.876,28.320,125.488,127.441,-8.789,78.613,0
1504326097.880,44.922,56.152,-98.633,2.930,96.680,0
1504326097.884,44.922,148.926,33.691,28.809,59.570,0
1504326097.888,41.504,171.875,332.031,51.758,40.039,0
1504326097.892,67.871,53.223,41.016,38.574,36.621,0
1504326097.896,64.941,48.340,-89.844,23.438,18.066,0
1504326097.900,36.133,157.715,200.195,42.969,25.391,0
1504326097.903,32.715,119.141,231.934,43.945,72.754,0
1504326097.907,-1.465,79.590,61.035,31.738,63.965,0
1504326097.911,-30.273,99.609,78.125,39.062,50.781,0
1504326097.915,-19.043,88.867,20.996,45.898,25.391,0
1504326097.919,1.953,89.355,32.227,50.293,19.043,0
1504326097.923,22.461,173.340,-22.949,48.340,69.824,0
1504326097.927,26.855,516.602,-30.273,30.762,32.715,0
1504326097.931,18.555,765.137,367.188,12.695,-11.230,0
1504326097.935,4.395,690.430,373.535,-1.953,31.738,0
1504326097.939,2.441,641.602,54.688,-4.395,39.551,0
1504326097.943,3.418,736.328,167.969,-2.441,23.438,0
1504326097.946,10.742,729.492,406.250,-6.836,31.738,0
1504326097.950,33.691,628.906,217.773,-1.465,5.859,0
1504326097.954,40.527,603.027,131.348,21.484,-1.465,0
1504326097.958,43.945,614.746,236.328,28.809,33.203,0
1504326097.962,48.340,577.637,176.270,20.020,58.105,0
1504326097.966,64.453,541.016,79.102,24.414,20.996,0
1504326097.970,57.129,524.902,3.906,24.414,29.297,0
1504326097.974,63.477,586.914,258.301,24.414,59.082,0
1504326097.978,98.145,559.082,484.375,34.668,70.801,0
1504326097.982,86.426,456.055,170.898,47.363,66.895,0
1504326097.985,48.340,466.797,97.656,59.570,31.738,0
1504326097.989,34.668,487.305,267.090,49.805,21.484,0
1504326097.993,46.387,453.125,253.906,42.480,6.348,0
1504326097.997,30.762,381.348,20.996,36.621,7.812,0
1504326098.001,34.668,395.508,0.000,39.062,14.160,0
1504326098.005,66.895,423.828,226.074,41.992,-8.789,0
1504326098.009,55.664,355.957,129.395,43.457,-10.742,0
1504326098.013,60.547,289.062,-78.613,46.387,-4.883,0
1504326098.017,66.406,313.477,1.953,35.645,42.969,0
1504326098.021,59.082,380.371,314.941,21.973,34.180,0
1504326098.025,59.082,304.199,261.719,7.324,4.883,0
1504326098.028,32.715,280.762,138.672,-0.488,60.059,0
1504326098.032,15.625,284.180,148.926,13.672,77.637,0
1504326098.036,29.785,252.930,169.922,38.574,24.414,0
1504326098.040,28.809,217.773,48.828,36.621,11.230,0
1504326098.044,39.551,224.609,-5.371,24.902,33.691,0
1504326098.048,47.852,261.719,184.082,38.086,11.719,0
1504326098.052,31.738,215.332,237.305,54.688,11.719,0
1504326098.056,37.109,150.391,54.688,47.852,21.484,0
1504326098.060,51.758,147.949,-108.398,54.199,35.645,0
1504326098.064,62.988,235.352,141.113,78.613,29.785,0
1504326098.068,48.828,231.445,348.633,59.570,9.277,0
1504326098.071,34.668,132.812,116.699,34.180,72.754,0
1504326098.075,45.898,123.535,12.695,33.203,82.520,0
1504326098.079,41.992,157.715,98.145,37.109,32.227,0
1504326098.083,25.391,136.230,73.242,35.156,3.418,0
1504326098.087,46.875,135.742,-16.602,35.645,13.184,0
1504326098.091,85.938,147.949,-6.836,37.598,-10.742,0
1504326098.095,82.520,167.480,127.930,35.156,-7.812,0
1504326098.099,47.852,140.137,29.297,37.598,-21.973,0
1504326098.103,3.418,74.219,-218.750,46.875,-12.207,0
1504326098.107,6.348,141.602,-102.051,53.223,62.988,0
1504326098.110,44.922,221.680,276.367,44.434,50.781,0
1504326098.114,70.801,153.320,253.418,37.109,20.996,0
1504326098.118,63.965,96.680,-88.379,63.965,22.949,0
1504326098.122,33.691,149.414,-38.574,65.918,0.488,0
1504326098.126,26.855,182.129,251.953,53.223,-3.906,0
1504326098.130,43.945,129.395,176.270,71.777,42.480,0
1504326098.134,42.480,112.305,48.828,66.895,21.484,0
1504326098.138,29.785,139.160,63.477,59.082,-42.969,0
1504326098.142,56.641,164.551,172.363,76.172,-27.832,0
1504326098.146,76.660,119.629,160.156,69.824,54.199,0
1504326098.150,112.305,83.008,17.090,60.547,87.891,0
1504326098.153,117.676,130.859,-2.441,69.336,41.504,0
1504326098.157,94.727,137.695,63.965,85.449,-3.906,0
1504326098.161,97.168,95.703,77.637,78.125,-8.301,0
1504326098.165,52.246,90.332,-32.227,70.312,42.969,0
1504326098.169,9.766,171.875,153.809,71.289,31.738,0
1504326098.173,10.742,186.523,377.441,55.176,20.996,0
1504326098.177,19.043,77.637,59.082,47.852,10.742,0
1504326098.181,26.367,85.449,-35.645,42.480,23.926,0
1504326098.185,27.344,170.410,218.750,34.668,8.301,0
1504326098.189,43.457,129.395,217.285,29.785,5.371,0
1504326098.193,43.945,89.844,87.891,39.062,49.805,0
1504326098.196,19.043,81.055,0.977,52.734,61.035,0
1504326098.200,20.508,123.535,62.988,60.059,44.434,0
1504326098.204,30.273,163.086,230.469,57.617,27.344,0
1504326098.208,41.992,65.918,7.324,42.969,52.734,0
1504326098.212,72.266,94.238,-62.988,35.156,32.227,0
1504326098.216,95.215,167.969,247.559,40.039,20.996,0
1504326098.220,72.266,98.633,153.320,33.691,8.301,0
1504326098.224,56.152,101.562,6.836,50.293,-15.137,0
1504326098.228,62.988,145.020,126.465,70.801,3.906,0
1504326098.232,53.711,134.277,257.324,66.406,-23.438,0
1504326098.235,51.270,83.984,105.469,72.754,-26.367,0
1504326098.239,40.039,68.359,57.129,67.383,20.508,0
1504326098.243,16.602,78.613,27.832,56.641,-0.977,0
1504326098.247,43.457,140.137,88.867,72.266,22.461,0
1504326098.251,62.500,104.492,127.930,87.402,37.109,0
1504326098.255,44.922,46.387,-110.352,76.172,31.250,0
1504326098.259,66.406,160.156,96.680,58.594,3.418,0
1504326098.263,88.867,157.227,356.445,47.852,14.648,0
1504326098.267,93.750,60.059,48.340,54.688,11.719,3
1504326098.271,77.637,79.102,-28.809,59.570,-26.855,0
1504326098.275,61.523,113.281,146.973,46.387,0.000,0
1504326098.278,69.824,96.191,92.773,56.641,16.113,0
1504326098.282,32.227,62.500,-40.527,40.527,37.598,0
1504326098.286,-1.465,52.734,-40.527,23.438,22.949,0
1504326098.290,26.855,94.727,44.922,30.762,14.648,0
1504326098.294,30.273,125.977,142.090,37.598,41.992,0
1504326098.298,22.949,50.293,-36.621,33.691,5.371,0
1504326098.302,47.852,55.664,-122.070,31.250,7.812,0
1504326098.306,58.594,158.691,249.023,33.203,4.883,0
1504326098.310,35.156,104.492,210.449,44.434,10.742,0
1504326098.314,24.414,79.102,31.738,59.570,9.277,0
1504326098.318,48.340,102.539,67.383,59.082,5.371,0
1504326098.321,45.898,85.449,128.906,55.176,1.953,0
1504326098.325,24.414,61.035,67.383,49.316,10.742,0
1504326098.329,29.785,90.820,46.875,55.176,54.199,0
1504326098.333,51.758,95.703,100.586,53.223,61.523,0
1504326098.337,81.055,56.641,-4.395,47.852,27.344,0
1504326098.341,66.406,62.500,-79.590,51.758,-16.113,0
1504326098.345,42.969,66.406,-131.836,52.246,18.066,0
1504326098.349,62.500,138.184,91.797,57.129,44.922,0
1504326098.353,69.824,143.066,331.543,59.570,32.227,0
1504326098.357,68.359,37.109,65.918,51.758,42.969,0
1504326098.360,69.336,48.828,-69.336,50.781,25.879,0
1504326098.364,67.383,140.137,162.598,54.688,-10.742,0
1504326098.368,82.520,115.234,191.406,51.270,4.395,0
1504326098.372,67.383,66.895,3.906,55.664,15.137,0
1504326098.376,69.824,79.102,-17.090,73.730,-57.617,0
1504326098.380,82.031,90.820,107.422,68.359,-62.500,0
1504326098.384,73.242,75.684,65.430,51.758,28.809,0
1504326098.388,29.785,26.855,-154.297,50.781,29.785,0
1504326098.392,5.859,74.707,-84.961,58.105,-16.113,0
1504326098.396,20.996,153.320,207.031,54.199,-12.207,0
1504326098.400,44.922,101.074,189.941,54.688,10.254,0
1504326098.403,51.758,59.082,-7.812,59.570,-0.977,0
1504326098.407,33.203,97.168,26.855,40.039,-20.508,0
1504326098.411,33.203,127.930,262.695,25.391,19.531,0
1504326098.415,49.316,58.105,129.395,38.574,54.688,0
1504326098.419,61.035,55.176,-22.461,52.734,3.418,0
1504326098.423,65.430,107.910,63.477,42.480,-6.348,0
1504326098.427,38.086,93.750,151.855,22.949,85.938,0
1504326098.431,9.766,41.016,-46.387,13.672,70.801,0
1504326098.435,26.367,39.062,-255.371,23.438,21.484,0
1504326098.439,41.992,128.906,3.906,29.785,-26.855,0
1504326098.443,54.199,145.508,283.691,26.367,-50.293,0
1504326098.446,53.711,57.617,81.543,41.504,22.461,0
1504326098.450,45.898,55.176,-28.320,44.434,31.738,0
1504326098.454,33.691,79.102,19.531,59.082,38.574,0
1504326098.458,13.184,106.934,35.645,60.059,23.926,0
1504326098.462,3.906,38.086,-20.508,41.016,10.254,0
1504326098.466,6.836,206.055,-87.891,39.062,-10.742,0
1504326098.470,18.066,670.898,177.734,40.527,8.301,0
1504326098.474,33.691,754.395,248.047,44.434,70.312,0
1504326098.478,24.414,668.945,-45.410,35.156,50.293,0
1504326098.482,20.508,712.891,-50.781,34.668,30.273,0
1504326098.485,44.434,756.836,279.297,30.273,13.184,0
1504326098.489,58.594,669.922,241.211,45.898,-20.508,0
1504326098.493,69.824,625.977,30.762,64.453,-55.176,0
1504326098.497,80.078,649.902,156.250,62.500,6.836,0
1504326098.501,85.938,635.254,322.754,59.082,71.289,0
1504326098.505,67.383,570.801,172.852,40.039,45.410,0
1504326098.509,28.320,536.133,84.473,34.668,12.695,0
1504326098.513,13.672,525.879,91.309,28.809,2.930,0
1504326098.517,39.551,511.230,147.949,24.414,-11.719,0
1504326098.521,53.711,462.891,142.578,22.461,-3.906,0
1504326098.525,52.734,407.715,-32.227,26.855,30.273,0
1504326098.528,45.410,451.660,53.223,46.387,33.691,0
1504326098.532,39.062,470.703,294.922,63.965,45.898,0
1504326098.536,43.457,377.930,165.039,60.547,62.500,0
1504326098.540,42.480,338.379,-58.594,56.152,74.707,0
1504326098.544,44.922,418.457,173.340,57.129,47.363,0
1504326098.548,52.734,369.629,240.723,52.246,-1.465,0
1504326098.552,45.410,289.062,34.668,43.457,11.719,0
1504326098.556,62.012,298.340,39.551,41.504,39.551,0
1504326098.560,91.797,315.918,160.156,42.480,52.246,0
1504326098.564,66.895,285.645,111.328,41.016,9.766,0
1504326098.568,37.598,250.977,-13.672,42.480,-20.508,0
1504326098.571,44.434,252.930,-28.320,50.293,16.113,0
1504326098.575,66.406,255.371,64.941,71.289,18.555,0
1504326098.579,74.219,250.000,124.512,71.289,-1.465,0
1504326098.583,56.152,184.082,-34.180,62.012,26.367,0
1504326098.587,81.055,186.523,-44.434,78.613,27.832,0
1504326098.591,107.422,271.484,317.871,69.336,-16.113,0
1504326098.595,84.473,207.031,310.547,52.246,-16.602,0
1504326098.599,69.824,157.227,11.230,64.453,26.855,0
1504326098.603,60.059,212.402,46.387,59.570,20.508,0
1504326098.607,50.293,226.562,260.254,57.617,30.762,0
1504326098.610,55.176,162.109,108.398,54.688,21.484,0
1504326098.614,62.012,144.043,15.625,49.805,-4.395,0
1504326098.618,79.590,150.879,56.641,45.898,87.891,0
1504326098.622,84.473,157.715,8.789,44.922,19.531,0
1504326098.626,41.504,166.504,67.871,53.711,-29.297,0
1504326098.630,31.738,130.371,58.105,61.523,18.066,0
1504326098.634,38.086,155.273,59.082,53.711,-26.367,0
1504326098.638,18.066,178.223,214.355,47.852,10.254,0
1504326098.642,22.949,79.590,69.824,50.293,42.969,0
1504326098.646,35.645,83.496,-191.895,54.199,47.852,0
1504326098.650,66.406,201.172,110.352,71.289,66.406,0
1504326098.653,85.449,171.387,277.832,56.641,51.270,0
1504326098.657,70.312,75.684,-53.711,20.508,23.438,0
1504326098.661,39.551,94.727,-109.375,22.461,-12.207,0
1504326098.665,8.789,128.906,64.453,31.250,2.930,0
1504326098.669,2.441,133.301,83.008,30.762,-20.020,0
1504326098.673,23.438,86.914,9.766,31.738,57.129,0
1504326098.677,40.039,68.848,-52.246,21.484,94.727,0
1504326098.681,49.805,160.645,244.141,29.785,46.875,0
1504326098.685,64.453,103.516,185.547,53.223,31.250,0
1504326098.689,69.336,76.660,8.301,61.523,30.273,0
1504326098.693,78.613,127.441,24.902,69.336,28.809,0
1504326098.696,83.984,139.160,167.969,79.102,29.785,0
1504326098.700,69.824,85.938,114.258,69.336,24.902,0
1504326098.704,62.500,97.656,-31.250,57.617,11.230,0
1504326098.708,63.477,144.531,108.887,54.688,26.367,0
1504326098.712,72.754,103.516,93.262,52.246,24.414,0
1504326098.716,69.824,58.594,-48.828,55.664,-13.184,0
1504326098.720,53.223,83.008,-135.742,62.500,-8.789,0
1504326098.724,55.664,208.008,126.465,57.617,31.250,0
1504326098.728,73.242,191.406,333.008,60.059,24.902,0
1504326098.732,73.730,95.215,45.898,73.242,6.348,0
1504326098.735,44.922,95.703,-36.621,62.012,-2.930,0
1504326098.739,41.992,145.508,119.141,44.922,-6.348,0
1504326098.743,78.613,126.953,162.598,48.828,74.707,0
1504326098.747,60.547,67.871,-14.648,59.570,92.773,0
1504326098.751,30.273,105.957,-93.750,62.500,35.645,0
1504326098.755,33.691,148.438,84.473,50.293,30.273,0
1504326098.759,22.949,93.750,39.551,39.062,41.504,0
1504326098.763,21.973,36.621,-154.785,35.156,57.129,0
1504326098.767,40.527,75.195,-114.258,30.762,61.523,0
1504326098.771,57.129,131.348,164.062,32.227,-31.738,4
1504326098.775,66.895,105.957,229.980,27.344,-14.160,0
1504326098.778,55.176,38.574,-60.059,21.973,45.410,0
1504326098.782,36.133,65.430,-90.332,23.438,-12.207,0
1504326098.786,34.180,136.719,216.797,35.645,11.230,0
1504326098.790,35.645,76.172,106.934,40.527,0.977,0
1504326098.794,29.297,62.988,-2.441,27.344,-53.711,0
1504326098.798,28.320,111.816,91.797,37.109,-23.926,0
1504326098.802,50.781,91.797,91.309,33.691,-3.906,0
1504326098.806,53.711,40.527,-14.160,18.066,43.457,0
1504326098.810,39.062,20.020,-226.074,19.531,42.480,0
1504326098.814,53.223,125.000,10.254,30.762,19.531,0
1504326098.818,53.223,147.949,318.359,41.504,15.137,0
1504326098.821,34.180,25.879,51.758,35.645,14.648,0
1504326098.825,45.410,32.227,-96.191,35.156,10.742,0
1504326098.829,56.641,123.047,131.836,54.199,2.930,0
1504326098.833,39.551,101.562,155.273,58.105,-4.883,0
1504326098.837,25.391,66.895,-62.500,37.598,-55.664,0
1504326098.841,26.367,53.711,-34.180,42.480,-53.223,0
1504326098.845,54.688,87.402,139.160,53.223,17.090,0
1504326098.849,84.473,93.750,134.766,57.617,55.664,0
1504326098.853,87.402,7.812,-167.969,55.176,41.504,0
1504326098.857,84.473,71.289,-103.027,58.594,63.477,0
1504326098.860,46.875,125.488,216.797,69.824,28.809,0
1504326098.864,32.227,73.730,153.809,74.707,-41.992,0
1504326098.868,50.781,39.062,-120.605,68.848,8.789,0
1504326098.872,52.246,95.215,-84.961,65.918,39.551,0
1504326098.876,34.668,142.578,277.344,52.734,32.227,0
1504326098.880,32.227,70.312,143.066,41.016,2.441,0
1504326098.884,35.645,75.195,2.441,35.156,-20.508,0
1504326098.888,38.574,108.398,60.547,36.621,-23.438,0
1504326098.892,55.176,91.309,101.074,70.801,-39.551,0
1504326098.896,56.152,69.824,61.035,80.566,-28.320,0
1504326098.900,50.781,71.777,-8.789,60.059,37.598,0
1504326098.903,41.992,70.801,-24.902,51.758,56.152,0
1504326098.907,49.805,112.793,113.770,59.570,16.113,0
1504326098.911,59.570,84.473,128.906,69.336,19.531,0
1504326098.915,26.367,19.043,-190.430,53.223,-5.859,0
1504326098.919,29.785,133.789,49.805,48.340,-13.672,0
1504326098.923,50.781,146.973,337.891,63.477,59.570,0
1504326098.927,34.180,44.434,-8.301,49.316,3.906,0
1504326098.931,33.203,69.336,-74.219,38.086,-47.852,0
1504326098.935,32.227,106.445,148.438,34.668,-8.789,0
1504326098.939,42.969,68.848,163.086,44.434,40.039,0
1504326098.943,55.176,37.109,-54.688,40.527,64.453,0
1504326098.946,25.879,44.922,-176.758,30.762,56.152,0
1504326098.950,11.230,91.309,5.859,35.645,27.832,0
1504326098.954,31.738,114.746,188.477,49.316,29.785,0
1504326098.958,54.688,16.602,-46.875,57.617,58.105,0
1504326098.962,59.570,52.734,-117.188,60.547,82.031,0
1504326098.966,58.594,134.277,240.234,62.988,59.570,0
1504326098.970,55.664,79.590,156.250,52.734,31.250,0
1504326098.974,51.758,85.449,26.855,49.805,27.832,0
1504326098.978,62.500,100.098,74.707,47.852,13.672,0
1504326098.982,72.266,112.305,133.301,42.480,21.484,0
1504326098.985,64.941,74.219,-45.410,44.434,-14.648,0
1504326098.989,62.988,89.355,-96.680,53.711,19.531,0
1504326098.993,79.102,128.906,45.898,70.312,48.828,0
1504326098.997,80.078,121.094,86.914,81.055,38.574,0
1504326099.001,76.660,91.309,82.031,72.266,87.891,0
1504326099.005,89.844,46.387,-103.027,58.105,83.496,0
1504326099.009,85.449,131.348,79.102,38.086,20.508,0
1504326099.013,51.270,142.090,288.086,40.527,-20.020,0
1504326099.017,30.273,59.082,42.480,47.363,6.348,0
1504326099.021,22.461,61.035,-48.828,42.969,-30.273,0
1504326099.025,20.996,98.633,111.328,52.734,-76.660,0
1504326099.028,16.602,79.590,123.047,48.340,-51.270,0
1504326099.032,9.277,68.848,-5.371,50.781,-38.574,0
1504326099.036,24.902,80.078,15.137,60.547,-4.395,0
1504326099.040,50.293,53.223,12.695,72.754,21.484,0
1504326099.044,49.316,73.730,26.855,75.684,22.949,0
1504326099.048,22.949,44.434,-68.359,58.105,62.988,0
1504326099.052,35.156,65.918,-105.469,64.453,29.297,0
1504326099.056,52.246,141.602,228.516,53.223,-25.391,0
1504326099.060,54.199,95.703,254.395,33.203,8.789,0
1504326099.064,53.711,36.621,-48.340,46.875,60.059,0
1504326099.068,58.105,76.172,-38.574,54.199,18.555,0
1504326099.071,58.594,102.051,198.242,58.594,3.906,0
1504326099.075,55.176,54.199,49.805,65.918,-38.574,0
1504326099.079,53.711,66.895,-5.371,74.219,-35.645,0
1504326099.083,37.598,78.613,74.219,70.801,1.953,0
1504326099.087,53.223,63.477,-16.113,68.848,-28.320,0
1504326099.091,62.012,53.223,-54.688,64.941,-12.695,0
1504326099.095,34.668,24.414,-140.625,42.969,22.949,0
1504326099.099,16.113,101.074,66.406,25.879,10.254,0
1504326099.103,14.160,85.938,277.832,28.809,23.438,0
1504326099.107,43.945,14.160,-48.828,57.129,-17.090,0
1504326099.110,41.504,64.453,-20.508,47.852,-30.762,0
1504326099.114,23.926,87.402,190.918,25.879,29.297,0
1504326099.118,39.551,74.707,110.352,25.391,-20.020,0
1504326099.122,38.574,24.902,-120.117,26.367,-46.387,0
1504326099.126,45.898,73.242,-73.730,39.551,15.625,0
1504326099.130,63.965,98.633,149.902,42.480,17.578,0
1504326099.134,70.312,40.527,30.273,33.203,14.648,0
1504326099.138,65.918,23.438,-151.367,35.645,49.805,0
1504326099.142,54.199,68.848,-57.617,39.551,102.051,0
1504326099.146,47.363,99.609,256.836,40.039,94.238,0
1504326099.150,53.711,43.457,152.344,44.434,34.668,0
1504326099.153,43.945,69.824,-18.555,48.828,25.879,0
1504326099.157,29.785,95.703,35.645,66.895,10.254,0
1504326099.161,64.453,103.027,141.113,103.516,38.086,0
1504326099.165,40.527,44.922,-16.113,88.379,64.941,0
1504326099.169,23.926,45.410,-119.141,59.570,22.949,0
1504326099.173,43.457,97.168,80.078,54.199,-20.996,0
1504326099.177,35.156,73.730,149.902,47.363,-14.160,0
1504326099.181,41.504,9.766,-21.484,41.504,18.066,0
1504326099.185,47.363,5.859,-189.941,36.621,70.312,0
1504326099.189,51.270,81.543,6.348,36.621,1.465,0
1504326099.193,61.523,97.168,243.652,41.992,-81.055,0
1504326099.196,54.688,82.520,99.609,50.293,14.648,0
1504326099.200,61.523,115.234,-2.930,53.223,88.379,0
1504326099.204,80.566,165.527,28.809,67.383,10.742,0
1504326099.208,70.312,169.434,83.984,82.031,-43.457,0
1504326099.212,50.293,116.699,25.879,64.453,18.555,0
1504326099.216,36.621,121.094,2.930,56.641,39.062,0
1504326099.220,50.781,122.559,103.516,52.734,74.707,0
1504326099.224,61.035,77.148,23.438,41.504,69.336,0
1504326099.228,62.500,4.883,-178.711,34.668,39.551,0
1504326099.232,74.219,41.016,-167.480,38.086,39.551,0
1504326099.235,70.801,143.555,188.477,43.457,-5.371,0
1504326099.239,48.340,100.098,255.371,29.297,4.395,0
1504326099.243,37.109,36.133,-58.594,20.996,12.207,0
1504326099.247,46.875,78.125,-48.340,32.227,-15.625,0
1504326099.251,49.316,121.094,204.102,27.832,-26.367,0
1504326099.255,49.316,70.801,123.047,26.855,-0.488,0
1504326099.259,41.504,55.664,26.367,25.391,-4.883,0
1504326099.263,71.777,84.961,86.914,30.762,-0.977,0
1504326099.267,101.562,83.008,125.488,40.039,11.230,0
1504326099.271,86.914,59.082,36.133,44.434,5.859,5
1504326099.275,32.715,62.988,-13.672,53.223,73.730,0
1504326099.278,6.348,80.566,0.977,49.805,86.426,0
1504326099.282,22.461,88.379,33.691,65.430,20.508,0
1504326099.286,44.434,76.660,51.758,83.496,-8.789,0
1504326099.290,97.656,15.137,-145.996,77.637,-3.906,0
1504326099.294,106.934,73.242,64.453,53.711,5.371,0
1504326099.298,53.223,108.398,336.426,47.852,13.672,0
1504326099.302,58.594,23.926,-25.391,66.406,-29.785,0
1504326099.306,41.504,42.480,-121.094,55.664,-29.785,0
1504326099.310,9.277,126.953,177.246,36.621,-18.066,0
1504326099.314,24.414,77.148,148.438,33.691,-48.340,0
1504326099.318,30.762,41.016,30.762,45.898,21.973,0
1504326099.321,33.203,20.508,-57.129,69.336,48.828,0
1504326099.325,49.316,39.551,-16.113,67.383,34.180,0
1504326099.329,70.801,86.914,175.781,63.477,26.855,0
1504326099.333,50.781,-19.531,-72.266,48.340,-28.320,0
1504326099.337,18.555,-7.324,-127.441,9.766,28.809,0
1504326099.341,47.363,105.469,192.383,25.879,54.688,0
1504326099.345,65.918,67.383,152.344,46.387,-7.324,0
1504326099.349,31.738,19.531,-2.441,31.738,36.133,0
1504326099.353,33.203,42.480,22.461,29.785,48.340,0
1504326099.357,88.867,75.684,165.527,51.270,-41.504,0
1504326099.360,90.820,73.242,111.816,68.359,-3.418,0
1504326099.364,45.898,16.602,61.035,59.082,61.035,0
1504326099.368,24.414,2.441,-46.875,51.270,2.930,0
1504326099.372,-7.812,59.082,-13.184,22.949,-23.926,0
1504326099.376,-17.578,55.176,115.234,3.418,23.926,0
1504326099.380,7.812,10.254,-105.957,13.184,52.246,0
1504326099.384,30.273,83.008,58.594,23.438,54.688,0
1504326099.388,31.250,94.727,286.133,23.438,28.809,0
1504326099.392,68.359,37.598,50.781,41.504,39.062,0
1504326099.396,118.164,54.199,33.203,54.688,64.453,0
1504326099.400,69.824,65.430,57.129,41.992,50.293,0
1504326099.403,30.273,60.059,58.105,39.062,46.875,0
1504326099.407,16.602,28.809,-20.996,41.992,18.555,0
1504326099.411,0.000,31.250,-67.383,53.223,-20.996,0
1504326099.415,8.789,76.660,68.359,58.105,-0.977,0
1504326099.419,22.461,90.820,139.160,62.988,49.805,0
1504326099.423,28.809,34.180,-9.766,64.941,41.016,0
1504326099.427,31.250,37.109,-128.418,62.500,-21.973,0
1504326099.431,44.922,130.859,265.625,68.848,18.066,0
1504326099.435,63.477,79.590,210.938,58.594,54.688,0
1504326099.439,56.641,74.707,23.438,46.875,38.574,0
1504326099.443,46.387,86.426,107.422,40.039,59.082,0
1504326099.446,89.844,59.082,161.621,74.219,70.801,0
1504326099.450,107.422,26.855,46.387,95.215,73.730,0
1504326099.454,73.242,41.992,-22.461,73.242,50.781,0
1504326099.458,30.273,81.543,59.570,60.059,92.285,0
1504326099.462,42.969,66.406,-5.371,75.195,87.402,0
1504326099.466,63.477,64.453,-55.176,86.914,27.344,0
1504326099.470,25.879,23.438,-177.246,65.430,17.090,0
1504326099.474,17.578,78.613,62.500,61.035,50.781,0
1504326099.478,30.762,122.070,388.672,63.965,115.723,0
1504326099.482,29.297,38.086,100.586,65.918,134.277,0
1504326099.485,49.805,22.461,-98.633,70.312,91.797,0
1504326099.489,70.312,102.051,119.141,53.711,58.105,0
1504326099.493,54.688,73.242,200.195,40.039,85.449,0
1504326099.497,51.758,36.133,49.805,29.785,118.652,0
1504326099.501,68.359,89.355,18.066,49.805,102.051,0
1504326099.505,50.293,90.332,91.309,59.570,91.309,0
1504326099.509,48.340,62.012,38.086,40.527,121.094,0
1504326099.513,55.176,29.785,-81.055,45.898,161.133,0
1504326099.517,51.758,18.066,-151.855,45.410,132.324,0
1504326099.521,86.914,104.980,108.887,66.406,100.586,0
1504326099.525,99.609,107.910,288.086,65.430,129.395,0
1504326099.528,95.703,57.617,11.719,46.387,135.254,0
1504326099.532,93.750,97.656,-13.184,66.895,118.652,0
1504326099.536,68.359,98.145,211.426,69.824,133.789,0
1504326099.540,28.320,38.574,72.266,39.062,118.652,0
1504326099.544,17.090,47.363,-6.348,40.039,99.609,0
1504326099.548,25.879,71.289,65.918,57.129,105.469,0
1504326099.552,52.246,58.105,50.781,64.453,93.750,0
1504326099.556,54.688,39.062,-55.664,69.824,103.027,0
1504326099.560,55.176,10.254,-205.078,53.223,94.727,0
1504326099.564,91.309,92.285,18.555,41.504,64.941,0
1504326099.568,89.844,107.910,264.160,38.086,66.406,0
1504326099.571,94.238,16.113,70.312,36.621,80.078,0
1504326099.575,76.172,13.672,2.441,38.574,94.238,0
1504326099.579,38.086,63.477,53.223,34.668,78.613,0
1504326099.583,62.500,95.215,137.695,46.875,80.078,0
1504326099.587,72.266,28.320,-9.766,56.641,66.895,0
1504326099.591,61.035,28.809,-73.242,35.645,47.363,0
1504326099.595,58.594,99.609,177.734,28.320,67.383,0
1504326099.599,25.879,84.473,179.199,29.297,76.660,0
1504326099.603,16.113,7.812,-117.676,26.367,65.430,0
1504326099.607,25.391,54.688,-125.977,31.250,34.668,0
1504326099.610,32.227,124.023,282.227,32.227,51.270,0
1504326099.614,51.270,37.109,210.938,35.156,72.754,0
1504326099.618,80.078,22.461,13.672,43.945,49.316,0
1504326099.622,83.496,41.016,30.762,40.527,23.438,0
1504326099.626,63.965,46.387,74.707,51.758,24.902,0
1504326099.630,73.242,38.574,99.121,72.754,37.109,0
1504326099.634,92.285,6.836,42.969,70.801,36.133,0
1504326099.638,77.637,39.062,20.020,68.848,32.715,0
1504326099.642,62.988,75.684,151.855,54.688,67.383,0
1504326099.646,46.387,14.648,146.973,48.828,82.520,0
1504326099.650,35.645,-58.594,-229.980,62.012,44.922,0
1504326099.653,52.734,39.551,-92.285,54.688,46.875,0
1504326099.657,48.828,98.145,289.551,40.039,67.871,0
1504326099.661,43.457,4.883,84.473,42.480,52.246,0
1504326099.665,79.590,-11.230,-191.895,63.477,34.668,0
1504326099.669,91.797,70.801,41.504,79.590,27.832,0
1504326099.673,40.527,61.523,306.152,58.105,83.008,0
1504326099.677,12.207,-4.883,17.578,52.246,70.312,0
1504326099.681,47.363,19.531,-58.105,79.590,32.227,0
1504326099.685,74.707,81.055,103.027,88.867,27.344,0
1504326099.689,45.410,38.574,81.543,54.688,13.184,0
1504326099.693,66.406,26.855,21.484,48.828,48.828,0
1504326099.696,91.797,24.902,-75.195,43.457,29.297,0
1504326099.700,62.988,27.344,-33.203,9.277,-5.371,0
1504326099.704,30.273,51.758,40.527,11.230,-16.602,0
1504326099.708,-0.977,14.648,-51.270,17.090,2.441,0
1504326099.712,-12.695,26.367,-32.227,7.324,9.277,0
1504326099.716,-0.977,103.027,267.090,4.395,19.531,0
1504326099.720,16.602,41.016,195.312,12.695,11.719,0
1504326099.724,48.828,20.996,-65.430,34.180,6.348,0
1504326099.728,48.340,78.613,13.184,30.762,16.113,0
1504326099.732,42.480,80.566,154.785,46.875,-6.836,0
1504326099.735,53.223,58.594,45.898,69.336,-18.555,0
1504326099.739,25.879,47.363,21.973,38.086,-4.395,0
1504326099.743,26.367,28.809,-12.695,28.809,12.207,0
1504326099.747,48.828,42.969,30.273,31.250,19.531,0
1504326099.751,65.918,34.180,92.773,48.340,15.625,0
1504326099.755,77.637,8.301,-167.480,61.523,16.602,0
1504326099.759,64.941,80.566,13.184,55.664,22.461,0
1504326099.763,40.039,85.938,292.969,67.383,20.996,0
1504326099.767,-1.465,0.488,13.184,68.359,24.902,0
1504326099.771,6.348,15.625,-104.980,67.383,28.809,0
1504326099.775,15.625,102.539,181.641,51.758,64.453,0
1504326099.778,12.207,68.848,172.852,52.734,78.125,0
1504326099.782,21.973,48.340,15.625,56.641,85.449,0
1504326099.786,44.434,29.297,-18.555,53.223,53.711,0
1504326099.790,45.410,5.859,-55.176,46.875,26.367,0
1504326099.794,33.691,48.828,-10.742,27.344,37.598,0
1504326099.798,32.715,15.137,-81.055,19.531,37.109,0
1504326099.802,13.184,28.320,-110.840,17.578,22.949,0
1504326099.806,-3.418,88.867,205.566,28.809,29.785,0
1504326099.810,-8.789,47.852,199.707,43.945,52.734,0
1504326099.814,1.465,53.711,-7.812,46.387,40.527,0
1504326099.818,23.926,87.891,55.664,43.945,49.316,0
1504326099.821,40.039,77.148,167.969,54.688,60.059,0
1504326099.825,38.574,22.949,72.266,52.734,58.105,0
1504326099.829,24.902,24.414,-32.715,32.715,61.523,0
1504326099.833,-1.465,56.152,51.270,19.531,58.594,0
1504326099.837,-6.836,45.898,74.219,11.719,66.406,0
1504326099.841,10.742,45.410,-3.418,17.090,58.105,0
1504326099.845,17.578,19.531,-113.770,28.320,37.598,0
1504326099.849,34.668,67.383,69.824,30.273,29.785,0
1504326099.853,34.180,71.289,239.746,30.762,10.254,0
1504326099.857,38.574,25.391,55.176,25.879,21.484,0
1504326099.860,33.203,25.391,-5.859,25.879,23.926,0
1504326099.864,20.020,56.641,121.582,45.898,18.555,0
1504326099.868,29.297,41.504,122.070,67.383,19.531,0
1504326099.872,33.691,-0.977,-82.031,73.242,-18.066,0
1504326099.876,39.062,39.062,-58.105,67.383,-25.391,0
1504326099.880,44.434,70.312,141.602,61.035,-2.930,0
1504326099.884,41.504,33.691,19.043,56.641,-14.160,0
1504326099.888,58.594,2.930,-144.531,62.500,-16.602,0
1504326099.892,76.172,27.832,-59.570,60.547,-5.859,0
1504326099.896,90.332,116.699,266.113,75.684,11.719,0
1504326099.900,66.895,60.059,249.512,76.660,19.043,0
1504326099.903,35.645,-2.930,-97.656,65.918,-12.695,0
1504326099.907,41.016,52.246,-18.555,70.312,5.859,0
1504326099.911,20.020,84.473,240.234,62.988,48.828,0
1504326099.915,16.602,39.551,109.863,53.223,54.688,0
1504326099.919,41.992,25.879,-4.395,61.035,41.992,0
1504326099.923,27.344,64.453,68.359,45.898,43.945,0
1504326099.927,16.602,51.270,124.023,24.414,78.613,0
1504326099.931,36.621,0.488,-8.301,37.109,104.004,0
1504326099.935,41.504,-14.648,-246.094,41.504,83.008,0
1504326099.939,34.180,74.219,-34.668,25.391,62.500,0
1504326099.943,38.574,100.098,306.641,28.809,86.914,0
1504326099.946,44.922,3.418,79.102,35.156,86.914,0
1504326099.950,51.270,7.324,-70.312,9.277,83.984,0
1504326099.954,46.387,86.914,163.086,7.324,106.445,0
1504326099.958,25.879,67.383,210.449,29.297,121.094,0
1504326099.962,16.602,20.508,-3.906,35.645,96.680,0
1504326099.966,30.762,40.039,1.465,37.109,103.027,0
1504326099.970,23.438,66.895,116.211,36.621,126.465,0
1504326099.974,32.715,48.340,92.773,42.969,114.746,0
1504326099.978,54.199,-19.531,-140.625,54.199,103.027,0
1504326099.982,49.805,25.879,-110.840,42.480,101.074,0
1504326099.985,30.762,105.469,231.445,37.109,95.215,0
1504326099.989,47.363,61.523,194.824,56.641,94.727,0
1504326099.993,54.199,0.000,-103.027,63.477,71.289,0
1504326099.997,16.113,57.617,-20.508,45.898,71.289,0
1504326100.001,10.254,90.820,216.797,50.293,80.078,0
1504326100.005,12.695,35.645,90.820,56.152,65.430,0
1504326100.009,8.301,40.039,20.020,26.367,56.152,0
1504326100.013,29.785,54.688,66.895,26.367,50.293,0
1504326100.017,62.012,44.922,76.172,46.387,23.926,0
1504326100.021,88.379,24.414,36.621,47.363,19.043,0
1504326100.025,85.449,32.227,-43.945,35.645,35.156,0
1504326100.028,72.266,65.918,44.922,50.781,33.203,0
1504326100.032,62.988,70.312,146.973,66.406,7.324,0
1504326100.036,68.359,35.645,30.762,65.918,9.277,0
1504326100.040,61.523,17.090,-136.719,59.082,7.324,0
1504326100.044,23.438,90.820,55.176,49.805,-4.883,0
1504326100.048,3.906,53.223,191.895,54.688,22.461,0
1504326100.052,13.672,-0.977,-17.090,52.246,33.691,0
1504326100.056,49.805,42.969,-36.133,61.035,18.066,0
1504326100.060,77.148,83.496,150.391,64.941,3.418,0
1504326100.064,34.180,54.688,105.469,42.480,-5.371,0
1504326100.068,4.883,39.062,-6.836,41.992,-4.395,0
1504326100.071,5.371,34.668,-47.363,54.199,12.207,0
1504326100.075,17.578,51.758,-1.465,65.918,8.301,0
1504326100.079,41.504,90.332,175.781,63.965,0.000,0
1504326100.083,68.848,14.160,-16.602,42.480,10.742,0
1504326100.087,104.004,33.203,-107.910,29.785,22.461,0
1504326100.091,107.910,118.652,237.793,33.691,26.367,0
1504326100.095,51.270,56.152,167.480,21.973,13.672,0
1504326100.099,25.391,41.016,50.293,24.902,23.438,0
1504326100.103,26.367,63.477,99.609,36.621,33.691,0
1504326100.107,28.320,62.500,150.879,41.504,40.527,0
1504326100.110,59.570,30.762,-5.859,64.941,17.090,0
1504326100.114,65.918,18.066,-104.980,57.129,-8.301,0
1504326100.118,78.125,56.641,8.301,43.945,-9.277,0
1504326100.122,87.402,75.195,77.148,41.992,6.836,0
1504326100.126,69.824,33.203,113.281,38.086,34.668,0
1504326100.130,85.449,0.000,-104.980,56.152,-0.977,0
1504326100.134,56.641,85.938,29.297,57.129,-26.855,0
1504326100.138,10.254,94.727,291.016,50.781,3.418,0
1504326100.142,2.441,25.391,62.500,43.457,10.254,0
1504326100.146,-15.625,32.715,17.578,25.391,32.715,0
1504326100.150,18.555,75.684,135.254,40.039,37.109,0
1504326100.153,50.781,71.777,91.797,61.523,20.508,0
1504326100.157,35.156,28.809,0.977,40.039,22.949,0
1504326100.161,32.715,33.691,18.555,44.922,41.016,0
1504326100.165,36.133,41.016,20.996,62.988,54.199,0
1504326100.169,33.691,40.039,-14.160,54.688,26.367,0
1504326100.173,49.316,-10.254,-121.582,63.477,-2.930,0
1504326100.177,77.148,41.992,-33.691,84.961,17.090,0
1504326100.181,81.543,123.535,298.828,81.543,42.480,0
1504326100.185,78.125,55.664,247.070,59.570,35.645,0
1504326100.189,86.426,6.836,-45.898,56.152,25.391,0
1504326100.193,73.730,45.898,12.695,50.293,28.320,0
1504326100.196,69.824,85.938,260.254,48.828,70.801,0
1504326100.200,69.824,31.738,120.117,44.434,87.402,0
1504326100.204,62.012,38.086,-6.348,39.551,60.059,0
1504326100.208,47.363,63.477,48.828,37.598,50.781,0
1504326100.212,44.434,26.367,25.879,23.438,60.059,0
1504326100.216,53.711,0.977,-18.555,21.484,52.246,0
1504326100.220,85.449,-29.297,-154.297,36.621,16.602,0
1504326100.224,109.375,70.801,86.914,58.105,29.297,0
1504326100.228,99.121,83.984,284.180,46.387,77.148,0
1504326100.232,102.539,-10.254,-57.617,34.180,36.133,0
1504326100.235,114.746,27.832,-65.430,52.734,1.465,0
1504326100.239,98.633,108.887,215.332,73.730,29.785,0
1504326100.243,79.102,83.984,236.328,56.152,55.176,0
1504326100.247,90.820,8.789,6.836,29.297,36.133,0
1504326100.251,109.863,48.340,-8.789,49.805,20.508,0
1504326100.255,88.379,67.871,91.309,61.523,12.695,0
1504326100.259,57.617,11.719,17.578,21.973,13.184,0
1504326100.263,69.336,-30.273,-145.996,6.836,8.789,0
1504326100.267,71.289,15.625,-80.566,24.414,1.953,0
1504326100.271,71.289,102.539,216.309,26.855,-10.742,0
1504326100.275,50.781,63.477,172.852,31.250,-31.250,0
1504326100.278,62.012,51.270,23.926,46.875,-29.785,0
1504326100.282,115.234,76.172,82.520,70.312,-22.949,0
1504326100.286,110.840,42.969,44.922,70.801,-21.484,0
1504326100.290,95.215,40.039,-22.461,49.805,-19.043,0
1504326100.294,98.145,66.895,34.180,33.691,-3.906,0
1504326100.298,73.242,70.801,75.684,35.156,-25.391,0
1504326100.302,76.660,35.156,109.375,47.852,-39.551,0
1504326100.306,72.266,-18.066,-38.574,56.152,-32.715,0
1504326100.310,49.316,6.836,-197.754,70.801,-31.738,0
1504326100.314,33.203,78.125,18.555,62.012,-39.551,0
1504326100.318,21.973,95.215,286.133,29.297,-16.113,0
1504326100.321,21.973,39.551,72.754,27.344,1.953,0
1504326100.325,44.922,41.992,-30.762,43.457,4.395,0
1504326100.329,76.660,68.359,94.238,35.645,6.348,0
1504326100.333,87.402,49.316,94.238,39.062,20.508,0
1504326100.337,57.617,32.227,-19.043,45.410,40.527,0
1504326100.341,21.484,54.199,15.137,52.734,56.152,0
1504326100.345,15.625,44.434,57.129,63.965,68.359,0
1504326100.349,21.484,36.133,-30.273,72.754,32.227,0
1504326100.353,33.691,-23.926,-150.879,58.105,17.090,0
1504326100.357,73.242,4.395,-120.605,39.062,47.852,0
1504326100.360,65.918,127.930,234.375,42.480,50.781,0
1504326100.364,33.203,62.988,228.516,26.855,39.551,0
1504326100.368,54.199,-15.625,-130.371,27.344,-5.859,0
1504326100.372,35.645,10.254,-78.125,36.133,-17.090,0
1504326100.376,4.883,50.781,206.055,35.156,11.719,0
1504326100.380,22.949,24.414,127.930,58.105,34.668,0
1504326100.384,17.090,2.441,-7.324,59.082,14.648,0
1504326100.388,27.344,23.926,39.062,64.941,-0.488,0
1504326100.392,69.824,44.434,143.066,96.191,25.879,0
1504326100.396,39.062,-4.395,69.824,60.059,19.531,0
1504326100.400,18.555,-50.781,-84.473,14.160,-14.160,0
1504326100.403,20.996,-32.715,-107.910,5.859,-41.504,0
1504326100.407,24.414,24.414,67.871,6.836,-18.555,0
1504326100.411,37.109,-4.395,144.043,31.250,17.090,0
1504326100.415,41.016,-73.730,-171.387,56.152,-20.508,0
1504326100.419,36.621,20.020,-23.926,54.199,-47.363,0
1504326100.423,25.879,52.734,312.012,43.945,5.859,0
1504326100.427,18.555,-44.434,68.359,46.387,36.133,0
1504326100.431,8.789,-60.547,-120.117,52.734,-9.277,0
1504326100.435,15.625,28.809,129.883,51.758,-9.766,0
1504326100.439,58.105,-5.859,178.223,63.965,20.020,0
1504326100.443,85.449,-45.898,7.324,71.777,21.973,0
1504326100.446,83.496,-33.691,-97.168,57.617,-4.395,0
1504326100.450,82.031,7.812,21.484,67.383,3.418,0
1504326100.454,47.363,39.062,181.152,75.195,-1.953,0
1504326100.458,29.785,-43.457,-44.922,53.711,-25.879,0
1504326100.462,40.527,-28.809,-79.590,49.316,-0.488,0
1504326100.466,33.203,49.316,152.344,46.875,-6.348,0
1504326100.470,44.922,2.930,146.973,37.598,-22.461,0
1504326100.474,31.250,-8.789,10.254,53.223,-38.086,0
1504326100.478,18.555,47.852,92.285,66.406,-21.484,0
1504326100.482,36.621,41.016,269.043,49.316,1.465,0
1504326100.485,59.570,1.953,126.953,46.875,-15.137,0
1504326100.489,74.707,-14.648,69.824,68.848,-5.859,0
1504326100.493,64.941,-8.789,71.289,69.336,15.137,0
1504326100.497,67.871,26.855,52.246,49.805,-2.930,0
1504326100.501,54.199,-3.906,62.012,47.852,-23.926,0
1504326100.505,45.898,-34.668,-64.941,47.363,-23.438,0
1504326100.509,48.828,42.969,87.402,37.598,-42.969,0
1504326100.513,46.875,61.035,331.055,61.523,-33.203,0
1504326100.517,38.574,2.441,166.992,63.965,-18.066,0
1504326100.521,46.875,-15.137,119.141,41.992,-22.461,0
1504326100.525,77.148,2.441,177.246,38.086,-54.199,0
1504326100.528,57.129,20.020,282.227,35.156,-53.711,0
1504326100.532,44.922,-40.039,126.953,35.645,-78.125,0
1504326100.536,59.570,-25.879,81.543,46.875,-86.426,0
1504326100.540,38.574,-6.836,220.703,52.246,-48.828,0
1504326100.544,22.461,8.789,246.094,57.129,-53.711,0
1504326100.548,24.414,-40.039,101.074,65.430,-90.332,0
1504326100.552,49.316,-37.598,70.801,57.617,-93.750,0
1504326100.556,66.406,72.266,483.887,49.316,-32.715,0
1504326100.560,66.406,21.484,456.055,58.594,-15.137,0
1504326100.564,65.430,-10.742,272.949,81.543,-50.781,0
1504326100.568,54.199,8.301,347.656,63.965,-47.852,0
1504326100.571,45.898,-16.113,418.457,38.086,-26.367,0
1504326100.575,70.801,-81.055,336.426,45.898,-24.902,0
1504326100.579,82.520,-276.855,311.035,63.477,-1.465,0
1504326100.583,63.477,-694.824,207.031,69.336,-19.043,0
1504326100.587,37.598,-955.566,60.059,47.363,-68.848,0
1504326100.591,23.926,-961.426,124.023,33.691,-75.684,0
1504326100.595,35.156,-963.379,-37.109,44.434,-102.539,0
1504326100.599,39.551,-951.660,107.910,52.246,-82.520,0
1504326100.603,32.227,-954.102,381.348,40.527,-44.922,0
1504326100.607,49.316,-977.539,116.211,27.832,-56.152,0
1504326100.610,52.734,-925.293,-6.836,37.598,-53.223,0
1504326100.614,37.598,-863.770,208.008,55.176,-46.875,0
1504326100.618,53.223,-854.492,285.645,61.523,-32.715,0
1504326100.622,66.406,-856.934,12.207,62.500,-24.414,0
1504326100.626,28.320,-790.527,-408.203,62.500,-3.418,0
1504326100.630,47.363,-772.461,-636.719,60.547,20.508,0
1504326100.634,81.055,-799.805,-772.949,53.711,-38.086,0
1504326100.638,85.938,-783.203,-766.602,69.336,-45.898,0
1504326100.642,91.309,-722.656,-651.367,67.871,-12.207,0
1504326100.646,56.152,-593.262,-433.105,52.246,-15.625,0
1504326100.650,65.918,-577.637,-395.508,63.965,21.484,0
1504326100.653,79.102,-652.832,-590.332,52.246,12.695,0
1504326100.657,92.285,-602.539,-527.832,47.852,-31.250,0
1504326100.661,82.031,-520.508,-334.961,48.828,-1.465,0
1504326100.665,38.574,-551.270,-395.508,36.133,41.016,0
1504326100.669,41.992,-540.527,-442.383,30.762,4.883,0
1504326100.673,65.430,-466.309,-332.031,55.664,12.695,0
1504326100.677,65.918,-468.262,-273.926,78.125,35.645,0
1504326100.681,59.082,-498.535,-319.824,79.590,13.672,0
1504326100.685,60.547,-476.074,-349.121,81.543,-17.578,0
1504326100.689,49.805,-372.070,-115.723,55.176,-6.836,0
1504326100.693,70.312,-354.004,34.180,54.199,57.129,0
1504326100.696,75.195,-425.781,-127.930,59.570,90.332,0
1504326100.700,29.297,-444.824,-249.512,41.504,69.824,0
1504326100.704,45.410,-373.535,-162.109,32.227,42.969,0
1504326100.708,62.500,-303.223,-6.836,37.109,76.172,0
1504326100.712,40.527,-398.926,-149.414,46.875,79.102,0
1504326100.716,37.598,-390.625,-176.270,55.176,47.852,0
1504326100.720,67.871,-274.414,31.738,60.059,84.961,0
1504326100.724,96.191,-310.547,-4.395,52.246,117.188,0
1504326100.728,94.727,-398.438,-205.078,49.805,120.605,0
1504326100.732,90.820,-318.848,-167.969,51.758,96.680,0
1504326100.735,89.355,-189.941,104.980,49.805,93.262,0
1504326100.739,103.027,-244.141,64.941,94.238,119.629,0
1504326100.743,71.289,-257.812,-50.781,92.285,90.332,0
1504326100.747,-7.324,-220.703,16.602,30.762,103.027,0
1504326100.751,-17.090,-240.723,17.090,29.785,121.094,0
1504326100.755,-3.418,-246.582,-31.250,39.062,109.863,0
1504326100.759,10.742,-260.742,-93.750,20.020,95.215,0
1504326100.763,47.852,-224.609,-71.289,16.602,70.312,0
1504326100.767,105.469,-166.992,64.941,45.898,77.148,0
1504326100.771,129.395,-215.820,40.039,41.504,90.820,0
1504326100.775,61.523,-302.246,-187.012,14.160,55.664,0
1504326100.778,7.324,-180.176,-52.246,27.832,41.016,0
1504326100.782,15.625,-91.309,193.359,42.480,76.172,0
1504326100.786,29.297,-219.238,-1.953,39.551,80.566,0
1504326100.790,74.707,-205.078,-60.547,53.711,59.570,0
1504326100.794,102.051,-90.332,121.094,51.758,64.941,0
1504326100.798,91.797,-141.602,85.938,42.969,68.848,0
1504326100.802,112.793,-202.637,-51.758,50.293,24.902,0
1504326100.806,111.328,-147.461,35.645,49.316,17.578,0
1504326100.810,91.309,-93.750,159.180,58.594,68.359,0
1504326100.814,76.172,-133.301,130.371,47.852,83.984,0
1504326100.818,71.289,-160.645,84.473,49.805,83.008,0
1504326100.821,50.781,-142.090,68.848,63.477,70.312,0
1504326100.825,70.801,-101.562,140.137,60.059,66.406,0
1504326100.829,112.305,-60.547,223.145,60.059,84.473,0
1504326100.833,82.031,-162.598,48.340,73.242,72.754,0
1504326100.837,56.152,-128.418,29.785,74.219,59.570,0
1504326100.841,65.918,11.230,276.855,62.012,89.844,0
1504326100.845,88.379,-67.383,202.637,66.895,108.398,0
1504326100.849,104.980,-124.512,40.039,58.105,90.820,0
1504326100.853,89.355,-51.270,125.977,64.941,92.285,0
1504326100.857,43.457,-36.621,220.703,66.895,124.023,0
1504326100.860,44.434,-91.797,127.441,54.688,112.305,0
1504326100.864,83.496,-110.352,94.238,51.270,70.801,0
1504326100.868,87.891,-87.402,113.770,51.758,67.383,0
1504326100.872,71.777,-40.527,148.438,41.504,99.121,0
1504326100.876,56.641,-81.543,90.332,6.836,70.801,0
1504326100.880,53.711,-134.277,-33.203,-10.254,26.855,0
1504326100.884,25.879,-1.953,149.414,1.465,40.527,0
1504326100.888,-16.113,11.719,284.668,23.438,95.215,0
1504326100.892,4.395,-138.672,38.574,25.879,101.074,0
1504326100.896,44.434,-94.238,27.344,23.926,56.641,0
1504326100.900,63.477,19.531,237.305,29.785,58.594,0
1504326100.903,67.383,-41.992,180.176,23.438,63.477,0
1504326100.907,60.059,-62.012,87.891,39.062,56.641,0
1504326100.911,60.059,-31.738,122.070,55.664,72.754,0
1504326100.915,50.781,-53.223,98.633,40.527,82.520,0
1504326100.919,33.203,0.488,161.133,41.504,95.215,0
1504326100.923,19.043,-80.078,37.109,55.664,61.035,0
1504326100.927,-6.348,-56.641,26.855,54.199,45.410,0
1504326100.931,-3.418,56.641,243.652,49.805,64.453,0
1504326100.935,29.297,-32.227,147.461,52.734,78.613,0
1504326100.939,45.410,-44.922,81.543,51.758,80.566,0
1504326100.943,72.754,-0.977,165.039,48.828,73.730,0
1504326100.946,83.008,-16.602,174.805,49.316,56.152,0
1504326100.950,67.383,-41.992,138.672,72.266,56.641,0
1504326100.954,6.348,-31.738,121.094,80.566,79.102,0
1504326100.958,-44.434,-4.395,148.438,45.410,70.312,0
1504326100.962,-1.465,-43.945,104.980,26.855,62.012,0
1504326100.966,59.570,-60.059,70.801,27.832,54.199,0
1504326100.970,95.703,-66.406,19.531,20.996,27.344,0
1504326100.974,105.469,41.504,175.781,28.320,29.297,0
1504326100.978,30.273,47.363,289.062,27.344,78.125,0
1504326100.982,-45.410,-82.520,71.289,14.648,77.637,0
1504326100.985,-32.227,-69.336,25.879,40.527,53.711,0
1504326100.989,28.809,8.301,136.230,87.402,47.852,0
1504326100.993,56.152,-0.977,171.875,68.359,76.172,0
1504326100.997,31.738,-89.355,22.949,37.598,74.707,0
1504326101.001,11.719,-59.082,24.414,43.945,34.180,0
1504326101.005,0.977,-21.484,157.227,27.832,49.316,0
1504326101.009,16.113,-72.754,77.148,32.227,71.289,0
1504326101.013,37.109,-110.840,-5.371,46.875,68.848,0
1504326101.017,53.711,-65.918,31.738,27.832,32.227,0
1504326101.021,65.430,49.316,231.934,19.043,27.832,0
1504326101.025,77.148,-20.996,187.500,41.504,59.082,0
1504326101.028,51.758,-64.453,58.594,39.062,75.195,0
1504326101.032,23.438,-19.043,96.191,38.574,71.289,0
1504326101.036,68.359,-9.277,138.184,76.172,41.504,0
1504326101.040,91.797,-53.223,84.473,72.754,37.109,0
1504326101.044,52.734,-62.988,64.941,40.039,44.434,0
1504326101.048,20.020,-8.301,134.277,33.203,67.871,0
1504326101.052,-3.418,-42.480,105.957,54.688,76.660,0
1504326101.056,26.855,-98.145,63.965,54.199,49.316,0
1504326101.060,60.547,-95.703,63.477,26.367,32.715,0
1504326101.064,9.766,11.719,230.957,11.719,21.973,0
1504326101.068,-13.672,56.152,362.305,29.785,26.855,0
1504326101.071,-3.906,-70.312,162.598,33.203,13.672,0
1504326101.075,48.340,-50.293,125.488,25.879,6.836,0
1504326101.079,74.219,52.246,273.926,18.555,6.348,0
1504326101.083,38.086,11.719,238.770,17.578,3.906,0
1504326101.087,26.367,-14.160,167.969,49.805,32.715,0
1504326101.091,24.414,-0.977,172.363,52.734,54.688,0
1504326101.095,29.785,0.977,175.781,29.297,42.969,0
1504326101.099,60.547,-1.953,167.480,35.645,53.711,0
1504326101.103,53.223,-100.098,-3.906,53.223,32.227,0
1504326101.107,15.137,-33.203,45.410,52.246,16.113,0
1504326101.110,63.965,92.773,280.762,75.684,37.109,0
1504326101.114,51.270,-1.465,181.152,89.844,46.875,0
1504326101.118,6.348,-100.586,-42.969,48.340,19.043,0
1504326101.122,60.059,5.371,97.656,44.922,23.438,0
1504326101.126,68.359,87.891,282.227,39.062,77.148,0
1504326101.130,49.805,-18.555,109.375,21.484,80.566,0
1504326101.134,63.477,-32.227,48.340,36.621,63.477,0
1504326101.138,41.504,7.812,99.121,41.992,49.805,0
1504326101.142,35.645,1.465,113.281,31.738,57.129,0
1504326101.146,67.871,-37.109,62.500,33.691,62.012,0
1504326101.150,60.547,-71.777,-31.250,23.926,32.227,0
1504326101.153,34.180,-3.906,57.617,30.273,22.949,0
1504326101.157,56.152,29.297,145.508,44.434,29.297,0
1504326101.161,74.219,-69.336,38.574,49.316,26.855,0
1504326101.165,52.734,-105.957,-88.867,62.012,-7.812,0
1504326101.169,29.785,41.016,116.211,62.012,-24.414,0
1504326101.173,21.973,8.301,152.832,39.062,-15.137,0
1504326101.177,53.223,-87.402,-14.160,39.062,6.836,0
1504326101.181,109.863,-15.137,42.969,61.035,-3.418,0
1504326101.185,113.281,83.496,207.031,64.453,-1.953,0
1504326101.189,67.871,17.090,157.227,34.668,17.578,0
1504326101.193,50.781,-39.062,24.902,30.273,13.184,0
1504326101.196,19.531,-19.043,37.109,52.246,30.762,0
1504326101.200,-9.766,17.578,107.422,28.809,34.668,0
1504326101.204,34.180,61.523,202.148,26.367,66.895,0
1504326101.208,67.383,-53.711,20.996,51.758,56.641,0
1504326101.212,25.879,-36.621,-7.812,34.668,25.879,0
1504326101.216,-6.836,91.309,229.980,21.484,62.500,0
1504326101.220,26.855,10.742,135.254,42.480,75.684,0
1504326101.224,52.246,3.906,71.777,50.293,69.336,0
1504326101.228,37.109,38.086,101.562,52.246,64.941,0
1504326101.232,34.180,4.883,97.168,41.504,75.684,0
1504326101.235,38.086,-30.762,24.414,24.414,88.379,0
1504326101.239,28.320,26.367,64.941,23.438,106.445,0
1504326101.243,43.945,43.457,118.164,24.414,122.559,0
1504326101.247,84.473,16.602,95.703,25.879,114.746,0
1504326101.251,82.520,-7.324,67.871,24.902,112.305,0
1504326101.255,37.598,6.836,74.707,62.500,116.699,0
1504326101.259,14.648,66.895,186.035,78.613,139.160,0
1504326101.263,38.574,35.645,189.941,30.273,157.227,0
1504326101.267,73.730,-65.430,68.848,20.020,144.531,0
1504326101.271,57.129,-37.109,104.492,48.828,158.691,0
1504326101.275,38.574,67.383,265.137,52.734,171.875,0
1504326101.278,65.918,42.480,261.719,50.781,184.570,0
1504326101.282,62.988,-54.688,87.402,45.898,167.480,0
1504326101.286,20.020,-38.086,96.191,62.988,145.020,0
1504326101.290,55.176,49.805,249.512,84.473,148.438,0
1504326101.294,38.086,20.996,203.613,29.297,128.418,0
1504326101.298,1.953,-10.254,145.508,13.672,147.949,0
1504326101.302,33.203,30.762,178.711,26.367,150.879,0
1504326101.306,62.500,54.199,253.418,12.695,145.996,0
1504326101.310,68.359,25.391,228.516,36.621,180.664,0
1504326101.314,30.273,-80.566,30.273,60.547,151.367,0
1504326101.318,-11.230,-19.531,76.660,56.641,112.793,0
1504326101.321,13.184,97.656,308.105,49.805,140.137,0
1504326101.325,74.219,-8.301,193.848,47.852,145.020,0
1504326101.329,139.648,-2.441,165.039,41.016,151.367,0
1504326101.333,101.562,35.156,229.492,38.574,137.207,0
1504326101.337,16.602,-2.441,196.777,48.340,138.672,0
1504326101.341,30.273,-19.531,159.180,61.523,148.926,0
1504326101.345,48.340,32.227,216.309,57.617,142.090,0
1504326101.349,49.316,59.570,271.484,31.250,169.922,0
1504326101.353,35.645,21.484,214.844,31.250,176.270,0
1504326101.357,57.617,-4.395,168.945,48.828,176.758,0
1504326101.360,55.176,-15.137,158.203,40.039,168.945,0
1504326101.364,62.500,43.457,240.723,43.457,188.965,0
1504326101.368,139.648,13.184,229.492,65.918,194.824,0
1504326101.372,98.633,-77.148,118.164,55.176,200.684,0
1504326101.376,19.043,-40.039,57.617,42.480,197.266,0
1504326101.380,32.227,83.984,254.395,41.016,187.500,0
1504326101.384,44.434,21.484,238.770,42.480,207.520,0
1504326101.388,33.203,-53.223,66.406,63.477,178.223,0
1504326101.392,27.832,8.301,142.090,51.758,161.621,0
1504326101.396,76.660,108.398,336.426,38.574,169.434,0
1504326101.400,138.672,31.250,269.043,57.617,166.992,0
1504326101.403,42.480,-44.922,89.355,43.457,147.461,0
1504326101.407,-44.922,8.789,147.949,41.992,155.273,0
1504326101.411,0.977,61.523,268.066,61.035,186.035,0
1504326101.415,48.828,20.508,201.660,53.223,189.941,0
1504326101.419,66.895,0.977,124.512,58.105,162.109,0
1504326101.423,89.355,58.594,210.449,67.871,146.484,0
1504326101.427,110.840,31.738,249.512,53.223,166.016,0
1504326101.431,90.820,-32.227,134.277,45.410,181.641,0
1504326101.435,73.730,-44.434,33.691,34.668,150.391,0
1504326101.439,82.520,59.570,188.477,26.367,151.855,0
1504326101.443,0.977,71.777,289.062,37.598,195.312,0
1504326101.446,-48.828,-41.016,102.539,51.758,183.594,0
1504326101.450,23.438,-24.414,102.539,47.363,166.992,0
1504326101.454,53.223,40.039,137.207,43.457,172.363,0
1504326101.458,2.441,7.324,482.422,56.641,166.504,0
1504326101.462,-8.301,-25.391,989.746,60.059,137.207,0
1504326101.466,29.785,0.488,-999.512,54.688,144.043,0
1504326101.470,32.227,15.625,986.328,50.781,147.949,0
1504326101.474,28.809,30.762,-997.559,50.293,143.555,0
1504326101.478,24.902,-68.848,999.512,29.785,136.719,0
1504326101.482,36.133,3.418,999.023,23.926,120.605,0
1504326101.485,106.445,130.371,995.605,36.621,121.094,0
1504326101.489,104.980,40.039,-985.352,28.809,139.160,0
1504326101.493,47.852,-38.086,918.945,31.738,126.465,0
1504326101.497,28.320,4.883,910.156,32.227,99.609,0
1504326101.501,39.551,62.500,-974.121,53.223,101.562,0
1504326101.505,16.113,-0.488,920.898,41.992,79.102,0
1504326101.509,21.973,3.906,812.500,31.738,58.105,0
1504326101.513,35.645,40.039,836.914,49.805,54.199,0
1504326101.517,20.508,14.160,784.668,36.621,36.133,0
1504326101.521,52.734,-28.320,688.965,25.391,17.090,0
1504326101.525,87.402,-48.828,590.332,20.996,0.488,0
1504326101.528,47.852,-2.441,606.445,35.156,-1.465,0
1504326101.532,34.668,59.570,711.914,44.922,22.949,0
1504326101.536,32.227,-13.672,623.535,45.898,4.395,0
1504326101.540,11.230,-83.008,426.270,51.758,-42.480,0
1504326101.544,20.020,70.801,597.168,34.668,-35.645,0
1504326101.548,11.719,78.613,679.199,35.156,-8.789,0
1504326101.552,12.695,-55.664,459.961,46.875,-15.137,0
1504326101.556,28.320,-43.945,416.016,20.508,-23.438,0
1504326101.560,75.684,50.781,520.996,19.043,-26.367,0
1504326101.564,105.469,22.949,491.211,23.438,-2.930,0
1504326101.568,51.270,-25.879,380.371,20.020,11.719,0
1504326101.571,2.441,-17.090,341.309,35.645,-0.977,0
1504326101.575,-4.395,31.738,407.227,42.480,14.648,0
1504326101.579,18.555,76.172,495.605,44.434,62.012,0
1504326101.583,79.590,-34.668,331.543,46.387,82.031,0
1504326101.587,62.012,-63.477,212.891,31.250,56.641,0
1504326101.591,19.531,85.449,424.805,27.832,59.082,0
1504326101.595,34.668,60.547,458.984,42.969,102.539,0
1504326101.599,-2.930,-35.645,251.465,36.621,97.168,0
1504326101.603,-18.066,42.969,304.199,45.898,90.820,0
1504326101.607,21.973,66.406,394.043,65.430,129.883,0
1504326101.610,13.672,4.395,273.926,40.527,144.531,0
1504326101.614,9.766,-12.207,238.281,18.555,142.090,0
1504326101.618,38.086,-13.184,210.449,36.621,131.836,0
1504326101.622,72.266,66.895,295.410,62.012,163.574,0
1504326101.626,83.008,26.855,299.316,52.246,187.500,0
1504326101.630,53.223,-65.430,104.492,46.875,152.832,0
1504326101.634,64.453,78.613,261.719,66.406,157.227,0
1504326101.638,63.477,76.660,333.984,60.059,169.922,0
1504326101.642,28.320,-33.203,139.160,51.758,140.625,0
1504326101.646,49.316,-44.922,79.590,57.129,116.211,0
1504326101.650,111.816,30.273,198.730,81.055,111.816,0
1504326101.653,133.789,51.270,268.555,65.430,134.277,0
1504326101.657,70.801,-45.898,86.914,34.180,119.629,0
1504326101.661,-5.859,-31.738,59.082,32.715,85.938,0
1504326101.665,-5.859,19.531,148.438,23.438,94.238,0
1504326101.669,10.742,61.523,203.613,11.719,105.957,0
1504326101.673,-2.441,-25.879,84.961,20.996,81.543,0
1504326101.677,6.836,-23.926,48.828,41.992,38.086,0
1504326101.681,28.320,123.047,297.363,57.617,49.805,0
1504326101.685,23.438,47.852,222.168,56.152,64.941,0
1504326101.689,5.859,30.762,129.883,40.039,58.594,0
1504326101.693,-5.371,62.500,171.387,23.926,49.316,0
1504326101.696,3.418,37.598,168.945,12.695,29.297,0
1504326101.700,-8.789,8.301,105.957,11.719,9.766,0
1504326101.704,10.742,-8.301,68.848,5.859,-0.488,0
1504326101.708,81.543,0.000,67.383,13.184,-15.137,0
1504326101.712,82.031,29.297,86.426,31.250,-23.926,0
1504326101.716,49.316,37.109,130.859,42.969,-6.836,0
1504326101.720,34.180,-29.785,19.043,48.828,-19.043,0
1504326101.724,14.648,63.965,113.281,46.875,-21.973,0
1504326101.728,17.090,127.441,270.508,47.852,3.418,0
1504326101.732,52.246,-17.090,83.496,44.434,22.461,0
1504326101.735,77.148,-27.344,3.906,35.645,6.348,0
1504326101.739,58.105,99.609,167.969,30.273,2.441,0
1504326101.743,17.578,54.688,161.133,30.273,57.129,0
1504326101.747,-17.090,-5.371,42.969,39.062,74.219,0
1504326101.751,-17.090,32.715,66.895,53.223,52.246,0
1504326101.755,5.859,41.016,116.211,43.457,58.105,0
1504326101.759,34.668,16.602,75.684,43.457,82.520,0
1504326101.763,70.801,-33.203,-0.488,59.570,78.613,0
1504326101.767,35.645,10.742,36.621,41.016,43.945,0
1504326101.771,0.977,130.859,230.957,20.996,65.430,0
1504326101.775,-3.906,52.734,165.527,13.672,93.750,0
1504326101.778,-10.742,-11.230,10.254,18.555,109.863,0
1504326101.782,-8.301,27.832,25.879,28.320,114.746,0
1504326101.786,29.785,67.871,134.277,17.090,107.910,0
1504326101.790,63.965,32.227,112.305,15.625,149.414,0
1504326101.794,57.617,12.207,63.477,29.297,166.016,0
1504326101.798,32.227,37.109,72.754,32.715,139.160,0
1504326101.802,0.000,41.016,109.863,36.133,168.945,0
1504326101.806,1.953,-26.367,22.461,31.250,187.988,0
1504326101.810,-2.930,-46.875,-83.496,7.324,155.762,0
1504326101.814,-11.719,72.754,101.562,12.207,174.805,0
1504326101.818,22.461,93.750,226.562,25.879,222.656,0
1504326101.821,32.227,-32.227,54.688,23.926,259.766,0
1504326101.825,36.621,-21.484,-7.812,29.297,266.602,0
1504326101.829,43.945,65.918,115.723,20.020,276.855,0
1504326101.833,20.020,47.363,136.230,20.508,292.969,0
1504326101.837,-41.992,-41.504,5.859,28.809,302.734,0
1504326101.841,-60.059,-39.062,-25.391,28.809,299.805,0
1504326101.845,-16.602,72.754,140.137,32.227,327.637,0
1504326101.849,-6.836,25.879,108.887,30.762,345.703,0
1504326101.853,7.812,-99.121,-104.004,25.391,305.176,0
1504326101.857,36.133,2.441,-11.719,10.742,299.805,0
1504326101.860,39.551,127.441,227.051,14.160,344.238,0
1504326101.864,37.598,21.973,92.773,26.855,329.590,0
1504326101.868,6.836,9.277,11.719,19.043,298.340,0
1504326101.872,-46.387,46.387,67.383,10.742,288.086,0
1504326101.876,-46.387,33.203,93.262,7.812,266.113,0
1504326101.880,-4.395,-0.488,69.336,10.742,278.809,0
1504326101.884,30.273,-19.531,17.090,16.113,280.762,0
1504326101.888,57.617,20.996,50.293,28.320,241.211,0
1504326101.892,91.797,33.691,84.961,32.227,214.355,0
1504326101.896,103.516,-7.324,41.992,30.273,200.195,0
1504326101.900,40.527,-67.871,-83.496,48.340,191.406,0
1504326101.903,-11.719,33.203,16.113,65.430,161.621,0
1504326101.907,-16.113,109.863,201.660,82.031,168.457,0
1504326101.911,-3.906,-21.484,32.715,62.012,160.645,0
1504326101.915,40.039,-18.555,-49.805,38.086,127.441,0
1504326101.919,85.449,114.746,145.508,65.918,145.020,0
1504326101.923,95.703,65.430,145.020,70.312,136.230,0
1504326101.927,86.426,7.324,34.180,40.039,119.141,0
1504326101.931,62.500,24.902,36.133,19.531,120.117,0
1504326101.935,21.973,58.105,87.402,27.344,107.910,0
1504326101.939,14.648,51.758,95.215,46.387,118.652,0
1504326101.943,57.129,9.766,25.391,69.336,118.164,0
1504326101.946,97.168,-20.508,-2.930,72.266,89.355,0
1504326101.950,73.730,48.828,89.355,34.180,76.172,0
1504326101.954,52.246,66.406,128.906,41.992,84.473,0
1504326101.958,27.344,6.348,19.043,43.457,79.102,0
1504326101.962,12.695,39.062,18.066,27.832,57.617,0
1504326101.966,36.133,52.734,108.887,40.527,68.848,0
1504326101.970,40.527,22.461,78.613,45.410,63.477,0
1504326101.974,33.203,-65.430,-96.680,31.738,21.973,0
1504326101.978,51.758,12.207,-12.695,32.715,14.648,0
1504326101.982,62.012,136.230,221.680,34.668,70.312,0
1504326101.985,82.520,18.555,67.871,31.250,83.496,0
1504326101.989,86.426,-21.484,-61.523,38.574,41.016,0
1504326101.993,35.645,53.711,41.504,37.598,56.641,0
1504326101.997,8.301,53.711,80.078,44.434,77.148,0
1504326102.001,23.926,6.348,22.949,55.176,73.730,0
1504326102.005,51.270,-16.602,-31.738,56.641,81.055,0
1504326102.009,64.941,95.215,107.910,52.246,112.305,0
1504326102.013,52.246,109.375,195.312,52.734,152.344,0
1504326102.017,55.664,-30.762,-1.465,50.781,152.832,0
1504326102.021,75.684,-6.836,-14.160,61.035,148.926,0
1504326102.025,71.777,115.234,177.246,64.453,189.453,0
1504326102.028,79.102,44.922,113.770,36.133,224.121,0
1504326102.032,80.566,-9.277,-11.719,40.527,207.031,0
1504326102.036,35.156,32.715,49.805,61.523,220.703,0
1504326102.040,11.719,9.766,50.781,48.828,275.879,0
1504326102.044,38.574,40.039,81.055,31.250,294.434,0
1504326102.048,80.566,-23.438,5.371,26.855,296.875,0
1504326102.052,102.051,-21.973,-54.199,26.367,286.621,0
1504326102.056,45.898,134.277,210.449,34.180,348.633,0
1504326102.060,15.137,9.766,84.961,45.410,415.527,0
1504326102.064,28.320,-1.465,-26.367,46.875,404.785,0
1504326102.068,29.785,76.172,117.188,39.551,438.477,0
1504326102.071,52.246,41.992,116.699,35.156,480.469,0
1504326102.075,76.660,1.953,36.621,39.551,495.605,0
1504326102.079,58.105,8.789,-7.324,37.109,502.930,0
1504326102.083,21.484,49.805,60.547,35.156,513.184,0
1504326102.087,16.602,12.207,43.457,23.926,542.480,0
1504326102.091,10.742,15.625,51.270,33.203,582.031,0
1504326102.095,-1.465,-27.832,-25.391,43.457,578.613,0
1504326102.099,4.395,55.664,59.570,32.227,580.566,0
1504326102.103,34.668,90.332,169.434,34.180,599.609,0
1504326102.107,67.383,-24.414,2.930,28.320,583.984,0
1504326102.110,57.617,-20.996,-26.855,20.508,545.898,0
1504326102.114,38.574,60.547,96.680,19.531,522.461,0
1504326102.118,38.574,28.320,80.566,29.297,491.211,0
1504326102.122,28.320,-58.105,-67.383,34.180,451.660,0
1504326102.126,10.742,1.953,-18.066,18.555,447.266,0
1504326102.130,10.742,46.875,90.820,17.090,463.867,0
1504326102.134,45.898,0.000,28.320,35.156,479.004,0
1504326102.138,60.547,-29.785,-15.625,49.316,494.629,0
1504326102.142,37.598,7.812,8.789,28.320,472.168,0
1504326102.146,45.410,111.816,146.484,19.043,458.008,0
1504326102.150,42.480,40.039,89.844,33.203,454.102,0
1504326102.153,10.742,17.578,13.672,17.578,431.152,0
1504326102.157,-4.883,46.387,51.270,8.301,457.520,0
1504326102.161,16.113,49.805,81.055,8.301,457.031,0
1504326102.165,18.066,6.836,19.043,15.625,439.453,0
1504326102.169,13.672,7.324,2.930,35.156,418.945,0
1504326102.173,54.199,62.012,92.285,60.547,396.973,0
1504326102.177,60.059,31.250,94.727,74.707,419.922,0
1504326102.181,16.602,-28.809,-15.625,41.016,415.039,0
1504326102.185,-15.625,-66.406,-138.672,10.254,389.160,0
1504326102.189,-16.113,43.457,22.461,12.695,387.695,0
1504326102.193,3.418,101.562,167.480,18.066,409.668,0
1504326102.196,8.301,-37.598,-19.531,18.066,430.664,0
1504326102.200,30.273,-26.855,-64.941,28.320,434.570,0
1504326102.204,60.059,78.125,80.566,35.156,427.734,0
1504326102.208,92.773,32.227,54.199,32.227,418.945,0
1504326102.212,128.418,-17.578,-46.387,43.945,399.902,0
1504326102.216,92.285,7.324,-5.859,55.664,396.973,0
1504326102.220,46.387,45.410,63.477,56.152,397.461,0
1504326102.224,25.391,36.133,55.176,54.688,388.184,0
1504326102.228,34.180,-68.359,-109.375,52.734,365.234,0
1504326102.232,42.969,-2.930,-72.266,52.734,321.777,0
1504326102.235,26.855,103.516,145.508,47.363,324.219,0
1504326102.239,29.297,31.250,80.566,42.480,326.172,0
1504326102.243,29.297,-12.695,-40.039,38.574,292.969,0
1504326102.247,19.531,28.320,9.766,35.156,272.461,0
1504326102.251,13.672,86.426,159.180,38.086,299.316,0
1504326102.255,18.066,21.484,71.289,35.156,309.570,0
1504326102.259,10.254,6.348,-5.371,22.461,254.883,0
1504326102.263,23.438,41.504,51.758,17.090,226.562,0
1504326102.267,46.387,41.016,80.078,23.438,230.469,0
1504326102.271,61.523,2.930,22.461,36.621,210.938,0
1504326102.275,78.125,-15.625,-33.691,47.852,212.891,0
1504326102.278,59.570,55.176,36.133,47.852,205.566,0
1504326102.282,50.293,91.797,127.441,58.105,195.801,0
1504326102.286,70.312,-5.371,40.039,58.594,201.172,0
1504326102.290,57.129,-62.500,-102.051,49.805,180.176,0
1504326102.294,43.945,76.660,63.477,54.688,171.387,0
1504326102.298,78.613,80.078,127.441,65.430,184.570,0
1504326102.302,84.961,-39.551,-51.270,54.199,159.180,0
1504326102.306,53.711,-15.137,-41.016,51.270,136.230,0
1504326102.310,48.828,76.660,105.957,53.223,141.602,0
1504326102.314,76.660,19.043,56.641,48.340,129.883,0
1504326102.318,64.941,-17.578,-22.949,51.758,117.188,0
1504326102.321,9.766,-11.230,-41.016,58.594,98.633,0
1504326102.325,-2.930,11.719,-8.301,67.383,86.914,0
1504326102.329,18.066,56.641,86.426,79.102,94.727,0
1504326102.333,44.434,-31.738,-21.973,65.918,91.797,0
1504326102.337,55.176,-16.113,-39.062,37.109,70.312,0
1504326102.341,91.309,99.121,167.480,68.359,70.801,0
1504326102.345,103.027,6.836,53.223,71.289,44.922,0
1504326102.349,80.566,12.207,1.465,36.621,33.691,0
1504326102.353,53.223,58.594,63.965,37.598,32.715,0
1504326102.357,2.441,9.277,0.977,28.809,18.555,0
1504326102.360,-4.883,-7.812,-41.504,21.484,-1.465,0
1504326102.364,3.418,24.414,-11.230,24.902,-15.137,0
1504326102.368,25.879,17.090,-42.969,35.645,-41.992,0
1504326102.372,58.105,25.391,-25.391,41.016,-77.637,0
1504326102.376,42.480,8.789,-20.508,37.598,-91.309,0
1504326102.380,46.387,10.742,-50.781,44.922,-129.395,0
1504326102.384,68.359,79.102,27.344,46.387,-145.508,0
1504326102.388,39.551,46.875,-7.812,19.043,-143.066,0
1504326102.392,-9.766,-52.734,-200.195,17.578,-169.922,0
1504326102.396,-19.531,-28.320,-247.070,41.016,-227.051,0
1504326102.400,17.578,102.051,-43.457,43.457,-231.934,0
1504326102.403,28.809,35.156,-76.172,36.621,-214.844,0
1504326102.407,47.363,-2.441,-200.684,38.574,-224.609,0
1504326102.411,83.008,24.902,-175.781,56.641,-198.730,0
1504326102.415,55.176,-9.277,-223.633,67.871,-187.988,0
1504326102.419,28.320,11.719,-293.945,64.453,-207.031,0
1504326102.423,36.621,-18.555,-380.859,62.988,-192.871,0
1504326102.427,44.922,-1.465,-522.461,59.570,-208.984,0
1504326102.431,35.156,113.770,-689.453,48.340,-209.961,0
1504326102.435,28.320,56.152,-937.012,38.574,-165.039,0
1504326102.439,31.738,-29.297,-972.168,38.574,-208.984,0
1504326102.443,35.156,43.945,-958.984,51.758,-224.121,0
1504326102.446,35.645,82.031,-968.262,44.922,-186.523,0
1504326102.450,19.043,1.953,-967.773,39.551,-177.734,0
1504326102.454,6.836,13.672,-965.332,51.270,-176.758,0
1504326102.458,30.273,35.645,-962.891,50.293,-169.434,0
1504326102.462,72.754,17.578,-964.355,38.574,-145.020,0
1504326102.466,77.637,23.438,-947.266,35.645,-135.742,0
1504326102.470,38.574,-12.695,-947.266,39.551,-167.480,0
1504326102.474,18.066,41.992,-869.141,35.645,-180.176,0
1504326102.478,33.203,93.262,-691.406,38.086,-132.812,0
1504326102.482,48.828,-4.883,-750.488,48.828,-104.004,0
1504326102.485,55.664,-16.602,-794.922,54.199,-132.812,0
1504326102.489,75.684,103.516,-595.215,54.199,-125.488,0
1504326102.493,94.238,54.688,-595.703,42.480,-114.258,0
1504326102.497,103.516,-2.930,-662.109,38.086,-118.164,0
1504326102.501,109.863,28.809,-593.262,53.223,-114.746,0
1504326102.505,61.035,42.480,-499.023,55.176,-94.238,0
1504326102.509,37.598,8.301,-517.090,43.945,-58.105,0
1504326102.513,46.875,-44.922,-603.027,35.645,-70.312,0
1504326102.517,37.109,22.461,-497.070,23.438,-83.008,0
1504326102.521,53.223,128.906,-264.160,34.668,-55.664,0
1504326102.525,71.289,39.062,-343.262,47.852,-46.387,0
1504326102.528,69.824,42.480,-380.371,28.809,-29.297,0
1504326102.532,22.461,19.043,-397.461,21.973,-41.504,0
1504326102.536,-21.484,17.578,-369.141,28.809,-37.109,0
1504326102.540,9.766,41.992,-321.289,34.180,-16.602,0
1504326102.544,30.762,13.184,-380.371,46.387,-10.742,0
