timestamps,TP9,AF7,AF8,TP10,Right AUX,Marker0
1504428338.973,100.098,-768.066,69.824,112.793,82.520,0
1504428338.977,99.121,-931.641,62.500,112.305,39.551,0
1504428338.981,99.609,-822.266,75.684,112.793,31.738,0
1504428338.985,104.492,-712.402,66.895,113.770,69.824,0
1504428338.989,101.562,-818.848,24.902,98.145,65.918,0
1504428338.993,95.215,-956.543,58.105,97.168,83.496,0
1504428338.997,91.309,-958.984,55.176,98.145,105.469,0
1504428339.000,89.355,-958.496,41.504,97.168,80.566,0
1504428339.004,91.309,-972.168,102.539,101.074,37.598,0
1504428339.008,78.613,-947.754,94.727,90.332,23.438,0
1504428339.012,52.734,-800.293,49.316,69.824,44.922,0
1504428339.016,48.828,-624.023,35.645,53.223,86.914,0
1504428339.020,53.223,-778.809,62.500,63.965,75.195,0
1504428339.024,37.598,-902.832,41.504,55.176,33.691,0
1504428339.028,28.809,-731.445,3.418,30.762,43.457,0
1504428339.032,33.691,-719.727,-15.137,34.668,57.129,0
1504428339.036,44.434,-821.289,0.977,47.852,51.270,0
1504428339.040,38.086,-920.898,52.246,42.480,50.781,0
1504428339.043,7.812,-944.824,47.363,13.184,76.172,0
1504428339.047,-3.418,-872.070,18.555,-7.812,103.027,0
1504428339.051,-10.742,-936.035,3.906,-16.602,41.992,0
1504428339.055,-15.625,-948.242,34.180,-18.066,35.645,0
1504428339.059,-10.742,-708.496,35.645,-28.320,92.285,0
1504428339.063,-0.488,-766.602,22.461,-25.391,44.434,0
1504428339.067,10.742,-919.434,18.555,-12.207,19.531,0
1504428339.071,0.488,-742.676,11.230,-18.555,51.758,0
1504428339.075,-6.348,-684.570,-2.441,-19.531,41.016,0
1504428339.079,-3.906,-825.195,-11.719,-10.254,21.973,0
1504428339.083,-1.465,-850.586,-44.434,-2.441,28.320,0
1504428339.086,5.859,-864.746,-54.688,3.418,50.293,0
1504428339.090,19.531,-902.832,11.719,1.953,81.055,0
1504428339.094,28.809,-910.645,4.395,3.906,44.434,0
1504428339.098,31.250,-942.383,-17.578,22.461,14.648,0
1504428339.102,47.852,-775.391,39.551,44.922,35.645,0
1504428339.106,52.734,-640.137,49.316,40.527,56.641,0
1504428339.110,41.504,-757.324,22.949,32.715,54.688,0
1504428339.114,40.039,-880.859,12.207,46.387,62.500,0
1504428339.118,41.016,-773.438,0.977,47.852,67.383,0
1504428339.122,58.594,-707.031,5.859,56.641,41.016,0
1504428339.125,71.289,-862.305,-21.484,70.801,31.250,0
1504428339.129,54.199,-818.848,-22.461,49.316,54.199,0
1504428339.133,61.523,-776.855,24.902,48.828,84.961,0
1504428339.137,65.430,-923.340,-9.277,55.176,98.145,0
1504428339.141,50.781,-977.539,-23.926,44.922,62.500,0
1504428339.145,59.082,-901.855,17.578,60.059,18.555,0
1504428339.149,68.359,-690.430,5.859,71.777,50.781,0
1504428339.153,60.547,-752.930,4.395,61.523,48.340,0
1504428339.157,58.105,-901.367,12.207,62.500,21.973,0
1504428339.161,57.129,-736.328,21.484,69.336,54.199,0
1504428339.165,66.895,-651.367,43.457,76.172,73.730,0
1504428339.168,93.750,-799.805,41.016,100.586,47.852,0
1504428339.172,82.031,-911.133,43.945,98.145,63.965,0
1504428339.176,59.570,-844.238,55.664,72.754,86.914,0
1504428339.180,67.871,-877.930,38.086,70.312,68.848,0
1504428339.184,83.008,-987.793,23.438,83.984,37.598,0
1504428339.188,91.309,-894.043,10.254,94.238,22.461,0
1504428339.192,75.684,-745.117,7.324,85.449,39.551,0
1504428339.196,68.359,-748.047,5.371,69.824,32.227,0
1504428339.200,83.496,-869.629,13.184,71.777,-10.254,0
1504428339.204,82.520,-950.195,45.898,73.242,-22.949,0
1504428339.208,82.520,-748.047,42.480,73.730,48.828,0
1504428339.211,102.051,-773.438,36.133,79.102,66.895,0
1504428339.215,104.492,-985.840,32.227,74.219,49.316,0
1504428339.219,96.191,-853.516,27.344,80.078,60.059,0
1504428339.223,106.445,-689.453,25.391,102.539,70.801,0
1504428339.227,101.074,-865.234,14.160,93.750,96.680,0
1504428339.231,96.191,-996.094,16.113,85.449,94.238,0
1504428339.235,106.445,-900.879,51.758,85.449,40.039,0
1504428339.239,105.469,-660.645,42.969,81.055,75.684,0
1504428339.243,108.398,-675.781,40.527,88.379,90.820,0
1504428339.247,112.793,-934.082,71.777,101.074,38.086,0
1504428339.250,98.633,-849.609,58.105,91.309,32.227,0
1504428339.254,86.426,-677.246,1.953,69.336,59.570,0
1504428339.258,88.379,-805.664,0.488,60.547,41.992,0
1504428339.262,83.008,-887.207,25.879,54.688,34.180,0
1504428339.266,74.219,-729.004,11.230,56.152,67.871,0
1504428339.270,71.777,-708.008,12.207,45.410,69.824,0
1504428339.274,84.961,-895.020,67.871,54.199,56.641,0
1504428339.278,87.402,-947.266,83.984,62.500,50.293,0
1504428339.282,62.988,-761.230,41.504,39.062,65.430,0
1504428339.286,62.500,-674.805,43.945,40.527,78.613,0
1504428339.290,62.500,-816.406,36.133,47.852,53.711,0
1504428339.293,48.340,-989.746,28.809,41.016,28.320,0
1504428339.297,41.016,-834.473,34.668,32.227,61.523,0
1504428339.301,57.129,-691.895,62.012,53.711,63.965,0
1504428339.305,66.895,-869.629,55.176,61.523,41.016,0
1504428339.309,56.641,-892.090,-23.438,47.852,51.270,0
1504428339.313,71.777,-713.379,8.301,69.824,58.105,0
1504428339.317,63.965,-674.316,80.566,63.477,64.941,0
1504428339.321,48.340,-864.746,76.172,52.734,89.355,0
1504428339.325,66.895,-920.898,68.848,75.684,65.918,0
1504428339.329,64.453,-712.402,54.688,72.266,56.641,0
1504428339.333,54.688,-747.559,36.621,60.547,58.594,0
1504428339.336,65.918,-923.828,49.316,66.406,23.438,0
1504428339.340,72.754,-863.281,60.547,71.289,16.602,0
1504428339.344,69.336,-719.238,69.336,73.730,40.527,0
1504428339.348,70.312,-803.711,40.039,80.566,47.363,0
1504428339.352,72.754,-900.391,17.090,84.473,45.410,0
1504428339.356,77.637,-712.891,57.129,88.867,82.520,0
1504428339.360,88.379,-673.340,93.262,87.402,62.988,0
1504428339.364,78.613,-820.312,92.285,73.242,51.758,0
1504428339.368,60.059,-982.910,39.551,62.988,68.359,0
1504428339.372,51.758,-917.480,-2.441,58.105,64.453,0
1504428339.375,53.223,-707.520,47.363,55.664,70.312,0
1504428339.379,73.242,-820.312,80.078,67.383,34.668,0
1504428339.383,78.125,-943.359,69.824,64.941,16.113,0
1504428339.387,68.848,-756.348,52.734,53.711,55.664,0
1504428339.391,58.594,-682.129,28.320,50.781,61.035,0
1504428339.395,38.086,-791.016,4.883,34.668,54.199,0
1504428339.399,36.621,-811.035,22.949,38.574,44.434,0
1504428339.403,45.898,-688.477,21.973,52.734,49.805,0
1504428339.407,55.664,-711.914,45.898,69.336,52.246,0
1504428339.411,35.156,-866.699,34.668,56.641,57.617,0
1504428339.415,16.602,-897.949,8.789,39.062,88.379,0
1504428339.418,24.902,-917.969,24.414,44.922,68.359,0
1504428339.422,34.668,-967.285,0.488,42.969,45.898,0
1504428339.426,34.180,-975.586,8.789,33.691,26.855,0
1504428339.430,19.043,-905.762,47.363,39.062,7.324,0
1504428339.434,10.254,-716.309,51.758,46.875,31.738,0
1504428339.438,15.137,-756.836,32.227,45.898,45.898,0
1504428339.442,30.273,-887.207,22.949,57.617,40.039,0
1504428339.446,18.066,-737.793,21.973,52.734,66.895,0
1504428339.450,3.906,-635.254,17.090,38.086,83.984,0
1504428339.454,7.812,-796.875,2.441,36.621,50.293,0
1504428339.458,5.371,-883.301,19.531,32.715,26.367,0
1504428339.461,0.000,-901.855,26.855,20.020,39.551,0
1504428339.465,8.301,-958.984,12.695,23.926,79.590,0
1504428339.469,18.066,-953.125,6.348,30.273,66.406,0
1504428339.473,9.277,-950.684,-13.184,26.855,13.672,0
1504428339.477,16.602,-821.777,24.414,41.992,22.949,0
1504428339.481,14.648,-679.199,43.945,33.203,60.547,0
1504428339.485,3.906,-816.895,-2.930,13.672,46.875,0
1504428339.489,4.395,-897.461,13.672,20.020,17.578,0
1504428339.493,13.184,-751.953,57.617,28.809,33.691,0
1504428339.497,15.625,-722.656,51.270,20.020,50.293,0
1504428339.500,6.348,-875.488,34.668,2.930,58.594,0
1504428339.504,0.488,-855.469,27.344,-5.371,72.754,0
1504428339.508,-17.578,-837.891,21.973,-11.719,89.844,0
1504428339.512,-7.324,-954.102,41.504,-5.859,87.891,0
1504428339.516,10.742,-980.957,45.410,6.348,21.484,0
1504428339.520,13.672,-862.793,25.391,9.277,27.344,0
1504428339.524,32.715,-667.969,30.762,16.113,70.312,0
1504428339.528,57.129,-810.059,31.738,37.598,50.293,0
1504428339.532,65.918,-947.754,-0.488,51.270,37.109,0
1504428339.536,57.129,-783.203,29.297,43.457,37.109,0
1504428339.540,50.781,-675.293,35.156,44.434,47.363,0
1504428339.543,62.500,-817.383,34.668,64.453,40.527,0
1504428339.547,74.707,-918.945,67.383,76.660,27.832,0
1504428339.551,68.359,-769.531,53.711,81.543,31.738,0
1504428339.555,56.152,-835.449,48.340,67.871,74.707,0
1504428339.559,48.340,-959.961,45.898,55.176,83.496,0
1504428339.563,60.547,-970.703,43.945,69.336,5.371,0
1504428339.567,77.148,-818.848,47.852,75.684,13.184,0
1504428339.571,79.102,-641.113,30.762,72.754,65.918,0
1504428339.575,78.125,-765.625,31.250,79.102,57.129,0
1504428339.579,78.125,-791.992,71.777,82.520,61.035,0
1504428339.583,67.871,-677.734,62.500,83.008,53.223,0
1504428339.586,88.379,-781.250,64.941,102.539,64.453,0
1504428339.590,112.793,-966.309,89.355,113.281,36.133,0
1504428339.594,100.586,-817.383,50.781,97.656,35.156,0
1504428339.598,95.703,-648.438,28.320,96.680,70.801,0
1504428339.602,103.516,-842.773,35.645,102.051,89.844,0
1504428339.606,119.629,-979.492,53.711,113.770,84.473,0
1504428339.610,124.023,-920.410,87.891,123.535,13.672,0
1504428339.614,105.469,-713.379,77.637,112.793,48.828,0
1504428339.618,87.891,-693.359,50.781,103.516,88.867,0
1504428339.622,84.473,-849.609,39.062,97.656,62.500,0
1504428339.625,96.191,-746.094,45.898,99.609,62.988,0
1504428339.629,84.473,-686.035,33.691,83.984,63.477,0
1504428339.633,74.219,-850.098,56.152,72.754,46.875,0
1504428339.637,69.336,-895.020,63.965,80.566,52.734,0
1504428339.641,74.707,-704.102,52.734,88.379,72.266,0
1504428339.645,86.914,-779.785,64.453,91.309,72.266,0
1504428339.649,82.031,-958.984,56.641,86.914,64.453,0
1504428339.653,85.449,-978.027,39.062,89.355,66.895,0
1504428339.657,72.754,-875.488,-5.371,79.102,49.805,0
1504428339.661,63.965,-690.430,-0.977,73.730,71.777,0
1504428339.665,84.473,-807.129,34.668,92.285,64.941,0
1504428339.668,83.496,-927.734,41.504,79.590,20.996,0
1504428339.672,74.707,-782.715,12.695,60.547,24.414,0
1504428339.676,79.102,-699.219,10.742,66.895,53.223,0
1504428339.680,89.844,-743.164,55.176,78.125,77.637,0
1504428339.684,83.984,-780.762,53.711,76.172,57.129,0
1504428339.688,75.684,-707.520,40.527,61.523,60.547,0
1504428339.692,83.496,-725.098,37.109,63.477,63.965,0
1504428339.696,83.008,-900.391,6.836,68.359,62.988,0
1504428339.700,74.707,-977.539,20.020,73.730,46.387,0
1504428339.704,80.566,-907.715,60.059,86.426,48.828,0
1504428339.708,81.055,-905.273,45.410,80.078,62.012,0
1504428339.711,69.824,-974.609,43.457,66.406,17.090,0
1504428339.715,74.707,-867.188,61.035,74.707,27.832,0
1504428339.719,82.031,-695.312,26.367,72.266,45.898,0
1504428339.723,91.797,-836.914,14.160,78.125,12.695,0
1504428339.727,110.352,-924.805,54.199,94.238,26.367,0
1504428339.731,124.023,-780.762,73.730,95.703,40.039,0
1504428339.735,96.680,-660.156,72.266,79.102,61.035,0
1504428339.739,54.199,-793.945,72.266,65.918,37.109,0
1504428339.743,47.363,-979.004,59.570,62.988,28.320,0
1504428339.747,53.223,-960.938,51.270,60.059,85.449,0
1504428339.750,67.871,-841.309,25.391,74.219,88.867,0
1504428339.754,60.547,-856.934,7.812,64.941,50.293,0
1504428339.758,55.664,-916.504,33.203,48.828,26.367,0
1504428339.762,68.359,-830.566,8.789,53.223,49.316,0
1504428339.766,69.336,-808.105,32.715,60.547,74.707,0
1504428339.770,64.453,-876.465,60.059,56.641,41.992,0
1504428339.774,68.848,-877.930,53.711,61.523,35.156,0
1504428339.778,76.660,-719.727,58.105,76.660,56.641,0
1504428339.782,52.734,-759.766,22.949,50.781,39.551,0
1504428339.786,52.734,-841.797,3.418,50.781,39.551,0
1504428339.790,56.152,-890.625,20.996,56.641,63.477,0
1504428339.793,35.156,-949.707,31.738,34.180,64.453,0
1504428339.797,42.480,-922.852,9.766,47.363,59.082,0
1504428339.801,34.668,-945.312,-10.254,40.527,29.297,0
1504428339.805,27.344,-908.691,43.457,26.855,8.789,0
1504428339.809,42.480,-699.707,80.566,35.645,42.480,0
1504428339.813,41.992,-765.625,32.227,27.344,48.828,0
1504428339.817,33.691,-873.047,-4.395,19.043,37.109,0
1504428339.821,30.762,-729.004,20.996,28.320,50.293,0
1504428339.825,20.020,-761.719,36.621,23.438,79.590,0
1504428339.829,18.066,-910.645,29.785,19.531,27.832,0
1504428339.833,22.949,-884.766,20.508,24.414,2.441,0
1504428339.836,27.344,-904.785,19.531,26.367,45.898,0
1504428339.840,47.852,-947.266,29.785,43.457,60.059,0
1504428339.844,46.387,-893.555,3.418,41.504,56.152,0
1504428339.848,33.203,-978.027,-10.742,21.973,2.441,0
1504428339.852,41.016,-850.098,-9.277,24.414,8.301,0
1504428339.856,46.387,-639.160,2.441,30.273,64.453,0
1504428339.860,60.059,-804.688,22.949,44.922,45.898,0
1504428339.864,66.895,-830.078,7.324,49.316,41.504,0
1504428339.868,56.152,-676.758,48.828,44.434,52.246,0
1504428339.872,55.664,-704.102,51.758,47.363,43.457,0
1504428339.875,55.176,-815.430,12.695,43.945,53.711,0
1504428339.879,54.199,-744.141,19.531,46.387,76.660,0
1504428339.883,76.660,-785.156,33.691,73.730,92.285,0
1504428339.887,87.891,-965.332,33.691,81.543,72.266,0
1504428339.891,78.125,-977.051,29.297,66.406,24.902,0
1504428339.895,83.984,-896.973,15.625,83.984,12.207,0
1504428339.899,82.520,-692.383,41.016,87.402,54.199,0
1504428339.903,72.754,-768.066,82.031,71.289,38.574,0
1504428339.907,76.660,-913.086,87.891,74.707,20.508,0
1504428339.911,69.336,-757.324,65.430,68.848,49.805,0
1504428339.915,61.523,-661.133,36.621,57.129,53.711,0
1504428339.918,75.195,-798.828,66.895,68.848,45.410,0
1504428339.922,73.242,-877.441,59.570,68.848,25.391,0
1504428339.926,66.406,-714.355,29.785,61.035,50.781,0
1504428339.930,79.102,-802.246,40.527,66.406,84.961,0
1504428339.934,90.820,-963.379,50.781,68.359,54.199,0
1504428339.938,96.680,-943.359,20.508,71.777,21.484,0
1504428339.942,98.633,-891.602,0.977,69.336,41.504,0
1504428339.946,104.980,-799.316,57.617,79.102,68.359,0
1504428339.950,104.492,-837.891,74.219,93.750,46.875,0
1504428339.954,99.121,-900.879,63.965,88.379,18.066,0
1504428339.958,91.309,-698.242,62.012,84.473,54.199,0
1504428339.961,89.355,-628.418,58.594,76.172,82.031,0
1504428339.965,101.562,-737.793,32.227,70.801,69.824,0
1504428339.969,93.750,-710.938,29.785,71.289,70.801,0
1504428339.973,87.402,-645.508,68.848,78.125,67.383,0
1504428339.977,90.332,-815.918,50.293,83.496,96.191,0
1504428339.981,81.543,-983.398,19.531,81.055,79.102,0
1504428339.985,84.473,-854.492,60.547,83.008,52.734,0
1504428339.989,85.449,-622.070,79.590,67.871,76.660,0
1504428339.993,76.660,-713.867,58.105,52.246,60.547,0
1504428339.997,75.195,-822.754,40.039,62.012,53.223,0
1504428340.000,72.266,-777.832,20.508,64.453,74.219,0
1504428340.004,68.359,-759.277,35.645,58.594,83.496,0
1504428340.008,63.477,-807.129,48.828,48.340,48.340,0
1504428340.012,69.336,-872.070,33.691,35.156,40.527,0
1504428340.016,87.891,-674.316,18.555,47.852,74.707,0
1504428340.020,87.402,-629.883,-0.977,46.387,69.824,0
1504428340.024,73.242,-865.723,7.812,36.621,56.641,0
1504428340.028,58.594,-975.586,39.062,28.320,53.223,0
1504428340.032,47.852,-808.105,13.184,12.207,37.109,0
1504428340.036,58.594,-647.949,-2.930,24.414,49.316,0
1504428340.040,66.895,-807.617,41.992,32.227,40.039,0
1504428340.043,62.012,-909.180,44.434,21.973,17.578,0
1504428340.047,60.059,-693.848,31.250,18.555,46.875,0
1504428340.051,71.777,-657.227,24.902,23.926,55.176,0
1504428340.055,78.613,-774.414,3.906,22.461,38.574,0
1504428340.059,76.660,-850.586,-9.277,22.949,57.617,0
1504428340.063,84.961,-852.539,-38.086,36.133,60.059,0
1504428340.067,81.055,-732.422,-14.648,38.086,53.711,0
1504428340.071,71.777,-868.652,36.133,53.711,54.688,0
1504428340.075,83.984,-930.176,49.316,74.219,36.133,0
1504428340.079,89.355,-717.285,46.387,78.613,32.715,0
1504428340.083,81.055,-725.586,40.527,71.777,38.574,0
1504428340.086,89.844,-907.227,32.227,67.871,14.160,0
1504428340.090,117.676,-851.074,43.457,84.473,-0.488,0
1504428340.094,110.840,-646.484,54.688,67.383,43.457,0
1504428340.098,100.098,-725.098,35.645,55.664,56.152,0
1504428340.102,112.793,-852.051,41.016,80.566,20.508,0
1504428340.106,102.539,-757.812,10.742,71.777,10.742,0
1504428340.110,81.055,-713.867,0.977,51.758,17.578,0
1504428340.114,80.078,-800.293,25.391,61.523,37.598,0
1504428340.118,86.914,-956.055,2.441,70.312,35.645,0
1504428340.122,98.145,-984.375,54.199,72.754,21.484,0
1504428340.125,104.980,-916.504,87.402,63.965,37.598,0
1504428340.129,107.910,-893.555,60.547,54.688,37.109,0
1504428340.133,103.027,-936.523,52.246,53.711,9.766,0
1504428340.137,104.492,-771.484,63.965,65.918,24.902,0
1504428340.141,94.727,-630.371,51.270,69.336,46.875,0
1504428340.145,87.402,-818.359,25.391,70.312,32.715,0
1504428340.149,106.445,-889.160,16.113,80.566,20.020,0
1504428340.153,107.910,-684.570,23.926,71.289,38.574,0
1504428340.157,97.656,-702.148,58.105,68.359,39.551,0
1504428340.161,101.562,-826.172,65.430,78.125,28.320,0
1504428340.165,102.051,-910.156,66.406,82.031,41.504,0
1504428340.168,106.445,-934.082,46.387,97.656,68.848,0
1504428340.172,108.398,-897.949,25.879,103.516,65.430,0
1504428340.176,96.680,-950.684,54.199,89.844,41.504,0
1504428340.180,100.586,-915.039,73.730,93.750,40.039,0
1504428340.184,114.258,-695.312,45.410,104.004,49.805,0
1504428340.188,126.953,-728.516,51.270,118.164,60.059,0
1504428340.192,123.535,-919.922,43.457,109.863,36.133,0
1504428340.196,108.887,-811.523,36.621,101.074,31.738,0
1504428340.200,106.934,-701.172,71.289,109.375,40.527,0
1504428340.204,114.746,-808.594,78.125,111.816,35.156,0
1504428340.208,114.746,-820.801,86.426,98.145,46.875,0
1504428340.211,109.375,-854.004,64.453,81.055,62.500,0
1504428340.215,107.422,-928.223,41.992,77.637,75.684,0
1504428340.219,98.633,-916.016,51.758,81.055,48.340,0
1504428340.223,94.238,-945.312,54.688,81.543,7.324,0
1504428340.227,91.309,-776.367,12.207,79.102,29.297,0
1504428340.231,83.496,-622.070,-9.766,72.754,60.059,0
1504428340.235,74.219,-750.977,41.992,62.988,61.523,0
1504428340.239,87.402,-849.121,85.449,81.055,76.172,0
1504428340.243,79.590,-721.191,59.570,73.730,71.289,0
1504428340.247,37.598,-668.945,10.742,37.598,49.805,0
1504428340.250,22.461,-803.711,9.766,30.762,55.664,0
1504428340.254,30.762,-790.527,24.902,30.273,58.594,0
1504428340.258,40.527,-816.895,31.738,33.691,67.383,0
1504428340.262,26.367,-955.566,31.250,24.414,79.102,0
1504428340.266,21.484,-964.844,38.574,24.414,54.199,0
1504428340.270,27.344,-907.715,35.156,28.809,11.230,0
1504428340.274,31.738,-692.383,27.832,24.902,37.109,0
1504428340.278,34.668,-704.102,-19.043,21.973,64.941,0
1504428340.282,43.457,-827.148,-50.293,23.926,47.363,0
1504428340.286,48.340,-692.383,-6.836,23.438,54.688,0
1504428340.290,45.410,-598.145,18.555,19.531,69.336,0
1504428340.293,54.199,-738.770,13.672,19.531,62.500,0
1504428340.297,65.430,-879.395,-16.602,22.949,66.406,0
1504428340.301,63.477,-723.145,13.672,33.691,66.895,0
1504428340.305,53.711,-779.297,56.152,39.551,81.543,0
1504428340.309,44.922,-949.707,20.508,32.715,73.242,0
1504428340.313,45.898,-936.523,18.066,32.227,37.598,0
1504428340.317,41.992,-746.582,7.324,24.902,54.688,0
1504428340.321,50.781,-643.555,-10.254,28.320,38.574,0
1504428340.325,59.082,-842.773,18.066,29.785,6.348,0
1504428340.329,62.012,-867.188,17.578,32.715,15.625,0
1504428340.333,77.148,-610.840,-23.926,41.992,72.266,0
1504428340.336,91.797,-588.379,8.789,57.129,80.566,0
1504428340.340,79.590,-698.730,41.504,54.199,67.383,0
1504428340.344,74.707,-689.941,27.832,47.852,66.406,0
1504428340.348,77.637,-648.926,41.992,61.035,51.270,0
1504428340.352,64.453,-782.227,14.160,57.617,97.656,0
1504428340.356,75.195,-947.266,-3.906,62.012,106.934,0
1504428340.360,87.891,-886.719,13.184,75.195,46.875,0
1504428340.364,83.984,-640.625,23.926,63.477,63.477,0
1504428340.368,97.168,-663.086,55.664,68.359,63.477,0
1504428340.372,98.145,-877.930,73.242,71.289,34.180,0
1504428340.375,92.773,-769.043,46.875,65.430,42.969,0
1504428340.379,90.820,-585.938,33.203,65.918,68.359,0
1504428340.383,96.191,-724.121,32.715,75.195,54.688,0
1504428340.387,85.938,-796.387,39.062,72.266,45.410,0
1504428340.391,66.895,-636.230,52.734,61.035,69.336,0
1504428340.395,63.965,-646.484,38.574,58.105,57.617,0
1504428340.399,70.312,-885.254,52.246,55.176,51.758,0
1504428340.403,76.660,-923.340,20.020,51.758,68.848,0
1504428340.407,84.473,-736.816,12.695,66.406,47.852,0
1504428340.411,84.961,-665.039,61.523,70.801,43.457,0
1504428340.415,76.660,-826.172,60.547,68.359,44.434,0
1504428340.418,79.590,-910.645,56.152,70.312,30.762,0
1504428340.422,59.570,-683.594,35.156,41.504,55.176,0
1504428340.426,50.781,-612.305,26.855,32.715,81.543,0
1504428340.430,56.152,-757.812,24.902,36.133,61.035,0
1504428340.434,61.523,-785.156,-5.371,42.480,45.898,0
1504428340.438,63.965,-696.289,-19.531,47.363,52.734,0
1504428340.442,72.266,-725.098,25.879,59.082,43.457,0
1504428340.446,68.848,-890.625,36.621,62.012,53.223,0
1504428340.450,72.266,-973.633,41.504,63.477,64.941,0
1504428340.454,92.773,-791.016,57.617,72.266,65.918,0
1504428340.458,79.590,-752.441,59.082,57.129,48.340,0
1504428340.461,80.566,-958.008,70.312,68.359,7.812,0
1504428340.465,76.172,-908.691,72.266,76.660,12.207,0
1504428340.469,55.176,-708.008,31.738,55.664,39.551,0
1504428340.473,62.012,-793.945,31.250,58.105,60.059,0
1504428340.477,70.801,-976.074,30.762,56.152,64.941,0
1504428340.481,87.402,-850.098,32.715,65.430,47.363,0
1504428340.485,87.402,-679.688,31.250,74.219,49.805,0
1504428340.489,62.500,-790.527,5.859,61.035,38.086,0
1504428340.493,53.711,-978.516,10.254,51.270,47.852,0
1504428340.497,56.641,-942.871,11.719,53.223,88.379,0
1504428340.500,60.547,-741.699,15.137,52.734,75.684,0
1504428340.504,68.359,-812.988,27.832,46.387,24.902,0
1504428340.508,72.754,-958.008,40.039,52.246,-0.488,0
1504428340.512,55.664,-774.902,41.992,42.969,27.832,0
1504428340.516,51.270,-676.270,29.785,37.598,36.621,0
1504428340.520,82.520,-811.035,59.570,69.336,20.996,0
1504428340.524,81.543,-815.430,47.852,69.336,33.203,0
1504428340.528,55.176,-682.129,23.926,38.086,46.875,0
1504428340.532,60.059,-798.340,15.137,48.340,54.199,0
1504428340.536,72.754,-950.195,18.555,58.594,49.805,0
1504428340.540,56.152,-963.867,43.457,41.992,48.340,0
1504428340.543,52.246,-924.316,27.344,41.016,82.520,0
1504428340.547,51.758,-830.566,12.207,41.504,62.988,0
1504428340.551,51.270,-932.129,23.926,44.922,6.348,0
1504428340.555,53.223,-902.832,19.531,53.711,14.160,0
1504428340.559,56.641,-682.129,-1.465,62.988,49.805,0
1504428340.563,58.594,-748.047,28.809,68.359,57.617,0
1504428340.567,52.246,-860.352,29.785,60.547,53.711,0
1504428340.571,55.176,-692.383,20.996,54.199,75.195,0
1504428340.575,50.781,-635.254,59.082,52.734,77.637,0
1504428340.579,56.641,-795.898,60.059,69.336,58.105,0
1504428340.583,71.289,-824.707,56.641,74.707,57.617,0
1504428340.586,43.457,-861.816,24.414,47.363,82.520,0
1504428340.590,46.875,-897.949,-5.859,56.152,100.586,0
1504428340.594,61.523,-925.293,31.250,63.965,49.805,0
1504428340.598,41.992,-873.047,48.828,33.691,40.527,0
1504428340.602,48.828,-700.684,30.762,32.715,60.547,0
1504428340.606,58.594,-683.105,15.137,49.316,53.711,0
1504428340.610,39.062,-834.961,-1.953,34.668,38.574,0
1504428340.614,38.574,-960.938,42.969,30.273,16.602,0
1504428340.618,46.387,-783.203,59.570,44.434,34.668,0
1504428340.622,47.363,-695.312,20.020,43.945,49.805,0
1504428340.625,40.039,-858.398,13.672,31.250,42.969,0
1504428340.629,55.176,-869.141,37.598,59.082,34.668,0
1504428340.633,60.059,-877.441,33.203,66.895,59.570,0
1504428340.637,46.875,-957.520,10.742,54.199,52.246,0
1504428340.641,49.316,-959.961,15.137,55.176,14.160,0
1504428340.645,61.035,-912.109,38.086,63.477,9.277,0
1504428340.649,72.266,-776.855,48.340,74.219,20.996,0
1504428340.653,71.289,-882.324,29.297,66.406,39.551,0
1504428340.657,80.078,-900.879,28.809,69.824,50.781,0
1504428340.661,86.914,-758.789,8.789,72.754,43.945,0
1504428340.665,82.520,-689.941,-9.277,78.613,51.270,0
1504428340.668,84.473,-790.527,48.828,90.332,64.941,0
1504428340.672,93.262,-923.828,80.566,102.051,31.250,0
1504428340.676,94.727,-739.746,53.223,104.980,49.805,0
1504428340.680,84.961,-828.613,41.992,86.914,78.125,0
1504428340.684,91.797,-987.305,42.969,96.191,32.715,0
1504428340.688,91.797,-951.660,17.090,94.238,13.672,0
1504428340.692,75.684,-846.191,39.551,76.660,30.273,0
1504428340.696,80.078,-701.172,80.078,85.449,46.387,0
1504428340.700,83.984,-807.617,82.031,90.332,47.852,0
1504428340.704,83.496,-837.402,74.707,84.473,39.551,0
1504428340.708,99.121,-705.566,53.223,97.168,58.594,0
1504428340.711,83.008,-813.477,26.855,87.891,70.312,0
1504428340.715,69.824,-927.246,28.320,80.566,49.316,0
1504428340.719,69.824,-857.910,22.461,82.031,29.297,0
1504428340.723,48.828,-748.047,43.945,60.547,42.480,0
1504428340.727,62.012,-867.188,60.059,67.871,85.449,0
1504428340.731,69.824,-993.164,30.762,64.453,68.848,0
1504428340.735,49.805,-904.785,14.648,36.133,30.762,0
1504428340.739,49.805,-764.648,27.832,31.250,37.109,0
1504428340.743,46.387,-809.570,37.598,31.250,28.809,0
1504428340.747,48.340,-968.262,-5.371,45.410,14.160,0
1504428340.750,48.340,-919.434,-51.270,41.016,18.555,0
1504428340.754,61.035,-752.930,44.922,50.293,41.992,0
1504428340.758,65.918,-832.031,58.105,62.988,41.016,0
1504428340.762,41.016,-916.992,-20.996,51.270,29.785,0
1504428340.766,31.738,-776.855,17.578,52.734,54.688,0
1504428340.770,39.062,-871.094,55.664,53.223,55.176,0
1504428340.774,45.898,-981.445,35.156,38.086,58.105,0
1504428340.778,60.059,-969.238,26.855,35.156,50.293,0
1504428340.782,70.801,-872.070,17.090,38.574,33.203,0
1504428340.786,82.031,-696.289,28.320,52.246,70.801,0
1504428340.790,80.566,-840.332,47.363,71.777,32.715,0
1504428340.793,48.340,-901.855,16.602,54.688,28.320,0
1504428340.797,48.340,-728.516,13.184,55.664,63.965,0
1504428340.801,56.152,-677.246,18.066,69.336,77.148,0
1504428340.805,41.504,-769.531,-29.297,55.664,77.148,0
1504428340.809,63.477,-802.734,8.789,64.453,62.500,0
1504428340.813,79.590,-740.234,68.848,74.219,58.105,0
1504428340.817,78.125,-774.902,71.777,64.941,50.781,0
1504428340.821,81.543,-901.855,68.359,70.312,53.711,0
1504428340.825,75.684,-979.004,40.527,74.219,51.758,0
1504428340.829,79.590,-936.523,34.180,76.660,58.105,0
1504428340.833,76.172,-888.672,45.898,72.754,47.852,0
1504428340.836,82.031,-957.520,71.777,83.008,19.531,0
1504428340.840,86.914,-907.715,49.316,96.680,32.227,0
1504428340.844,73.242,-740.723,20.508,78.613,50.293,0
1504428340.848,69.336,-837.402,39.551,76.660,37.598,0
1504428340.852,49.316,-916.016,27.344,64.453,47.363,0
1504428340.856,44.434,-743.164,16.113,50.293,69.824,0
1504428340.860,76.172,-661.621,46.387,69.824,64.453,0
1504428340.864,76.660,-799.805,62.500,61.035,50.781,0
1504428340.868,54.199,-960.938,38.574,41.992,55.664,0
1504428340.872,52.246,-941.406,37.598,54.688,78.125,0
1504428340.875,55.664,-807.129,38.574,54.199,85.449,0
1504428340.879,46.387,-850.098,19.043,48.340,39.551,0
1504428340.883,44.922,-897.949,15.625,50.781,10.742,0
1504428340.887,71.777,-786.133,35.156,74.219,59.082,0
1504428340.891,77.148,-792.480,66.406,79.102,63.477,0
1504428340.895,56.152,-846.191,38.574,55.664,28.809,0
1504428340.899,57.129,-903.320,40.527,62.012,35.645,0
1504428340.903,67.871,-705.566,45.898,85.938,63.965,0
1504428340.907,66.895,-578.613,15.625,83.496,83.008,0
1504428340.911,69.336,-729.004,60.059,73.730,52.246,0
1504428340.915,83.008,-919.922,67.383,79.590,15.625,0
1504428340.918,83.496,-920.410,35.156,86.914,51.758,0
1504428340.922,74.219,-828.613,43.457,82.031,79.590,0
1504428340.926,81.543,-918.945,60.547,90.332,37.598,0
1504428340.930,80.566,-890.137,37.598,99.121,15.137,0
1504428340.934,51.270,-608.887,26.367,74.707,74.219,0
1504428340.938,46.387,-688.477,54.688,59.570,76.660,0
1504428340.942,63.477,-800.293,67.383,69.336,66.406,0
1504428340.946,62.988,-789.062,34.180,65.918,73.730,0
1504428340.950,53.711,-867.188,2.441,49.316,46.875,0
1504428340.954,47.363,-873.047,23.926,47.852,34.668,1
1504428340.958,44.922,-860.352,52.734,58.594,57.617,0
1504428340.961,50.781,-854.004,23.926,62.500,98.633,0
1504428340.965,48.340,-894.531,3.418,54.199,77.637,0
1504428340.969,49.805,-876.465,31.738,44.434,35.156,0
1504428340.973,46.875,-925.293,13.672,37.109,32.715,0
1504428340.977,48.828,-762.207,-0.488,33.203,51.270,0
1504428340.981,57.617,-653.320,30.762,28.809,62.988,0
1504428340.985,53.223,-810.547,47.852,41.016,36.621,0
1504428340.989,43.945,-875.977,20.508,44.922,12.695,0
1504428340.993,40.039,-725.586,-16.113,29.297,35.645,0
1504428340.997,36.133,-690.430,11.719,18.066,68.359,0
1504428341.000,62.012,-802.246,57.617,45.898,51.758,0
1504428341.004,68.848,-828.125,42.480,62.988,48.828,0
1504428341.008,41.992,-902.832,-7.324,31.250,88.379,0
1504428341.012,48.340,-972.168,-10.742,24.414,66.895,0
1504428341.016,46.875,-970.703,-20.508,30.273,-21.973,0
1504428341.020,39.062,-911.621,5.859,34.668,-23.438,0
1504428341.024,39.551,-726.562,37.109,42.480,35.645,0
1504428341.028,57.617,-723.633,32.715,55.176,68.359,0
1504428341.032,76.172,-898.438,45.898,67.383,54.688,0
1504428341.036,66.406,-832.520,24.902,61.523,28.320,0
1504428341.040,62.500,-686.035,17.090,49.805,46.875,0
1504428341.043,72.266,-806.641,29.785,50.293,47.852,0
1504428341.047,67.871,-885.742,26.367,59.082,32.715,0
1504428341.051,55.664,-708.496,24.414,63.477,57.129,0
1504428341.055,50.781,-839.844,20.508,60.547,75.684,0
1504428341.059,58.594,-984.375,-12.207,55.176,53.711,0
1504428341.063,76.660,-964.844,29.297,67.383,36.133,0
1504428341.067,73.730,-935.547,37.109,65.918,39.062,0
1504428341.071,63.965,-741.211,0.488,55.176,40.527,0
1504428341.075,68.359,-805.664,48.828,63.477,56.152,0
1504428341.079,63.477,-909.180,53.711,57.129,47.363,0
1504428341.083,70.312,-742.188,50.781,62.500,41.992,0
1504428341.086,81.543,-679.688,56.152,79.102,56.152,0
1504428341.090,69.336,-754.395,62.500,81.543,64.941,0
1504428341.094,52.734,-772.949,42.969,67.871,57.129,0
1504428341.098,54.199,-741.211,19.043,62.012,39.062,0
1504428341.102,69.336,-894.531,42.480,67.383,79.590,0
1504428341.106,63.477,-974.121,48.828,63.477,71.289,0
1504428341.110,61.035,-975.098,22.949,68.848,5.371,0
1504428341.114,63.477,-853.516,6.348,65.918,22.461,0
1504428341.118,74.219,-766.602,-2.930,72.754,34.180,0
1504428341.122,88.379,-868.652,11.230,77.637,38.086,0
1504428341.125,80.078,-908.203,29.297,60.059,40.039,0
1504428341.129,70.801,-784.668,52.246,52.246,42.969,0
1504428341.133,76.172,-785.156,66.895,63.477,36.621,0
1504428341.137,69.336,-929.199,57.617,65.918,14.160,0
1504428341.141,58.105,-770.020,42.480,60.059,37.109,0
1504428341.145,64.453,-707.031,35.156,55.176,46.387,0
1504428341.149,73.242,-891.113,36.621,53.711,63.965,0
1504428341.153,65.430,-994.141,34.668,59.570,62.500,0
1504428341.157,65.430,-814.453,24.902,66.406,38.574,0
1504428341.161,80.566,-625.977,0.488,86.426,77.148,0
1504428341.165,70.312,-821.289,-19.043,79.102,49.316,0
1504428341.168,41.992,-874.023,24.414,53.223,40.039,0
1504428341.172,34.668,-716.309,45.898,56.152,43.457,0
1504428341.176,51.270,-753.418,59.570,70.312,20.020,0
1504428341.180,47.363,-832.031,53.223,53.223,35.645,0
1504428341.184,38.086,-913.086,14.160,41.504,51.758,0
1504428341.188,45.898,-820.312,39.062,45.898,45.898,0
1504428341.192,42.480,-695.312,58.105,45.410,61.523,0
1504428341.196,43.945,-869.141,55.176,61.523,61.035,0
1504428341.200,45.410,-941.406,41.504,67.383,47.363,0
1504428341.204,35.156,-702.637,28.320,49.805,68.848,0
1504428341.208,38.086,-735.352,-9.766,42.480,44.922,0
1504428341.211,37.598,-937.012,-35.156,42.480,6.348,0
1504428341.215,38.574,-864.258,-12.207,37.109,9.766,0
1504428341.219,52.246,-712.891,30.762,41.992,30.273,0
1504428341.223,54.199,-806.641,64.941,50.293,27.832,0
1504428341.227,45.898,-865.234,51.758,50.293,32.227,0
1504428341.231,47.852,-746.094,28.809,50.781,48.340,0
1504428341.235,62.012,-754.883,21.484,53.223,24.414,0
1504428341.239,75.684,-841.797,14.160,61.523,36.133,0
1504428341.243,60.059,-958.496,18.066,45.410,48.828,0
1504428341.247,48.828,-974.609,9.766,49.316,65.430,0
1504428341.250,49.316,-937.500,18.066,59.082,74.219,0
1504428341.254,50.293,-934.082,15.625,48.828,22.949,0
1504428341.258,44.922,-879.883,-17.090,42.969,26.855,0
1504428341.262,45.410,-746.094,19.043,40.527,55.176,0
1504428341.266,48.828,-666.504,45.410,45.410,73.242,0
1504428341.270,52.734,-803.711,43.457,65.430,48.340,0
1504428341.274,42.969,-969.727,34.668,64.941,3.906,0
1504428341.278,38.086,-798.340,53.223,56.641,40.527,0
1504428341.282,56.152,-734.375,45.898,69.824,48.828,0
1504428341.286,53.223,-894.531,7.324,62.988,14.160,0
1504428341.290,50.293,-980.469,18.555,51.758,14.648,0
1504428341.293,39.062,-964.355,19.531,42.969,65.918,0
1504428341.297,18.066,-878.906,-25.879,35.645,83.496,0
1504428341.301,21.484,-924.316,-6.348,42.480,62.012,0
1504428341.305,32.715,-915.039,74.707,43.457,48.828,0
1504428341.309,33.203,-713.867,59.082,28.320,51.758,0
1504428341.313,38.574,-770.020,20.996,28.809,54.199,0
1504428341.317,38.086,-903.320,20.508,41.504,32.227,0
1504428341.321,39.551,-873.535,27.344,49.805,45.898,0
1504428341.325,47.363,-791.504,15.137,54.688,65.918,0
1504428341.329,53.711,-795.410,17.578,64.941,69.824,0
1504428341.333,69.824,-838.379,41.504,74.707,69.336,0
1504428341.336,82.520,-854.980,26.855,69.824,77.637,0
1504428341.340,79.590,-925.781,24.902,63.965,97.168,0
1504428341.344,72.754,-936.035,56.152,60.059,41.504,0
1504428341.348,50.293,-956.543,26.367,41.504,-5.371,0
1504428341.352,43.945,-831.543,-17.090,38.086,24.414,0
1504428341.356,52.734,-666.504,32.715,42.480,64.453,0
1504428341.360,62.500,-823.242,60.059,54.199,71.777,0
1504428341.364,59.082,-878.418,41.016,58.594,63.477,0
1504428341.368,77.637,-690.918,62.500,73.242,71.289,0
1504428341.372,93.262,-703.613,53.223,83.984,60.547,0
1504428341.375,79.102,-878.418,15.625,77.148,28.809,0
1504428341.379,74.707,-886.719,23.438,78.125,25.391,0
1504428341.383,69.824,-883.301,18.555,76.172,67.871,0
1504428341.387,76.660,-951.660,37.598,76.172,65.430,0
1504428341.391,76.172,-950.195,28.320,76.660,15.625,0
1504428341.395,84.473,-921.875,8.301,89.355,8.301,0
1504428341.399,92.285,-702.637,51.270,96.680,55.176,0
1504428341.403,62.988,-720.703,45.898,73.730,60.547,0
1504428341.407,55.664,-864.258,47.852,75.195,39.062,0
1504428341.411,54.688,-752.441,57.617,79.590,55.176,0
1504428341.415,51.270,-683.594,43.457,75.684,50.293,0
1504428341.418,52.246,-803.223,28.809,69.336,63.477,0
1504428341.422,52.734,-919.434,6.348,56.641,55.176,0
1504428341.426,59.570,-754.395,-6.348,64.941,43.457,0
1504428341.430,57.617,-831.055,46.875,66.406,83.008,0
1504428341.434,52.246,-972.656,39.062,58.105,73.730,0
1504428341.438,50.293,-971.191,-11.719,62.500,9.766,0
1504428341.442,49.316,-854.492,43.945,60.059,13.184,0
1504428341.446,62.988,-683.594,82.031,67.871,46.387,0
1504428341.450,57.617,-834.473,57.129,62.500,24.414,0
1504428341.454,45.898,-879.883,30.762,40.527,22.461,0
1504428341.458,53.711,-649.902,31.250,40.527,69.824,0
1504428341.461,39.062,-645.996,8.301,33.203,68.359,0
1504428341.465,35.645,-783.203,-15.625,36.133,45.898,0
1504428341.469,31.738,-774.902,0.488,31.250,44.434,0
1504428341.473,22.949,-698.242,2.930,23.926,47.363,0
1504428341.477,33.691,-825.684,-28.320,37.109,89.355,0
1504428341.481,37.109,-982.910,-6.348,35.645,78.613,0
1504428341.485,35.645,-925.293,47.363,34.180,23.926,0
1504428341.489,39.551,-724.121,34.180,42.969,40.039,0
1504428341.493,46.387,-722.656,19.531,39.062,51.758,0
1504428341.497,49.316,-929.688,29.785,29.785,25.879,0
1504428341.500,44.434,-861.328,18.555,32.715,12.207,0
1504428341.504,50.781,-688.965,19.043,48.828,32.227,0
1504428341.508,66.406,-808.594,38.574,68.848,33.691,0
1504428341.512,58.594,-884.766,37.598,66.406,36.133,0
1504428341.516,51.270,-700.195,2.930,58.594,72.266,0
1504428341.520,60.547,-688.477,6.348,73.242,56.641,0
1504428341.524,42.480,-891.113,0.488,69.824,64.941,0
1504428341.528,59.570,-958.984,10.742,83.496,73.730,0
1504428341.532,73.730,-894.043,70.801,99.121,40.039,0
1504428341.536,43.457,-783.691,82.520,80.078,60.547,0
1504428341.540,32.227,-850.586,74.707,67.383,56.152,0
1504428341.543,34.180,-895.996,69.824,63.965,28.809,0
1504428341.547,33.203,-723.633,43.457,59.570,46.875,0
1504428341.551,40.527,-658.691,42.480,54.199,72.754,0
1504428341.555,54.688,-827.637,41.992,59.082,60.059,0
1504428341.559,54.199,-915.039,23.438,61.035,36.621,0
1504428341.563,69.336,-754.395,61.523,73.730,44.922,0
1504428341.567,86.914,-733.398,91.797,78.613,49.805,0
1504428341.571,85.449,-885.742,68.848,69.336,67.383,0
1504428341.575,71.777,-995.605,40.527,67.383,67.871,0
1504428341.579,57.617,-875.000,65.918,66.406,36.133,0
1504428341.583,61.035,-756.348,56.152,67.871,56.641,0
1504428341.586,78.613,-928.711,30.762,84.473,16.113,0
1504428341.590,88.379,-904.785,69.336,90.332,-6.836,0
1504428341.594,73.730,-725.586,47.363,62.500,43.457,0
1504428341.598,76.660,-882.812,30.273,73.730,48.828,0
1504428341.602,92.773,-931.641,68.359,102.051,34.180,0
1504428341.606,86.426,-772.949,70.801,98.633,30.762,0
1504428341.610,79.590,-690.430,67.383,81.055,50.293,0
1504428341.614,90.332,-795.898,40.527,68.359,60.059,0
1504428341.618,109.863,-963.867,32.715,85.938,51.270,0
1504428341.622,90.820,-991.211,61.523,80.078,33.691,0
1504428341.625,67.383,-852.051,42.480,77.148,70.801,0
1504428341.629,72.266,-838.379,27.832,83.008,68.848,0
1504428341.633,75.684,-925.293,22.949,78.613,41.992,0
1504428341.637,79.590,-741.211,17.578,89.844,67.871,0
1504428341.641,82.031,-666.992,47.363,91.309,62.500,0
1504428341.645,86.426,-806.641,74.219,91.309,53.711,0
1504428341.649,83.984,-782.227,74.707,98.633,68.848,0
1504428341.653,64.453,-631.836,52.246,86.426,92.285,0
1504428341.657,43.457,-797.363,23.926,67.871,62.500,0
1504428341.661,22.461,-954.590,11.230,63.477,15.137,0
1504428341.665,33.691,-957.031,50.293,77.637,41.992,0
1504428341.668,38.086,-941.895,78.613,67.871,95.215,0
1504428341.672,14.648,-843.262,32.227,38.574,85.938,0
1504428341.676,14.648,-912.109,23.438,36.133,24.902,0
1504428341.680,8.789,-907.715,0.488,32.715,18.555,0
1504428341.684,21.973,-675.781,4.395,49.805,60.059,0
1504428341.688,32.227,-753.418,51.270,57.129,38.574,0
1504428341.692,35.645,-937.012,64.941,58.105,4.883,0
1504428341.696,34.668,-804.199,22.949,51.758,29.297,0
1504428341.700,28.809,-661.133,6.836,41.992,57.617,0
1504428341.704,36.133,-809.570,50.293,40.527,32.227,0
1504428341.708,51.758,-856.934,56.152,48.340,29.785,0
1504428341.711,58.594,-856.934,11.230,54.688,65.430,0
1504428341.715,66.895,-962.891,1.953,63.965,62.012,0
1504428341.719,74.707,-970.703,54.199,73.730,44.922,0
1504428341.723,79.590,-938.965,39.551,74.707,59.570,0
1504428341.727,97.656,-784.180,33.691,93.262,56.641,0
1504428341.731,97.168,-694.336,79.590,93.262,37.598,0
1504428341.735,78.125,-865.234,52.734,62.988,18.555,0
1504428341.739,98.145,-846.680,52.734,75.195,41.504,0
1504428341.743,92.773,-676.270,45.898,80.078,96.680,0
1504428341.747,58.594,-704.590,-2.441,53.223,84.473,0
1504428341.750,51.270,-730.469,21.484,44.922,71.289,0
1504428341.754,56.641,-737.305,50.293,38.574,56.152,0
1504428341.758,54.688,-822.266,25.879,39.062,81.543,0
1504428341.762,55.176,-882.324,14.648,50.293,85.938,0
1504428341.766,55.176,-933.105,16.602,46.875,16.113,0
1504428341.770,43.945,-921.875,11.719,38.086,-20.508,0
1504428341.774,39.551,-765.137,10.254,37.109,35.645,0
1504428341.778,43.457,-856.445,20.996,38.086,68.359,0
1504428341.782,51.270,-952.637,35.156,44.922,13.184,0
1504428341.786,36.621,-787.109,24.902,29.785,14.160,0
1504428341.790,31.250,-562.500,17.578,17.090,70.312,0
1504428341.793,32.227,-709.961,-15.137,17.090,53.711,0
1504428341.797,16.602,-843.750,-9.277,7.812,11.230,0
1504428341.801,14.648,-686.523,40.039,9.277,29.297,0
1504428341.805,20.996,-759.766,25.391,20.020,68.848,0
1504428341.809,29.785,-926.270,-7.812,35.645,69.824,0
1504428341.813,9.277,-944.336,-11.719,23.438,45.898,0
1504428341.817,8.301,-742.188,24.414,20.020,40.039,0
1504428341.821,27.344,-571.289,15.625,33.203,43.457,0
1504428341.825,19.531,-701.660,0.000,26.367,47.363,0
1504428341.829,23.926,-709.961,23.926,31.738,44.434,0
1504428341.833,50.293,-677.734,32.227,45.410,57.129,0
1504428341.836,45.410,-726.074,18.066,24.902,72.754,0
1504428341.840,28.320,-802.246,9.277,16.113,42.480,0
1504428341.844,28.320,-776.855,4.883,27.832,43.457,0
1504428341.848,39.062,-610.352,-13.672,41.016,53.711,0
1504428341.852,41.992,-766.602,-7.324,47.852,71.777,0
1504428341.856,46.875,-949.707,3.906,55.664,75.195,0
1504428341.860,51.758,-875.000,37.598,62.988,25.391,0
1504428341.864,53.711,-628.906,68.359,70.801,43.457,0
1504428341.868,61.035,-683.105,62.500,79.102,44.434,0
1504428341.872,66.406,-802.246,63.477,80.566,40.039,0
1504428341.875,64.453,-681.152,42.969,77.148,53.223,0
1504428341.879,62.012,-566.895,42.480,86.426,78.613,0
1504428341.883,73.730,-715.820,56.152,94.238,62.988,0
1504428341.887,91.797,-826.172,78.613,110.352,35.156,0
1504428341.891,71.777,-729.492,66.895,91.797,37.109,0
1504428341.895,50.781,-794.434,5.371,63.965,51.270,0
1504428341.899,66.406,-903.809,6.348,84.473,90.332,0
1504428341.903,61.035,-959.473,58.105,89.844,67.383,0
1504428341.907,39.062,-796.387,73.242,72.266,41.016,0
1504428341.911,62.988,-653.320,68.848,89.355,50.293,0
1504428341.915,75.195,-844.238,54.688,98.633,8.301,0
1504428341.918,53.223,-860.352,39.062,82.031,20.996,0
1504428341.922,50.781,-647.461,58.594,82.031,60.547,0
1504428341.926,57.617,-631.348,65.918,85.449,63.477,0
1504428341.930,65.918,-737.305,47.852,84.961,56.641,0
1504428341.934,64.941,-746.094,45.898,77.637,52.734,0
1504428341.938,53.711,-659.180,46.875,69.824,57.617,0
1504428341.942,53.711,-708.496,14.648,76.172,38.574,0
1504428341.946,58.594,-845.703,39.551,79.590,66.895,0
1504428341.950,45.410,-958.984,49.805,67.383,91.309,0
1504428341.954,51.758,-893.066,62.500,83.008,79.590,0
1504428341.958,67.871,-739.258,100.586,101.562,83.984,0
1504428341.961,61.035,-789.551,87.891,99.609,69.336,0
1504428341.965,80.078,-746.582,67.871,110.840,51.758,0
1504428341.969,90.820,-603.027,48.340,103.027,74.707,0
1504428341.973,81.055,-705.078,51.758,93.750,59.570,0
1504428341.977,93.750,-978.516,88.379,115.723,-8.789,0
1504428341.981,83.008,-846.680,28.809,112.793,34.180,0
1504428341.985,77.148,-602.539,6.836,104.980,73.730,0
1504428341.989,84.473,-752.930,86.426,115.234,66.406,0
1504428341.993,86.426,-965.820,75.684,112.793,75.195,0
1504428341.997,93.262,-985.352,39.551,116.211,69.336,0
1504428342.000,87.891,-834.473,57.129,113.770,48.340,0
1504428342.004,80.566,-833.008,66.406,104.492,26.855,0
1504428342.008,65.918,-939.941,53.223,84.961,33.203,0
1504428342.012,59.082,-845.703,41.992,78.125,58.105,0
1504428342.016,65.430,-729.492,34.180,81.055,58.594,0
1504428342.020,67.383,-837.891,35.156,82.031,14.648,0
1504428342.024,69.336,-907.715,20.996,87.402,8.789,0
1504428342.028,63.477,-730.469,43.945,87.402,50.293,0
1504428342.032,49.316,-720.215,60.547,75.195,56.152,0
1504428342.036,53.711,-832.520,50.781,68.848,38.574,0
1504428342.040,56.641,-943.848,33.691,66.406,36.133,0
1504428342.043,52.246,-975.098,4.883,56.152,62.988,0
1504428342.047,49.805,-845.703,-23.438,54.199,98.145,0
1504428342.051,56.641,-899.902,19.043,61.523,47.363,0
1504428342.055,65.918,-929.199,75.684,69.824,9.277,0
1504428342.059,62.500,-717.285,48.340,70.312,43.457,0
1504428342.063,75.684,-785.156,70.801,81.543,33.203,0
1504428342.067,95.215,-909.180,93.262,102.051,14.648,0
1504428342.071,70.312,-843.750,29.785,73.730,54.688,0
1504428342.075,52.734,-772.461,16.113,58.105,48.340,0
1504428342.079,55.664,-855.469,57.129,66.406,8.301,0
1504428342.083,45.898,-897.949,43.457,57.129,15.625,0
1504428342.086,42.480,-870.605,25.879,50.293,62.012,0
1504428342.090,65.430,-895.996,49.805,70.801,82.520,0
1504428342.094,60.547,-913.574,19.531,77.148,20.020,0
1504428342.098,44.922,-906.738,-10.254,62.988,-4.883,0
1504428342.102,51.270,-717.285,26.367,63.477,45.410,0
1504428342.106,50.781,-616.211,14.160,62.500,64.941,0
1504428342.110,54.688,-808.105,-20.020,63.965,44.434,0
1504428342.114,48.340,-855.469,27.832,62.500,42.969,0
1504428342.118,38.574,-621.582,48.340,60.547,77.148,0
1504428342.122,39.551,-617.676,18.066,50.781,74.219,0
1504428342.125,55.176,-697.266,56.641,56.152,73.242,0
1504428342.129,55.664,-789.062,56.641,66.406,82.520,0
1504428342.133,31.250,-901.855,47.852,51.270,61.523,0
1504428342.137,28.320,-936.035,47.852,49.805,46.387,0
1504428342.141,25.879,-979.492,36.621,59.082,6.348,0
1504428342.145,7.324,-883.789,7.324,38.574,1.953,0
1504428342.149,6.836,-664.551,-1.953,25.879,36.621,0
1504428342.153,11.719,-670.898,-1.953,24.902,44.922,0
1504428342.157,7.324,-849.121,-30.273,9.277,51.758,0
1504428342.161,1.953,-720.215,9.277,-4.395,57.129,0
1504428342.165,5.859,-626.465,31.738,-4.883,76.660,0
1504428342.168,21.484,-797.852,10.742,7.324,57.617,0
1504428342.172,20.508,-764.648,-7.324,8.789,44.922,0
1504428342.176,13.672,-658.203,-19.531,2.930,35.645,0
1504428342.180,8.789,-788.086,6.348,4.395,67.871,0
1504428342.184,19.531,-920.898,26.367,15.625,75.195,0
1504428342.188,42.480,-958.496,28.809,31.738,17.090,0
1504428342.192,26.855,-775.391,12.695,26.855,42.969,0
1504428342.196,8.789,-583.008,3.418,17.578,66.895,0
1504428342.200,15.137,-770.020,19.531,35.156,45.410,0
1504428342.204,11.719,-863.281,-29.785,31.738,23.438,0
1504428342.208,6.348,-680.176,-58.594,19.531,49.805,0
1504428342.211,17.578,-628.418,30.762,38.086,71.289,0
1504428342.215,20.508,-829.102,46.387,43.457,38.086,0
1504428342.219,24.414,-841.797,17.578,52.246,35.156,2
1504428342.223,22.949,-656.738,23.926,46.875,58.105,0
1504428342.227,20.508,-836.426,17.090,25.391,57.617,0
1504428342.231,24.902,-998.047,8.301,24.414,70.312,0
1504428342.235,29.785,-872.559,26.855,35.156,64.941,0
1504428342.239,44.434,-662.598,54.199,50.781,64.453,0
1504428342.243,48.340,-647.461,46.387,63.477,80.566,0
1504428342.247,35.645,-867.676,10.254,56.641,78.125,0
1504428342.250,32.715,-869.141,1.953,49.805,70.801,0
1504428342.254,43.457,-636.230,44.434,54.199,71.777,0
1504428342.258,51.270,-730.957,40.527,61.523,63.477,0
1504428342.262,65.430,-863.281,25.879,71.289,70.801,0
1504428342.266,66.406,-680.176,39.062,63.965,83.496,0
1504428342.270,64.941,-640.625,52.734,56.152,63.965,0
1504428342.274,74.219,-835.938,57.129,60.059,69.824,0
1504428342.278,67.871,-975.098,33.691,54.199,48.828,0
1504428342.282,64.941,-808.594,32.715,55.664,36.621,0
1504428342.286,65.918,-614.258,37.598,60.547,72.266,0
1504428342.290,68.359,-776.367,26.367,62.500,43.457,0
1504428342.293,58.105,-876.953,5.371,55.664,14.160,0
1504428342.297,68.359,-709.473,13.184,59.082,43.945,0
1504428342.301,88.867,-698.242,19.043,62.500,34.668,0
1504428342.305,86.426,-867.188,9.766,47.852,25.879,0
1504428342.309,100.098,-949.707,38.574,64.453,46.387,0
1504428342.313,104.980,-737.793,53.711,80.078,66.406,0
1504428342.317,81.055,-655.762,40.527,70.801,72.754,0
1504428342.321,76.172,-893.066,41.016,76.660,48.828,0
1504428342.325,82.031,-920.410,47.363,82.520,68.848,0
1504428342.329,87.402,-736.328,41.992,76.660,57.129,0
1504428342.333,88.867,-738.281,35.156,79.590,38.086,0
1504428342.336,87.891,-896.973,28.809,80.078,22.461,0
1504428342.340,86.426,-824.707,-6.348,78.613,24.902,0
1504428342.344,83.008,-654.297,0.488,78.125,57.129,0
1504428342.348,76.172,-805.664,32.715,69.824,24.414,0
1504428342.352,70.312,-899.414,20.996,67.383,6.836,0
1504428342.356,79.590,-781.738,60.547,79.590,23.438,0
1504428342.360,68.848,-736.328,32.227,69.336,30.273,0
1504428342.364,72.266,-821.777,20.996,71.289,42.480,0
1504428342.368,73.242,-953.125,68.848,73.242,68.359,0
1504428342.372,60.547,-955.566,61.523,59.082,63.965,0
1504428342.375,54.199,-959.473,32.227,61.523,57.129,0
1504428342.379,49.805,-969.238,19.531,62.500,61.523,0
1504428342.383,62.012,-958.008,49.805,77.637,20.996,0
1504428342.387,68.359,-777.832,37.109,79.102,35.156,0
1504428342.391,73.730,-641.113,46.875,71.289,52.246,0
1504428342.395,64.941,-857.422,55.176,73.730,5.859,0
1504428342.399,52.246,-885.254,44.922,77.637,11.719,0
1504428342.403,55.176,-669.434,20.508,83.008,51.270,0
1504428342.407,62.012,-625.488,15.625,82.520,65.918,0
1504428342.411,68.359,-733.398,64.453,87.402,57.617,0
1504428342.415,87.402,-851.074,96.191,106.934,65.430,0
1504428342.418,87.891,-879.395,86.426,101.074,82.520,0
1504428342.422,60.547,-831.543,48.828,83.984,80.078,0
1504428342.426,54.688,-903.809,31.738,94.727,65.430,0
1504428342.430,59.082,-894.531,46.387,98.633,33.691,0
1504428342.434,59.082,-645.996,79.102,103.516,52.246,0
1504428342.438,46.387,-713.379,73.242,97.168,39.551,0
1504428342.442,39.062,-931.152,43.457,85.938,8.789,0
1504428342.446,52.246,-782.715,65.918,84.473,39.062,0
1504428342.450,74.707,-627.930,81.543,97.168,56.152,0
1504428342.454,65.918,-750.000,55.176,82.031,46.387,0
1504428342.458,53.711,-795.410,33.691,57.617,44.434,0
1504428342.461,59.570,-862.305,27.832,55.664,76.172,0
1504428342.465,62.500,-879.395,41.504,76.172,85.449,0
1504428342.469,51.270,-858.887,65.918,83.984,28.320,0
1504428342.473,45.410,-954.102,57.617,63.965,-4.395,0
1504428342.477,61.035,-791.016,55.176,68.359,14.648,0
1504428342.481,57.617,-660.645,35.156,67.383,47.363,0
1504428342.485,45.410,-794.434,4.395,54.199,69.824,0
1504428342.489,48.340,-792.480,14.160,59.570,62.500,0
1504428342.493,49.805,-689.453,40.039,62.500,35.645,0
1504428342.497,51.270,-709.961,65.918,62.988,29.785,0
1504428342.500,45.898,-812.500,61.523,61.523,52.734,0
1504428342.504,34.180,-797.852,41.992,45.898,62.012,0
1504428342.508,32.715,-838.867,0.977,44.434,55.664,0
1504428342.512,31.250,-978.516,17.578,38.086,46.875,0
1504428342.516,27.832,-961.426,34.668,22.949,15.625,0
1504428342.520,38.086,-798.340,6.348,37.598,33.691,0
1504428342.524,46.875,-662.109,23.438,57.129,47.852,0
1504428342.528,12.695,-756.836,40.039,36.133,24.414,0
1504428342.532,-10.742,-928.223,8.301,19.043,19.531,0
1504428342.536,-1.465,-822.754,4.395,15.625,36.133,0
1504428342.540,1.465,-635.254,42.969,21.973,55.176,0
1504428342.543,-0.488,-815.918,12.695,24.414,67.383,0
1504428342.547,-1.465,-896.973,4.395,15.625,63.477,0
1504428342.551,7.812,-691.406,-7.324,20.508,53.711,0
1504428342.555,24.902,-806.641,-28.809,28.809,74.219,0
1504428342.559,14.648,-951.660,18.555,19.043,82.031,0
1504428342.563,2.441,-957.520,38.574,5.371,21.484,0
1504428342.567,5.371,-805.176,21.484,7.324,20.508,0
1504428342.571,12.207,-609.863,15.625,21.484,64.453,0
1504428342.575,21.973,-727.051,-19.043,26.367,59.082,0
1504428342.579,43.945,-770.508,-52.734,40.039,50.293,0
1504428342.583,53.711,-612.305,-1.465,36.621,58.594,0
1504428342.586,33.203,-744.141,8.301,19.043,49.316,0
1504428342.590,34.180,-875.488,-17.090,30.762,41.016,0
1504428342.594,62.500,-760.742,16.113,50.781,31.250,0
1504428342.598,65.430,-667.480,3.418,44.922,45.410,0
1504428342.602,61.035,-806.641,-12.695,45.410,63.477,0
1504428342.606,51.758,-991.211,-1.953,54.199,56.152,0
1504428342.610,40.039,-889.648,4.883,54.199,36.133,0
1504428342.614,54.688,-697.266,19.043,62.500,29.785,0
1504428342.618,62.500,-709.473,13.184,64.453,39.062,0
1504428342.622,55.664,-892.578,14.160,60.059,33.203,0
1504428342.625,44.434,-841.309,-3.418,65.430,19.531,0
1504428342.629,44.922,-596.191,-40.039,73.730,64.453,0
1504428342.633,67.383,-666.504,-111.328,81.055,83.008,0
1504428342.637,82.520,-906.738,-233.887,86.426,22.949,0
1504428342.641,68.848,-773.438,-307.129,68.359,28.809,0
1504428342.645,71.777,-676.270,-221.680,68.359,42.480,0
1504428342.649,75.195,-850.586,-121.582,72.266,58.105,0
1504428342.653,82.520,-1000.000,-237.305,81.055,32.227,0
1504428342.657,58.594,-856.934,-452.148,66.406,-0.977,0
1504428342.661,41.016,-714.355,-493.652,48.340,65.918,0
1504428342.665,67.871,-882.324,-742.188,68.359,73.242,0
1504428342.668,71.289,-976.562,-977.539,70.312,7.324,0
1504428342.672,67.383,-820.312,-965.820,72.266,-1.953,0
1504428342.676,73.730,-649.414,-750.488,81.055,46.875,0
1504428342.680,71.777,-813.965,-427.734,82.031,23.926,0
1504428342.684,72.754,-904.297,-236.328,87.891,-8.789,0
1504428342.688,80.566,-713.867,-104.980,92.773,21.484,0
1504428342.692,78.613,-646.484,-25.879,83.008,53.223,0
1504428342.696,91.309,-740.723,48.340,95.215,104.492,0
1504428342.700,91.797,-873.047,91.309,100.098,106.445,0
1504428342.704,76.172,-762.207,118.164,86.426,67.871,0
1504428342.708,85.938,-674.805,123.047,86.426,57.617,0
1504428342.711,99.609,-900.391,106.445,96.191,36.133,0
1504428342.715,87.891,-891.113,138.672,83.496,4.395,0
1504428342.719,82.520,-735.352,211.914,74.219,43.945,3
1504428342.723,91.797,-870.605,216.309,88.379,52.734,0
1504428342.727,74.707,-909.180,161.133,80.566,20.020,0
1504428342.731,68.848,-764.160,203.613,80.566,18.066,0
1504428342.735,79.102,-628.906,240.234,82.031,45.898,0
1504428342.739,88.867,-745.605,208.008,78.125,49.805,0
1504428342.743,104.004,-930.664,218.750,91.309,48.340,0
1504428342.747,114.258,-956.543,232.910,97.656,51.758,0
1504428342.750,109.375,-882.812,210.449,93.750,33.203,0
1504428342.754,84.473,-832.031,197.754,87.891,59.082,0
1504428342.758,68.848,-959.961,196.777,79.590,33.203,0
1504428342.762,65.430,-804.199,184.570,75.195,15.625,0
1504428342.766,70.312,-651.855,169.922,73.242,44.922,0
1504428342.770,82.031,-794.922,198.730,81.543,38.086,0
1504428342.774,84.473,-775.391,189.453,72.754,53.223,0
1504428342.778,80.566,-717.285,160.645,63.965,41.992,0
1504428342.782,71.777,-845.703,190.918,71.777,37.109,0
1504428342.786,63.965,-894.043,201.172,60.059,63.965,0
1504428342.790,56.641,-906.738,171.387,64.941,77.148,0
1504428342.793,58.594,-893.555,141.602,81.055,80.566,0
1504428342.797,69.824,-932.129,170.898,80.566,69.824,0
1504428342.801,72.266,-984.863,158.691,71.777,25.879,0
1504428342.805,78.613,-876.465,131.348,76.660,16.113,0
1504428342.809,75.684,-633.789,158.203,69.336,67.383,0
1504428342.813,66.406,-720.703,144.043,55.176,53.223,0
1504428342.817,70.312,-870.117,138.672,58.594,33.691,0
1504428342.821,64.453,-716.309,153.809,66.406,53.223,0
1504428342.825,57.129,-625.977,154.297,77.637,63.477,0
1504428342.829,52.246,-754.883,142.578,68.848,66.895,0
1504428342.833,56.152,-876.465,114.746,60.547,37.598,0
1504428342.836,70.312,-893.066,133.789,72.266,46.387,0
1504428342.840,72.754,-952.637,155.762,65.918,81.055,0
1504428342.844,66.406,-957.520,144.043,59.082,53.223,0
1504428342.848,56.152,-953.613,124.023,68.359,13.672,0
1504428342.852,39.551,-781.738,85.449,53.711,39.551,0
1504428342.856,40.039,-640.137,85.938,48.828,63.965,0
1504428342.860,44.434,-827.637,102.539,52.246,37.598,0
1504428342.864,39.062,-899.414,83.496,36.621,21.973,0
1504428342.868,50.293,-673.828,99.609,41.504,62.012,0
1504428342.872,62.500,-651.855,133.789,50.781,65.918,0
1504428342.875,50.293,-745.605,120.117,36.133,74.219,0
1504428342.879,57.129,-742.676,106.934,39.551,66.406,0
1504428342.883,65.430,-836.914,94.727,53.711,76.172,0
1504428342.887,48.340,-893.066,87.891,55.176,80.566,0
1504428342.891,33.691,-916.992,44.922,43.457,16.113,0
1504428342.895,27.832,-882.812,44.922,32.227,19.043,0
1504428342.899,45.898,-753.906,125.000,46.875,70.801,0
1504428342.903,56.641,-748.535,130.859,58.594,72.266,0
1504428342.907,44.434,-865.723,91.309,41.016,45.410,0
1504428342.911,46.875,-809.082,52.734,38.574,34.180,0
1504428342.915,53.223,-653.809,57.617,46.387,52.246,0
1504428342.918,60.059,-758.789,81.543,54.199,60.547,0
1504428342.922,50.781,-814.941,69.824,57.129,46.875,0
1504428342.926,31.250,-719.238,64.453,42.480,32.227,0
1504428342.930,31.250,-819.336,64.453,38.574,62.500,0
1504428342.934,35.645,-937.500,59.570,44.922,70.312,0
1504428342.938,41.016,-970.215,45.410,41.992,8.301,0
1504428342.942,58.594,-818.359,32.715,46.875,12.207,0
1504428342.946,52.734,-649.414,61.523,41.016,50.293,0
1504428342.950,38.086,-780.273,84.473,37.109,44.922,0
1504428342.954,42.480,-839.844,72.754,49.316,27.832,0
1504428342.958,55.664,-838.867,57.617,57.129,28.320,0
1504428342.961,54.199,-797.363,55.176,48.828,36.621,0
1504428342.965,66.406,-868.164,66.895,55.664,19.531,0
1504428342.969,89.355,-876.953,83.984,74.219,26.367,0
1504428342.973,76.172,-649.902,62.500,62.500,78.613,0
1504428342.977,58.594,-813.965,29.785,50.293,105.957,0
1504428342.981,56.152,-992.188,58.594,51.758,63.965,0
1504428342.985,62.012,-930.176,41.016,51.270,4.395,0
1504428342.989,65.918,-747.559,40.527,50.781,35.156,0
1504428342.993,65.918,-749.512,94.238,53.223,56.152,0
1504428342.997,65.430,-894.531,43.945,48.828,25.879,0
1504428343.000,69.824,-857.422,38.086,49.316,7.324,0
1504428343.004,66.895,-747.559,76.172,54.688,29.785,0
1504428343.008,63.477,-845.703,68.359,55.176,52.246,0
1504428343.012,57.617,-870.605,75.684,50.293,64.453,0
1504428343.016,45.410,-803.711,67.871,52.734,84.473,0
1504428343.020,47.852,-908.203,42.969,56.641,61.035,0
1504428343.024,48.828,-940.430,23.926,49.805,52.246,0
1504428343.028,39.062,-971.191,43.457,45.898,56.152,0
1504428343.032,34.180,-825.684,57.129,55.176,61.523,0
1504428343.036,45.410,-676.270,45.898,69.336,68.359,0
1504428343.040,51.758,-814.941,70.312,72.266,51.270,0
1504428343.043,36.133,-950.684,71.777,58.105,12.695,0
1504428343.047,31.250,-803.223,39.062,52.734,21.484,0
1504428343.051,28.320,-695.312,22.949,51.758,59.082,0
1504428343.055,38.086,-779.297,28.320,62.500,56.152,0
1504428343.059,47.852,-809.570,55.664,67.383,40.527,0
1504428343.063,29.785,-708.496,67.383,54.688,56.641,0
1504428343.067,34.180,-704.590,55.664,52.246,55.664,0
1504428343.071,45.898,-853.516,49.316,54.688,86.426,0
1504428343.075,60.547,-989.746,54.688,65.918,80.566,0
1504428343.079,67.383,-896.973,18.066,68.848,45.410,0
1504428343.083,62.500,-770.996,29.785,72.754,48.340,0
1504428343.086,71.289,-930.176,71.777,79.590,15.625,0
1504428343.090,82.520,-930.664,77.637,93.750,11.230,0
1504428343.094,68.359,-718.262,47.363,90.332,33.203,0
1504428343.098,62.012,-774.902,19.043,79.102,32.227,0
1504428343.102,65.918,-925.781,48.828,83.496,6.836,0
1504428343.106,67.871,-785.156,50.293,90.332,28.320,0
1504428343.110,74.707,-670.898,70.312,87.402,52.246,0
1504428343.114,66.406,-815.918,80.078,78.613,37.598,0
1504428343.118,58.105,-962.402,34.180,78.125,53.711,0
1504428343.122,65.430,-969.727,40.039,79.102,68.359,0
1504428343.125,72.266,-831.055,90.332,80.078,49.316,0
1504428343.129,57.129,-811.523,89.355,70.801,39.062,0
1504428343.133,51.270,-983.887,78.613,73.242,38.086,0
1504428343.137,46.875,-854.492,73.730,75.684,50.781,0
1504428343.141,38.086,-683.105,50.293,55.176,41.504,0
1504428343.145,46.387,-852.539,46.387,54.199,27.832,0
1504428343.149,61.523,-871.094,43.457,68.848,53.223,0
1504428343.153,67.383,-675.293,39.062,76.172,64.941,0
1504428343.157,40.039,-674.805,34.668,65.918,58.594,0
1504428343.161,26.367,-764.160,29.297,55.176,60.059,0
1504428343.165,30.273,-891.602,65.918,56.641,57.617,0
1504428343.168,27.832,-918.945,80.566,58.594,79.590,0
1504428343.172,32.715,-912.109,76.172,74.219,56.152,0
1504428343.176,30.762,-929.688,99.609,78.613,25.391,0
1504428343.180,23.438,-779.785,79.590,59.082,61.035,0
1504428343.184,29.297,-645.508,55.664,59.570,69.824,0
1504428343.188,37.109,-739.258,34.668,60.547,44.434,0
1504428343.192,47.852,-953.613,54.688,68.359,7.812,0
1504428343.196,48.828,-923.340,57.129,81.543,25.879,0
1504428343.200,52.246,-723.145,48.340,86.914,48.828,0
1504428343.204,68.359,-795.410,34.668,90.332,37.109,0
1504428343.208,101.074,-900.391,44.434,114.746,35.156,0
1504428343.211,102.051,-923.340,61.035,120.605,61.035,0
1504428343.215,71.289,-926.270,46.387,100.098,54.688,0
1504428343.219,74.707,-888.184,71.777,105.957,28.320,4
1504428343.223,79.590,-950.195,58.594,99.609,17.578,0
1504428343.227,84.961,-786.133,45.898,104.980,39.551,0
1504428343.231,89.844,-675.781,72.266,111.328,61.035,0
1504428343.235,97.656,-811.035,69.336,114.746,52.246,0
1504428343.239,110.840,-824.707,65.430,120.605,45.410,0
1504428343.243,101.562,-729.004,83.008,111.328,42.969,0
1504428343.247,91.309,-710.938,84.961,109.375,49.316,0
1504428343.250,76.172,-853.027,54.688,105.469,53.223,0
1504428343.254,67.871,-904.785,44.922,111.328,70.312,0
1504428343.258,76.172,-896.973,37.109,114.746,80.566,0
1504428343.262,86.426,-968.262,75.684,109.375,60.547,0
1504428343.266,74.219,-976.562,98.145,88.379,13.672,0
1504428343.270,55.664,-900.879,69.824,69.824,24.414,0
1504428343.274,70.312,-727.539,88.379,85.449,40.039,0
1504428343.278,65.430,-762.207,61.523,79.590,33.691,0
1504428343.282,46.387,-898.926,38.574,65.430,43.945,0
1504428343.286,64.453,-769.531,62.500,79.102,59.570,0
1504428343.290,46.387,-649.902,43.945,59.082,66.895,0
1504428343.293,35.156,-809.570,48.828,53.223,51.758,0
1504428343.297,32.715,-880.371,48.340,52.734,28.809,0
1504428343.301,17.090,-740.723,19.043,43.945,33.691,0
1504428343.305,20.020,-764.648,28.320,47.852,99.121,0
1504428343.309,23.438,-898.438,49.316,43.945,94.727,0
1504428343.313,21.973,-966.309,40.527,37.109,22.461,0
1504428343.317,20.508,-838.379,18.066,34.180,26.855,0
1504428343.321,17.578,-661.133,2.930,32.715,49.805,0
1504428343.325,22.461,-794.922,1.953,40.039,59.082,0
1504428343.329,19.043,-929.199,33.203,51.758,43.457,0
1504428343.333,2.930,-754.883,1.465,34.668,41.992,0
1504428343.336,6.836,-719.727,-3.418,19.531,32.227,0
1504428343.340,6.348,-820.801,17.090,19.531,24.902,0
1504428343.344,10.742,-744.629,-3.418,20.508,65.430,0
1504428343.348,20.020,-638.672,15.137,23.926,79.590,0
1504428343.352,20.508,-810.059,35.156,25.391,92.773,0
1504428343.356,39.551,-995.117,44.434,39.062,60.059,0
1504428343.360,35.645,-869.141,30.273,37.598,34.180,0
1504428343.364,20.508,-664.062,11.230,27.344,70.801,0
1504428343.368,15.625,-693.359,-5.859,22.461,67.383,0
1504428343.372,32.715,-905.273,-1.465,35.645,59.082,0
1504428343.375,26.855,-842.285,35.156,29.785,58.105,0
1504428343.379,7.812,-652.832,3.418,15.137,61.523,0
1504428343.383,16.113,-776.855,-20.020,33.203,45.898,0
1504428343.387,16.113,-868.652,-3.906,32.227,61.035,0
1504428343.391,21.973,-741.699,32.715,32.715,58.105,0
1504428343.395,23.438,-692.871,22.461,35.156,40.527,0
1504428343.399,33.691,-851.074,25.391,41.504,76.660,0
1504428343.403,45.898,-970.703,66.406,45.410,55.664,0
1504428343.407,39.062,-802.246,54.199,41.016,23.926,0
1504428343.411,20.996,-657.227,39.551,44.434,47.852,0
1504428343.415,29.297,-792.480,48.340,63.477,42.969,0
1504428343.418,36.621,-824.707,38.574,67.871,39.062,0
1504428343.422,42.480,-684.082,3.906,58.594,46.875,0
1504428343.426,39.551,-681.152,9.766,42.480,36.133,0
1504428343.430,37.109,-838.867,33.691,40.039,28.320,0
1504428343.434,38.574,-923.828,9.277,49.805,30.762,0
1504428343.438,29.785,-743.652,-6.348,37.598,34.180,0
1504428343.442,35.645,-692.871,21.484,39.551,31.738,0
1504428343.446,34.668,-880.371,26.367,42.480,36.133,0
1504428343.450,34.180,-937.012,43.945,42.480,54.199,0
1504428343.454,38.574,-699.219,51.758,42.480,56.641,0
1504428343.458,46.387,-634.277,36.133,50.781,61.523,0
1504428343.461,51.758,-887.695,26.855,59.082,19.043,0
1504428343.465,48.828,-862.305,32.715,54.199,9.766,0
1504428343.469,55.664,-661.621,49.805,62.012,43.457,0
1504428343.473,73.730,-708.984,45.410,77.637,55.176,0
1504428343.477,59.570,-763.672,39.062,63.477,62.012,0
1504428343.481,65.430,-694.336,47.852,59.082,50.781,0
1504428343.485,73.242,-656.250,34.668,61.523,46.387,0
1504428343.489,52.734,-790.527,43.457,50.293,45.898,0
1504428343.493,53.711,-966.309,60.547,58.594,47.363,0
1504428343.497,58.105,-986.816,45.410,73.242,32.227,0
1504428343.500,69.824,-845.215,45.898,84.961,31.250,0
1504428343.504,95.703,-826.172,79.102,99.609,35.645,0
1504428343.508,95.215,-963.867,40.527,105.469,32.715,0
1504428343.512,86.914,-789.551,22.949,108.398,43.945,0
1504428343.516,77.637,-610.840,70.312,100.586,70.801,0
1504428343.520,73.242,-795.898,89.844,93.750,55.176,0
1504428343.524,78.125,-878.906,88.379,89.844,37.109,0
1504428343.528,79.102,-692.871,62.012,92.773,59.570,0
1504428343.532,72.266,-685.059,32.227,100.098,59.570,0
1504428343.536,78.125,-762.207,74.707,114.258,58.594,0
1504428343.540,77.148,-911.133,101.074,109.863,34.668,0
1504428343.543,74.707,-971.191,87.402,107.422,20.020,0
1504428343.547,72.266,-934.570,52.734,100.586,70.801,0
1504428343.551,43.457,-973.145,45.410,77.637,52.734,0
1504428343.555,27.344,-877.930,74.219,81.055,20.508,0
1504428343.559,27.832,-632.324,50.781,81.543,59.570,0
1504428343.563,28.320,-663.086,28.809,74.707,70.312,0
1504428343.567,31.738,-891.602,30.762,69.336,44.922,0
1504428343.571,21.973,-798.828,40.527,61.035,27.344,0
1504428343.575,25.391,-629.883,52.734,71.289,45.410,0
1504428343.579,32.227,-728.027,34.668,69.824,59.570,0
1504428343.583,6.836,-805.176,24.902,47.852,43.457,0
1504428343.586,12.207,-883.301,58.105,58.594,58.105,0
1504428343.590,9.766,-862.793,25.879,56.641,76.660,0
1504428343.594,-0.977,-847.168,9.277,45.898,26.855,0
1504428343.598,19.043,-961.914,50.781,66.895,15.625,0
1504428343.602,16.602,-746.094,50.293,69.336,41.016,0
1504428343.606,-1.953,-706.055,23.926,51.758,64.453,0
1504428343.610,6.348,-920.410,46.875,55.176,63.477,0
1504428343.614,10.254,-826.660,52.734,63.477,45.410,0
1504428343.618,1.465,-645.996,31.250,64.941,60.547,0
1504428343.622,6.836,-639.648,52.246,71.777,59.570,0
1504428343.625,6.348,-844.238,40.527,74.219,27.344,0
1504428343.629,13.184,-834.473,40.527,76.660,39.551,0
1504428343.633,31.738,-822.754,26.367,82.520,80.566,0
1504428343.637,35.645,-905.273,8.789,83.984,66.406,0
1504428343.641,34.668,-917.480,94.238,90.332,19.043,0
1504428343.645,26.855,-925.781,112.305,91.309,5.371,0
1504428343.649,22.949,-722.168,76.172,84.961,27.832,0
1504428343.653,32.715,-680.664,57.617,94.238,55.176,0
1504428343.657,45.410,-862.793,46.387,104.492,41.992,0
1504428343.661,38.086,-766.113,58.594,81.055,30.273,0
1504428343.665,10.742,-678.223,45.410,48.340,61.523,0
1504428343.668,14.160,-912.109,29.297,60.059,54.688,0
1504428343.672,21.484,-864.746,58.594,72.266,42.969,0
1504428343.676,-5.859,-678.223,18.066,43.457,51.270,0
1504428343.680,-5.859,-836.426,0.977,39.062,61.035,0
1504428343.684,10.254,-941.406,39.062,52.734,82.031,0
1504428343.688,12.207,-938.477,41.504,63.965,28.320,0
1504428343.692,7.812,-779.785,41.016,62.012,24.902,0
1504428343.696,3.418,-641.602,32.227,56.641,47.363,0
1504428343.700,-5.859,-779.297,34.668,57.129,46.387,0
1504428343.704,-16.602,-773.926,49.316,47.852,62.500,0
1504428343.708,-12.207,-643.066,47.363,49.805,74.707,0
1504428343.711,1.465,-664.551,16.113,61.523,63.965,0
1504428343.715,13.184,-771.484,29.297,68.848,52.246,0
1504428343.719,-10.742,-819.336,8.789,44.434,27.344,5
1504428343.723,-38.086,-775.879,-18.066,17.578,20.996,0
1504428343.727,-36.621,-898.438,12.695,19.531,47.852,0
1504428343.731,-26.367,-979.492,-7.812,19.043,62.012,0
1504428343.735,-10.742,-933.594,14.648,28.320,20.020,0
1504428343.739,-14.648,-781.250,31.738,25.879,20.996,0
1504428343.743,-19.531,-763.672,26.855,35.645,41.504,0
1504428343.747,-9.766,-949.707,23.438,45.898,1.953,0
1504428343.750,-17.578,-857.910,-22.949,20.020,19.531,0
1504428343.754,-19.043,-671.875,-23.438,12.207,67.383,0
1504428343.758,-5.859,-798.340,8.789,26.367,41.016,0
1504428343.762,-16.602,-909.668,-3.906,24.414,30.273,0
1504428343.766,-34.180,-760.254,-7.324,4.883,67.871,0
1504428343.770,-20.508,-749.023,11.230,14.160,41.016,0
1504428343.774,4.395,-928.223,7.324,41.504,46.387,0
1504428343.778,4.883,-957.031,-35.645,41.504,70.801,0
1504428343.782,8.789,-819.824,-23.438,35.645,47.363,0
1504428343.786,9.766,-802.734,30.273,36.621,73.242,0
1504428343.790,5.859,-891.602,62.500,40.039,58.105,0
1504428343.793,26.855,-950.195,61.523,50.293,14.160,0
1504428343.797,33.203,-823.730,47.852,48.828,28.320,0
1504428343.801,2.930,-698.242,38.574,26.367,55.664,0
1504428343.805,-15.137,-839.844,26.855,20.996,22.949,0
1504428343.809,-19.531,-941.895,21.484,23.926,-17.090,0
1504428343.813,-16.602,-755.859,4.883,28.809,36.133,0
1504428343.817,-3.906,-674.316,-5.371,41.016,64.941,0
1504428343.821,13.672,-878.418,51.758,58.105,60.547,0
1504428343.825,23.438,-931.152,35.156,64.453,83.496,0
1504428343.829,30.762,-740.723,-54.688,63.477,76.172,0
1504428343.833,30.273,-731.445,-66.895,59.570,42.969,0
1504428343.836,21.973,-919.434,1.465,56.152,13.672,0
1504428343.840,13.672,-862.793,25.879,55.176,21.484,0
1504428343.844,17.090,-756.836,-10.254,51.758,51.270,0
1504428343.848,30.762,-832.520,-26.367,63.965,50.293,0
1504428343.852,39.062,-899.902,-18.555,71.777,42.480,0
1504428343.856,32.227,-787.109,-41.504,57.617,40.527,0
1504428343.860,21.484,-676.758,-66.895,54.688,38.574,0
1504428343.864,19.043,-809.082,-56.641,56.641,28.809,0
1504428343.868,22.461,-963.867,-40.527,51.270,16.602,0
1504428343.872,30.273,-980.469,6.836,57.617,11.719,0
1504428343.875,26.855,-789.062,43.945,62.988,47.852,0
1504428343.879,12.695,-810.547,9.277,49.805,44.434,0
1504428343.883,18.555,-882.812,-16.602,52.734,33.691,0
1504428343.887,33.203,-708.496,2.930,68.848,43.945,0
1504428343.891,35.156,-707.520,26.855,72.266,30.273,0
1504428343.895,26.367,-869.141,37.598,64.453,2.930,0
1504428343.899,23.926,-915.039,37.598,55.176,1.953,0
1504428343.903,32.715,-815.918,38.574,61.523,51.758,0
1504428343.907,43.457,-831.543,39.551,71.777,58.594,0
1504428343.911,20.508,-871.582,14.648,61.523,30.762,0
1504428343.915,14.160,-975.098,14.160,67.871,26.855,0
1504428343.918,18.555,-970.215,6.836,73.242,54.688,0
1504428343.922,5.371,-823.242,-1.953,59.082,69.336,0
1504428343.926,12.207,-885.742,-0.488,61.523,18.066,0
1504428343.930,26.855,-940.430,-4.883,64.941,-15.137,0
1504428343.934,38.086,-693.359,42.480,75.684,25.391,0
1504428343.938,26.367,-668.457,22.949,76.172,67.871,0
1504428343.942,6.836,-787.109,3.418,68.848,72.754,0
1504428343.946,17.578,-720.703,42.480,74.707,53.223,0
1504428343.950,29.785,-632.324,39.062,76.172,57.129,0
1504428343.954,39.062,-711.914,38.574,82.520,64.453,0
1504428343.958,44.434,-837.402,54.688,87.402,32.227,0
1504428343.961,32.715,-888.184,53.711,80.078,30.762,0
1504428343.965,26.855,-957.031,39.062,87.402,69.824,0
1504428343.969,25.879,-957.031,20.996,92.773,63.965,0
1504428343.973,25.391,-968.750,39.062,83.496,6.348,0
1504428343.977,33.203,-796.387,54.199,87.891,25.391,0
1504428343.981,42.480,-642.090,79.102,105.469,52.246,0
1504428343.985,27.344,-842.773,91.797,96.680,3.906,0
1504428343.989,11.230,-889.648,65.918,76.660,5.371,0
1504428343.993,12.207,-655.762,26.855,71.289,56.641,0
1504428343.997,17.578,-595.703,53.711,68.848,85.938,0
1504428344.000,16.602,-745.117,83.984,68.848,61.523,0
1504428344.004,17.578,-714.844,67.871,72.266,59.570,0
1504428344.008,10.254,-797.363,59.570,62.988,85.449,0
1504428344.012,6.348,-881.348,66.895,69.824,83.496,0
1504428344.016,21.484,-874.023,65.918,86.426,35.156,0
1504428344.020,20.996,-966.797,66.406,69.336,23.926,0
1504428344.024,9.766,-823.730,82.520,55.664,67.383,0
1504428344.028,15.137,-727.051,87.402,63.477,61.035,0
1504428344.032,37.109,-868.164,113.770,84.961,55.664,0
1504428344.036,27.344,-774.414,77.637,84.473,60.059,0
1504428344.040,11.719,-597.168,64.453,78.613,63.965,0
1504428344.043,21.973,-722.168,94.727,86.426,60.059,0
1504428344.047,29.297,-819.824,81.055,83.984,47.852,0
1504428344.051,46.387,-707.031,100.586,96.191,40.039,0
1504428344.055,62.500,-839.844,92.773,101.562,58.594,0
1504428344.059,66.406,-975.586,43.945,105.469,63.477,0
1504428344.063,66.406,-932.129,52.246,104.492,35.645,0
1504428344.067,71.777,-786.133,90.820,108.887,37.109,0
1504428344.071,68.848,-684.082,89.844,107.910,30.762,0
1504428344.075,50.293,-765.625,61.523,90.820,36.621,0
1504428344.079,51.758,-859.863,52.734,80.566,48.340,0
1504428344.083,55.176,-808.594,61.523,72.266,58.594,0
1504428344.086,55.664,-645.508,57.617,72.754,64.941,0
1504428344.090,56.641,-807.617,51.270,70.312,30.273,0
1504428344.094,44.922,-880.859,26.855,57.129,20.996,0
1504428344.098,39.551,-663.086,16.113,53.223,58.105,0
1504428344.102,35.156,-781.738,23.926,50.293,82.031,0
1504428344.106,34.180,-972.168,4.883,47.852,47.363,0
1504428344.110,36.133,-925.781,34.668,40.039,-10.742,0
1504428344.114,46.875,-709.961,58.105,41.992,21.973,0
1504428344.118,47.363,-705.566,30.762,47.363,43.457,0
1504428344.122,21.973,-828.125,23.926,28.809,33.203,0
1504428344.125,11.230,-713.867,13.184,21.484,48.828,0
1504428344.129,13.184,-625.000,-20.020,20.020,59.082,0
1504428344.133,11.230,-680.664,15.625,27.832,76.172,0
1504428344.137,11.719,-806.152,27.832,36.621,47.852,0
1504428344.141,14.648,-824.219,1.465,32.715,42.969,0
1504428344.145,-4.883,-721.680,26.367,9.277,63.477,0
1504428344.149,-8.301,-812.988,4.395,7.324,89.844,0
1504428344.153,5.859,-996.094,-5.371,18.555,54.688,0
1504428344.157,-17.090,-870.117,22.949,-0.977,5.859,0
1504428344.161,-27.832,-654.785,13.672,-4.395,63.477,0
1504428344.165,-20.020,-785.156,-7.324,-1.465,41.992,0
1504428344.168,-14.160,-904.297,-3.418,-0.977,7.324,0
1504428344.172,-9.766,-695.312,0.977,-7.324,50.781,0
1504428344.176,-2.441,-622.559,-21.484,-18.555,82.520,0
1504428344.180,13.672,-738.281,-28.320,-14.160,71.289,0
1504428344.184,11.230,-772.949,-26.855,-15.137,43.945,0
1504428344.188,27.832,-664.062,4.883,10.254,56.641,0
1504428344.192,41.016,-661.133,16.113,32.715,63.477,0
1504428344.196,11.230,-821.289,-34.180,-0.488,77.637,0
1504428344.200,9.277,-972.168,-31.250,-6.836,66.406,0
1504428344.204,27.344,-889.160,4.883,5.371,53.223,0
1504428344.208,36.621,-751.953,1.465,7.812,55.664,0
1504428344.211,38.574,-925.293,16.113,14.160,23.926,0
1504428344.215,46.387,-900.879,23.438,26.855,45.898,0
1504428344.219,49.316,-659.180,7.812,31.738,71.777,0
1504428344.223,42.969,-737.305,8.301,29.297,45.898,0
1504428344.227,41.016,-923.828,14.160,41.016,22.461,0
1504428344.231,36.621,-833.008,18.555,43.457,23.438,0
1504428344.235,46.875,-662.598,30.273,34.668,59.082,0
1504428344.239,52.246,-760.742,43.457,36.133,57.617,0
1504428344.243,61.035,-930.176,5.859,51.270,62.988,0
1504428344.247,72.754,-911.621,-13.672,61.035,82.031,0
1504428344.250,56.641,-736.328,38.086,48.340,70.312,0
1504428344.254,50.781,-746.582,48.340,48.340,65.918,0
1504428344.258,48.828,-992.188,41.016,43.945,15.625,0
1504428344.262,69.824,-833.496,59.570,66.895,18.066,0
1504428344.266,67.871,-596.191,29.297,70.312,78.125,0
1504428344.270,61.523,-772.949,0.977,63.965,50.781,0
1504428344.274,87.402,-949.707,48.340,79.590,32.715,0
1504428344.278,104.492,-793.945,58.594,83.496,54.199,0
1504428344.282,105.957,-696.289,46.875,102.539,43.945,0
1504428344.286,86.426,-779.297,68.359,101.074,35.645,0
1504428344.290,86.426,-888.672,67.383,87.891,49.316,0
1504428344.293,90.820,-901.367,65.918,78.613,81.543,0
1504428344.297,102.539,-827.148,62.500,83.496,80.566,0
1504428344.301,117.188,-913.086,32.715,104.492,34.668,0
1504428344.305,100.586,-872.070,51.758,110.352,36.133,0
1504428344.309,78.613,-619.141,60.547,95.703,69.824,0
1504428344.313,82.520,-648.438,33.203,83.496,75.195,0
1504428344.317,91.309,-883.789,45.410,77.637,70.801,0
1504428344.321,96.191,-789.551,68.848,89.355,68.848,0
1504428344.325,88.379,-584.961,61.523,89.844,79.102,0
1504428344.329,84.961,-771.484,48.828,88.379,42.969,0
1504428344.333,85.449,-903.809,40.527,90.820,20.996,0
1504428344.336,83.496,-874.512,57.129,86.914,61.035,0
1504428344.340,79.102,-884.766,82.520,81.543,81.543,0
1504428344.344,82.031,-889.648,89.355,82.520,41.504,0
1504428344.348,83.984,-939.941,80.078,76.172,10.254,0
1504428344.352,82.031,-759.766,69.336,71.777,38.086,0
1504428344.356,78.613,-607.422,34.668,61.523,57.617,0
1504428344.360,60.059,-738.281,11.230,39.551,58.594,0
1504428344.364,54.199,-775.391,26.855,36.133,47.852,0
1504428344.368,43.457,-673.828,48.340,26.367,37.598,0
1504428344.372,50.293,-655.273,62.500,40.527,43.457,0
1504428344.375,68.359,-775.879,38.574,60.547,70.312,0
1504428344.379,69.336,-760.742,34.180,47.363,83.984,0
1504428344.383,74.219,-773.926,34.668,41.992,70.801,0
1504428344.387,80.566,-887.207,43.945,54.199,81.543,0
1504428344.391,75.195,-933.105,46.875,56.641,48.340,0
1504428344.395,84.961,-913.574,54.688,67.871,-3.418,0
1504428344.399,105.957,-665.527,70.312,83.008,40.039,0
1504428344.403,96.191,-651.367,56.641,65.430,53.711,0
1504428344.407,84.961,-865.234,47.363,56.641,29.785,0
1504428344.411,96.191,-818.359,34.668,72.266,14.160,0
1504428344.415,100.586,-614.258,40.527,75.195,50.293,0
1504428344.418,94.238,-709.961,12.207,74.707,52.246,0
1504428344.422,114.258,-808.594,20.020,93.262,31.738,0
1504428344.426,136.230,-615.723,87.891,105.957,70.801,0
1504428344.430,134.766,-723.145,57.617,97.168,97.656,0
1504428344.434,126.953,-917.480,58.105,89.355,109.375,0
1504428344.438,114.746,-930.664,47.363,81.543,48.340,0
1504428344.442,116.211,-728.027,48.340,72.266,31.250,0
1504428344.446,126.953,-528.320,93.750,90.332,86.426,0
1504428344.450,113.770,-751.953,56.152,83.008,42.480,0
1504428344.454,93.262,-978.027,32.227,62.500,-16.602,0
1504428344.458,97.168,-806.152,20.996,73.242,1.953,0
1504428344.461,103.516,-617.676,3.906,74.219,42.969,0
1504428344.465,112.793,-787.109,62.012,71.289,43.945,0
1504428344.469,106.445,-852.051,41.016,66.895,30.762,0
1504428344.473,97.168,-632.812,20.020,63.965,50.781,0
1504428344.477,108.887,-820.801,82.031,79.102,63.477,0
1504428344.481,94.727,-990.234,53.223,72.266,49.805,0
1504428344.485,67.871,-885.742,-2.441,43.457,41.992,0
1504428344.489,74.219,-662.109,13.184,50.293,78.125,0
1504428344.493,80.078,-641.113,18.066,49.805,58.105,0
1504428344.497,72.754,-930.176,14.160,26.367,18.555,0
1504428344.500,67.871,-911.133,32.227,25.879,11.719,0
1504428344.504,57.129,-666.016,5.371,26.855,22.949,0
1504428344.508,51.758,-707.520,-8.301,25.879,52.734,0
1504428344.512,59.082,-817.871,18.066,27.832,58.105,0
1504428344.516,66.895,-687.500,18.555,26.367,53.711,0
1504428344.520,68.848,-634.277,9.766,25.879,44.434,0
1504428344.524,57.129,-837.402,3.906,18.066,71.289,0
1504428344.528,47.852,-961.914,27.344,16.602,87.891,0
1504428344.532,65.918,-779.785,42.969,31.250,51.758,0
1504428344.536,66.895,-644.531,15.625,30.273,45.410,0
1504428344.540,72.266,-759.277,26.855,40.039,44.922,0
1504428344.543,69.336,-782.715,60.059,45.898,43.945,0
1504428344.547,51.758,-647.461,33.691,32.227,49.316,0
1504428344.551,45.898,-646.484,-2.930,10.742,55.664,0
1504428344.555,37.598,-809.570,-15.625,-0.977,49.316,0
1504428344.559,53.223,-772.949,19.043,32.715,59.570,0
1504428344.563,69.336,-680.176,64.941,52.246,40.527,0
1504428344.567,65.918,-685.059,62.988,53.223,41.016,0
1504428344.571,69.336,-829.102,20.020,59.082,58.594,0
1504428344.575,70.801,-980.957,31.250,64.941,37.109,0
1504428344.579,56.641,-768.066,63.965,44.434,43.457,0
1504428344.583,59.082,-667.969,50.781,41.504,58.105,0
1504428344.586,61.523,-859.863,28.320,46.875,34.668,0
1504428344.590,74.707,-792.480,7.812,51.270,50.293,0
1504428344.594,93.750,-640.625,52.734,72.266,62.988,0
1504428344.598,61.035,-710.938,52.246,41.016,56.641,0
1504428344.602,32.715,-932.617,32.227,10.254,30.273,0
1504428344.606,47.852,-849.121,41.016,23.926,17.090,0
1504428344.610,52.246,-659.668,41.504,35.645,53.223,0
1504428344.614,62.988,-835.449,40.527,48.828,46.387,0
1504428344.618,75.684,-963.379,6.348,43.457,66.895,0
1504428344.622,85.449,-898.438,30.273,58.105,88.867,0
1504428344.625,77.637,-726.074,61.523,63.965,68.359,0
1504428344.629,61.523,-780.762,39.551,37.109,49.805,0
1504428344.633,72.266,-956.543,50.781,52.246,20.508,0
1504428344.637,89.844,-772.949,5.371,65.430,21.484,0
1504428344.641,111.816,-613.281,11.719,76.172,59.082,0
1504428344.645,111.328,-746.582,40.527,83.008,58.105,0
1504428344.649,104.004,-807.129,34.668,71.777,41.992,0
1504428344.653,97.656,-665.039,64.453,60.059,63.477,0
1504428344.657,93.750,-644.043,58.594,69.336,74.219,0
1504428344.661,104.980,-779.785,64.941,93.750,51.758,0
1504428344.665,96.680,-927.734,48.340,88.379,50.293,0
1504428344.668,87.891,-875.977,24.902,67.383,97.656,0
1504428344.672,92.773,-876.953,24.902,71.777,97.656,0
1504428344.676,81.543,-981.934,3.418,70.801,31.250,0
1504428344.680,90.820,-919.434,-12.695,80.078,-1.465,0
1504428344.684,108.398,-713.867,-17.090,89.355,29.297,0
1504428344.688,113.770,-676.758,21.973,87.402,62.500,0
1504428344.692,104.004,-861.328,65.918,79.102,43.457,0
1504428344.696,99.609,-812.988,47.363,82.520,54.688,0
1504428344.700,118.164,-622.070,41.992,101.562,91.309,0
1504428344.704,97.168,-705.078,30.273,88.379,56.641,0
1504428344.708,74.219,-789.551,24.902,81.055,36.621,0
1504428344.711,80.078,-854.980,23.438,80.566,58.594,0
1504428344.715,86.914,-881.348,11.230,74.219,51.270,0
1504428344.719,88.867,-843.750,24.414,71.777,21.484,0
1504428344.723,92.773,-944.336,30.762,70.801,12.695,0
1504428344.727,90.820,-743.652,24.902,62.500,33.691,0
1504428344.731,92.773,-629.395,5.859,45.410,68.359,0
1504428344.735,106.934,-830.078,11.719,53.711,48.340,0
1504428344.739,110.840,-878.906,36.621,66.895,12.695,0
1504428344.743,97.656,-639.648,31.738,60.059,39.062,0
1504428344.747,106.934,-617.188,4.883,64.453,43.457,0
1504428344.750,110.352,-702.637,10.742,67.871,45.898,0
1504428344.754,101.074,-679.199,38.086,51.270,42.480,0
1504428344.758,108.887,-788.574,28.320,37.598,61.035,0
1504428344.762,118.164,-800.781,14.648,43.457,89.355,0
1504428344.766,118.652,-856.445,8.789,52.246,45.410,0
1504428344.770,109.375,-916.992,16.602,48.828,5.859,0
1504428344.774,113.770,-646.484,6.836,66.406,37.598,0
1504428344.778,125.977,-643.555,-2.441,82.520,60.547,0
1504428344.782,124.512,-770.996,8.789,71.777,57.129,0
1504428344.786,111.328,-638.672,19.531,62.988,66.406,0
1504428344.790,110.352,-677.734,30.273,65.430,69.824,0
1504428344.793,119.629,-858.398,-7.812,66.895,55.664,0
1504428344.797,111.328,-871.582,0.000,61.035,35.645,0
1504428344.801,122.070,-731.934,23.926,77.637,35.156,0
1504428344.805,133.301,-775.391,29.785,79.102,64.453,0
1504428344.809,117.188,-906.250,54.688,69.336,91.797,0
1504428344.813,110.352,-964.844,49.805,68.848,40.039,0
1504428344.817,120.605,-769.043,36.621,76.172,36.133,0
1504428344.821,122.070,-597.656,33.691,77.148,55.664,0
1504428344.825,109.863,-742.188,55.176,76.660,49.805,0
1504428344.829,109.375,-761.719,55.664,86.914,56.641,0
1504428344.833,109.375,-612.305,44.922,83.008,63.477,0
1504428344.836,117.676,-588.379,32.715,89.355,67.383,0
1504428344.840,104.492,-724.609,19.531,76.660,49.805,0
1504428344.844,90.332,-668.945,29.785,67.383,72.754,0
1504428344.848,82.520,-651.367,24.414,67.871,81.055,0
1504428344.852,66.406,-900.879,20.996,54.688,71.777,0
1504428344.856,83.984,-982.422,29.297,52.734,57.129,0
1504428344.860,72.266,-912.109,21.484,35.645,6.836,0
1504428344.864,52.734,-693.359,23.438,22.949,24.902,0
1504428344.868,54.199,-607.422,44.434,36.133,61.035,0
1504428344.872,36.621,-846.680,34.180,25.879,28.320,0
1504428344.875,41.016,-766.602,24.414,11.230,33.691,0
1504428344.879,47.363,-562.500,20.508,5.859,54.199,0
1504428344.883,58.594,-686.523,20.508,11.230,43.457,0
1504428344.887,73.730,-763.184,30.273,23.926,46.387,0
1504428344.891,77.148,-707.520,17.090,22.949,18.555,0
1504428344.895,69.824,-623.047,-5.859,8.301,34.668,0
1504428344.899,68.359,-799.805,-12.207,8.789,85.938,0
1504428344.903,54.688,-964.355,-1.953,8.301,73.730,0
1504428344.907,50.293,-825.195,1.953,13.672,45.898,0
1504428344.911,65.918,-776.367,-25.391,26.367,77.148,0
1504428344.915,57.129,-868.164,-10.254,24.902,35.156,0
1504428344.918,55.664,-895.508,24.414,13.184,-10.742,0
1504428344.922,65.918,-692.871,12.207,7.812,24.902,0
1504428344.926,70.312,-610.352,44.434,19.531,49.805,0
1504428344.930,72.754,-726.562,55.176,21.484,37.109,0
1504428344.934,74.219,-755.859,45.410,22.461,29.785,0
1504428344.938,71.777,-679.199,46.875,34.180,32.715,0
1504428344.942,72.266,-640.625,41.016,45.410,49.316,0
1504428344.946,74.219,-832.031,29.785,50.781,67.871,0
1504428344.950,75.684,-981.445,21.484,46.387,73.242,0
1504428344.954,74.707,-733.887,32.715,47.852,78.125,0
1504428344.958,68.848,-641.113,20.508,52.246,61.523,0
1504428344.961,78.613,-886.719,20.020,50.293,44.922,0
1504428344.965,103.516,-884.766,50.781,68.359,44.922,0
1504428344.969,103.027,-735.840,59.082,72.754,61.035,0
1504428344.973,82.031,-762.695,56.641,52.246,61.035,0
1504428344.977,74.219,-871.094,30.273,49.805,28.809,0
1504428344.981,76.172,-764.160,28.320,45.898,33.203,0
1504428344.985,72.754,-623.047,10.254,39.062,46.387,0
1504428344.989,66.406,-737.793,18.066,32.227,41.016,0
1504428344.993,69.824,-928.711,38.086,31.250,48.828,0
1504428344.997,73.730,-922.852,21.484,35.645,59.082,0
1504428345.000,79.102,-724.121,27.344,31.738,58.105,0
1504428345.004,81.543,-739.746,23.438,30.762,55.176,0
1504428345.008,80.566,-966.797,37.598,33.691,10.254,0
1504428345.012,77.148,-795.410,45.410,34.180,11.230,0
1504428345.016,74.219,-683.594,21.973,39.062,19.043,0
1504428345.020,88.379,-787.109,47.363,57.129,21.973,0
1504428345.024,81.055,-753.906,77.148,54.199,56.152,0
1504428345.028,76.172,-735.840,56.152,52.246,79.590,0
1504428345.032,81.055,-694.824,46.387,56.641,73.242,0
1504428345.036,88.867,-786.133,38.086,57.617,49.805,0
1504428345.040,105.469,-972.168,37.109,70.312,38.086,0
1504428345.043,105.469,-936.523,19.531,88.379,56.641,0
1504428345.047,116.211,-851.562,9.277,117.188,67.871,0
1504428345.051,112.793,-916.016,14.648,114.258,20.020,0
1504428345.055,103.516,-896.973,44.922,100.586,1.465,0
1504428345.059,107.910,-602.051,89.355,109.375,62.988,0
1504428345.063,111.328,-652.344,51.270,118.652,72.266,0
1504428345.067,123.047,-835.938,54.688,124.023,40.039,0
1504428345.071,130.371,-703.613,89.844,115.723,41.504,0
1504428345.075,115.723,-577.148,33.691,93.750,66.406,0
1504428345.079,103.516,-709.961,33.691,94.238,66.406,0
1504428345.083,102.051,-803.223,71.777,100.586,50.293,0
1504428345.086,93.262,-825.684,50.293,90.820,60.547,0
1504428345.090,82.031,-892.578,43.457,75.684,88.379,0
1504428345.094,94.727,-899.902,54.199,88.379,75.684,0
1504428345.098,90.332,-970.703,30.762,91.797,12.695,0
1504428345.102,66.895,-845.215,12.207,62.988,10.254,0
1504428345.106,72.266,-634.277,51.270,55.176,54.688,0
1504428345.110,76.660,-775.879,55.664,54.199,41.992,0
1504428345.114,65.918,-895.020,15.625,54.199,12.695,0
1504428345.118,68.848,-775.391,36.621,64.941,45.410,0
1504428345.122,70.801,-753.418,80.078,69.824,54.688,0
1504428345.125,56.641,-770.996,69.824,57.617,46.875,0
1504428345.129,59.570,-761.230,47.363,54.688,44.922,0
1504428345.133,66.406,-865.723,33.691,50.781,63.965,0
1504428345.137,90.332,-881.836,60.059,62.012,82.520,0
1504428345.141,107.422,-875.977,62.500,80.566,45.410,0
1504428345.145,85.449,-970.703,46.387,64.941,52.246,0
1504428345.149,83.984,-769.043,70.801,67.871,63.965,0
1504428345.153,97.656,-677.734,70.801,80.566,49.805,0
1504428345.157,97.656,-864.746,50.781,72.266,49.316,0
1504428345.161,88.867,-788.574,50.781,64.941,50.781,0
1504428345.165,96.680,-584.961,52.246,70.801,67.871,0
1504428345.168,111.328,-718.750,24.414,78.613,56.152,0
1504428345.172,112.305,-823.730,-19.043,85.938,47.363,0
1504428345.176,130.859,-712.402,34.668,100.098,35.156,0
1504428345.180,144.043,-785.156,88.867,114.258,78.125,0
1504428345.184,116.211,-898.926,71.289,106.934,108.887,0
1504428345.188,111.328,-951.660,36.133,111.816,32.715,0
1504428345.192,116.699,-797.852,14.160,115.723,18.066,0
1504428345.196,122.559,-608.398,29.297,120.605,61.523,0
1504428345.200,129.883,-724.121,57.617,132.812,58.594,0
1504428345.204,118.652,-907.715,69.824,115.723,28.809,0
1504428345.208,114.258,-844.727,55.176,105.957,39.062,0
1504428345.211,101.562,-667.480,37.109,101.562,60.059,0
1504428345.215,83.496,-795.410,5.371,85.938,28.809,0
1504428345.219,79.102,-894.043,11.230,75.195,-2.441,0
1504428345.223,79.590,-701.172,30.762,73.730,26.855,0
1504428345.227,74.707,-812.500,-1.953,64.453,76.172,0
1504428345.231,78.125,-996.094,-22.949,65.918,50.781,0
1504428345.235,70.801,-910.645,5.859,56.152,-7.812,0
1504428345.239,38.086,-697.754,-43.457,26.855,28.809,0
1504428345.243,40.527,-722.656,-81.055,19.043,32.715,0
1504428345.247,45.410,-851.074,-30.273,20.508,23.438,0
1504428345.250,31.250,-728.027,-19.043,15.137,52.246,0
1504428345.254,28.809,-625.977,-35.156,-3.906,60.547,0
1504428345.258,34.668,-736.816,-7.324,-4.883,39.062,0
1504428345.262,20.996,-910.645,-27.344,-11.719,45.898,0
1504428345.266,21.484,-765.137,-62.988,-15.625,79.590,0
1504428345.270,35.156,-633.301,-62.988,-4.395,64.941,0
1504428345.274,38.086,-848.145,-63.965,-3.906,63.477,0
1504428345.278,35.645,-988.770,-54.688,-5.371,54.199,0
1504428345.282,46.387,-828.613,-47.363,11.230,28.320,0
1504428345.286,61.523,-607.422,-56.152,15.625,58.594,0
1504428345.290,72.754,-760.742,-35.645,16.113,48.828,0
1504428345.293,83.496,-913.574,1.953,36.133,7.812,0
1504428345.297,74.219,-686.523,-33.203,34.668,40.527,0
1504428345.301,65.918,-598.145,-52.246,22.949,62.012,0
1504428345.305,66.406,-804.199,-22.949,24.902,21.484,0
1504428345.309,74.707,-840.332,-41.504,22.461,27.832,0
1504428345.313,90.820,-682.129,-12.207,29.297,43.457,0
1504428345.317,90.332,-741.699,47.363,33.203,9.766,0
1504428345.321,89.355,-887.695,36.133,30.273,34.668,0
1504428345.325,81.055,-991.699,19.531,24.414,45.898,0
1504428345.329,83.008,-916.504,-0.977,25.391,36.133,0
1504428345.333,99.121,-735.352,-6.348,40.039,69.824,0
1504428345.336,88.867,-891.113,16.602,28.809,23.438,0
1504428345.340,96.191,-894.531,32.715,26.855,10.254,0
1504428345.344,98.633,-632.812,35.645,39.551,56.641,0
1504428345.348,77.148,-733.887,28.809,33.691,38.086,0
1504428345.352,72.266,-899.902,18.555,34.668,18.555,0
1504428345.356,76.660,-695.801,1.465,34.180,69.336,0
1504428345.360,85.938,-595.215,29.297,41.504,76.172,0
1504428345.364,102.051,-779.785,59.082,55.664,39.551,0
1504428345.368,88.867,-937.500,31.738,43.457,57.129,0
1504428345.372,80.078,-961.426,17.090,41.504,49.805,0
1504428345.375,91.797,-762.207,11.230,48.340,58.105,0
1504428345.379,87.402,-769.531,28.320,52.734,53.711,0
1504428345.383,71.289,-974.609,56.641,47.363,13.672,0
1504428345.387,75.195,-804.688,57.129,45.898,24.414,0
1504428345.391,83.008,-626.953,61.523,49.316,47.852,0
1504428345.395,91.309,-808.105,78.125,55.176,37.109,0
1504428345.399,108.887,-890.137,86.426,82.520,37.109,0
1504428345.403,91.309,-679.688,64.941,75.684,55.664,0
1504428345.407,71.777,-635.254,50.293,50.781,61.035,0
1504428345.411,80.078,-715.332,72.266,62.500,65.430,0
1504428345.415,88.379,-844.727,71.777,76.172,63.477,0
1504428345.418,86.426,-894.043,32.227,71.289,85.449,0
1504428345.422,91.309,-775.879,46.875,75.195,84.961,0
1504428345.426,92.285,-869.141,49.316,82.520,33.203,0
1504428345.430,92.285,-888.672,19.043,84.473,25.391,0
1504428345.434,99.121,-666.016,76.660,93.262,33.691,0
1504428345.438,90.332,-695.801,89.844,89.355,44.434,0
1504428345.442,95.215,-822.266,66.895,88.867,62.012,0
1504428345.446,99.121,-750.000,59.570,92.285,48.828,0
1504428345.450,87.402,-648.438,66.406,85.449,42.480,0
1504428345.454,95.215,-744.141,82.520,93.262,59.082,0
1504428345.458,97.168,-877.930,75.684,94.727,65.430,0
1504428345.461,96.191,-908.203,83.008,99.121,58.105,0
1504428345.465,83.008,-937.988,68.359,87.891,52.246,0
1504428345.469,62.988,-902.832,47.852,77.637,57.129,0
1504428345.473,77.637,-967.285,49.805,97.168,26.367,0
1504428345.477,74.219,-856.445,23.926,89.355,7.812,0
1504428345.481,61.523,-681.152,47.852,72.754,39.062,0
1504428345.485,77.637,-770.020,73.730,81.543,45.410,0
1504428345.489,67.871,-765.137,33.203,74.219,58.594,0
1504428345.493,34.668,-718.750,36.621,47.852,22.461,0
1504428345.497,30.762,-713.379,71.289,43.945,35.645,0
1504428345.500,21.973,-811.035,62.988,39.551,70.801,0
1504428345.504,5.859,-821.777,48.340,28.320,57.129,0
1504428345.508,9.277,-817.871,62.988,28.320,52.246,0
1504428345.512,32.227,-948.730,74.707,47.852,34.668,0
1504428345.516,20.508,-979.492,55.176,39.551,31.250,0
1504428345.520,10.742,-899.414,35.156,34.180,42.969,0
1504428345.524,28.809,-689.453,20.508,48.340,42.480,0
1504428345.528,33.203,-712.402,38.086,56.641,31.738,0
1504428345.532,41.992,-858.398,74.707,68.848,37.109,0
1504428345.536,58.594,-724.609,76.660,83.008,56.641,0
1504428345.540,69.824,-672.363,51.758,88.867,62.500,0
1504428345.543,61.035,-775.879,48.828,81.055,67.871,0
1504428345.547,69.336,-779.785,56.152,91.309,51.270,0
1504428345.551,81.055,-685.059,29.785,95.215,42.969,0
1504428345.555,78.613,-750.000,28.809,80.078,66.406,0
1504428345.559,85.938,-903.320,48.828,82.520,91.797,0
1504428345.563,76.172,-956.055,42.480,80.566,67.871,0
1504428345.567,67.871,-796.387,17.090,76.172,32.227,0
1504428345.571,86.426,-612.305,19.043,94.238,45.410,0
1504428345.575,82.520,-764.160,40.527,90.820,41.504,0
1504428345.579,54.199,-904.297,46.875,65.918,12.207,0
1504428345.583,47.363,-697.754,33.203,49.316,35.156,0
1504428345.586,33.691,-621.582,22.461,37.109,56.152,0
1504428345.590,25.879,-737.793,9.766,33.203,43.457,0
1504428345.594,8.301,-758.301,-3.418,16.602,37.109,0
1504428345.598,-13.184,-690.430,-6.348,5.371,30.273,0
1504428345.602,-19.043,-819.824,-27.832,-0.977,73.730,0
1504428345.606,6.348,-977.539,29.297,15.625,64.941,0
1504428345.610,23.926,-887.695,60.059,23.926,16.113,0
1504428345.614,-7.324,-687.988,13.672,-13.672,30.762,0
1504428345.618,-21.973,-740.723,-3.906,-21.973,62.500,0
1504428345.622,-16.602,-866.699,-4.395,-11.230,65.918,0
1504428345.625,1.465,-728.516,33.203,4.883,44.922,0
1504428345.629,-0.977,-620.605,28.320,1.465,49.805,0
1504428345.633,-8.789,-753.418,8.789,-10.742,36.621,0
1504428345.637,5.859,-883.789,12.207,-12.695,36.133,0
1504428345.641,22.949,-780.762,13.672,-12.695,25.391,0
1504428345.645,25.391,-723.145,-4.395,-3.418,18.066,0
1504428345.649,18.066,-864.746,-41.016,11.230,65.918,0
1504428345.653,9.277,-980.469,-4.395,25.391,50.293,0
1504428345.657,32.715,-835.449,42.969,43.457,14.648,0
1504428345.661,50.781,-690.430,4.395,52.734,36.621,0
1504428345.665,49.805,-811.523,8.301,55.176,44.922,0
1504428345.668,62.988,-852.539,42.480,72.754,49.316,0
1504428345.672,64.453,-700.684,34.668,87.402,46.875,0
1504428345.676,70.801,-812.012,42.969,95.703,47.363,0
1504428345.680,91.309,-984.375,75.684,110.840,33.691,0
1504428345.684,87.891,-899.902,76.172,109.375,20.508,0
1504428345.688,65.918,-747.559,32.715,87.891,43.457,0
1504428345.692,57.129,-736.816,14.160,79.590,45.898,0
1504428345.696,79.590,-897.949,53.223,95.215,57.617,0
1504428345.700,85.449,-982.910,40.527,94.238,67.871,0
1504428345.704,83.496,-837.402,7.812,80.078,43.457,0
1504428345.708,84.961,-725.098,70.801,77.637,46.387,0
1504428345.711,83.008,-899.902,73.242,74.219,26.367,0
1504428345.715,96.680,-909.180,41.504,74.707,16.602,0
1504428345.719,111.328,-673.828,53.223,85.449,61.035,0
1504428345.723,108.887,-729.004,49.316,83.496,61.523,0
1504428345.727,87.891,-884.766,32.715,68.359,48.340,0
1504428345.731,89.844,-757.324,42.480,61.035,47.363,0
1504428345.735,103.516,-788.086,47.852,56.152,47.363,0
1504428345.739,116.211,-949.707,48.340,69.336,52.246,0
1504428345.743,101.562,-969.727,43.457,72.754,36.133,0
1504428345.747,74.219,-962.402,34.668,55.664,31.738,0
1504428345.750,72.266,-902.832,-3.418,47.852,40.039,0
1504428345.754,75.684,-903.809,4.883,51.758,31.738,0
1504428345.758,78.613,-951.172,42.480,57.129,28.809,0
1504428345.762,83.984,-794.434,49.805,60.059,48.828,0
1504428345.766,98.633,-641.602,37.109,73.242,70.312,0
1504428345.770,96.191,-774.414,3.906,73.242,69.336,0
1504428345.774,75.195,-877.930,27.832,55.664,35.156,0
1504428345.778,70.312,-751.465,61.523,50.293,39.062,0
1504428345.782,62.012,-702.637,21.973,50.781,59.570,0
1504428345.786,77.637,-834.961,10.254,76.172,35.645,0
1504428345.790,97.168,-955.078,42.480,91.309,39.062,0
1504428345.793,75.195,-966.309,26.855,58.105,62.988,0
1504428345.797,78.125,-958.008,-4.395,52.734,63.965,0
1504428345.801,98.145,-975.586,4.395,68.848,25.391,0
1504428345.805,106.445,-922.363,49.316,78.125,-4.883,0
1504428345.809,111.816,-708.008,29.785,88.379,41.992,0
1504428345.813,120.117,-704.102,17.578,88.379,54.688,0
1504428345.817,119.629,-923.340,49.316,86.426,7.812,0
1504428345.821,101.562,-834.473,48.340,84.961,13.672,0
1504428345.825,100.586,-692.383,47.852,87.402,42.969,0
1504428345.829,108.887,-848.633,34.668,91.309,22.949,0
1504428345.833,116.211,-846.191,31.738,97.656,54.199,0
1504428345.836,115.723,-812.988,41.992,94.727,94.727,0
1504428345.840,127.930,-934.082,34.668,100.098,71.289,0
1504428345.844,138.672,-936.523,35.645,97.168,43.945,0
1504428345.848,133.789,-945.801,50.781,80.566,27.832,0
1504428345.852,126.953,-868.164,61.523,84.473,33.691,0
1504428345.856,98.633,-761.230,20.508,68.359,68.848,0
1504428345.860,83.984,-836.914,11.230,59.570,65.430,0
1504428345.864,83.496,-917.969,46.387,60.059,28.320,0
1504428345.868,82.031,-725.586,30.762,54.199,26.855,0
1504428345.872,89.355,-670.410,18.066,60.059,37.598,0
1504428345.875,89.844,-806.152,42.969,59.082,14.160,0
1504428345.879,93.262,-791.504,46.387,62.988,15.625,0
1504428345.883,79.590,-791.016,29.785,42.969,58.594,0
1504428345.887,70.312,-858.398,-18.066,28.809,90.332,0
1504428345.891,65.918,-931.152,-9.766,38.086,53.223,0
1504428345.895,54.688,-888.672,29.785,44.922,11.719,0
1504428345.899,45.898,-621.582,22.461,32.227,53.223,0
1504428345.903,66.406,-650.879,37.598,43.945,47.363,0
1504428345.907,73.730,-838.379,26.367,47.852,-2.930,0
1504428345.911,59.570,-706.543,6.836,24.414,36.133,0
1504428345.915,74.707,-694.336,17.578,42.969,62.012,0
1504428345.918,62.988,-827.637,21.484,41.992,28.320,0
1504428345.922,41.016,-870.117,-1.465,23.438,13.672,0
1504428345.926,44.434,-756.348,-18.066,15.137,6.348,0
1504428345.930,50.781,-792.969,-35.645,13.184,59.082,0
1504428345.934,53.711,-922.363,-4.883,7.812,76.172,0
1504428345.938,58.105,-938.965,39.062,15.137,-2.441,0
1504428345.942,43.945,-623.535,28.320,19.531,34.668,0
1504428345.946,28.809,-381.348,17.578,9.277,86.426,0
1504428345.950,34.180,-575.684,-1.465,11.719,68.359,0
1504428345.954,45.898,-621.094,5.859,20.508,66.895,0
1504428345.958,51.758,-486.328,27.832,26.367,62.012,0
1504428345.961,64.453,-575.684,52.246,36.621,69.824,0
1504428345.965,74.707,-708.496,55.664,45.898,52.246,0
1504428345.969,58.594,-602.539,25.879,44.922,60.059,0
1504428345.973,47.363,-603.027,25.879,46.387,83.984,0
1504428345.977,60.059,-766.113,43.945,52.246,88.379,0
1504428345.981,62.988,-905.762,62.012,43.457,69.824,0
1504428345.985,63.477,-882.324,59.082,35.645,20.020,0
1504428345.989,50.293,-582.520,14.160,30.273,56.641,0
1504428345.993,57.129,-595.703,12.695,40.527,54.199,0
1504428345.997,71.289,-804.199,24.902,53.711,12.207,0
1504428346.000,70.801,-703.613,39.551,55.176,28.320,0
1504428346.004,62.012,-558.105,59.570,43.457,46.875,0
1504428346.008,73.730,-673.340,38.574,62.500,41.992,0
1504428346.012,90.332,-899.902,51.270,85.449,15.625,0
1504428346.016,81.055,-773.438,72.266,72.266,14.648,0
1504428346.020,74.219,-624.512,49.316,54.688,20.020,0
1504428346.024,76.172,-821.289,24.902,54.688,55.176,0
1504428346.028,70.801,-941.895,60.547,65.918,61.523,0
1504428346.032,60.059,-858.887,71.289,58.105,26.855,0
1504428346.036,56.152,-687.500,42.480,46.875,64.453,0
1504428346.040,59.082,-722.168,30.762,53.223,69.824,0
1504428346.043,66.406,-863.281,54.199,49.805,41.504,0
1504428346.047,71.289,-607.422,62.012,42.480,56.152,0
1504428346.051,71.777,-514.648,58.105,50.781,65.918,0
1504428346.055,65.918,-637.207,45.410,35.645,52.246,0
1504428346.059,73.242,-679.199,53.223,37.598,37.109,0
1504428346.063,80.078,-602.539,51.758,47.852,36.621,0
1504428346.067,67.871,-568.848,48.828,37.109,57.617,0
1504428346.071,83.984,-754.395,52.734,52.734,75.684,0
1504428346.075,104.492,-882.812,55.176,72.266,79.590,0
1504428346.079,104.492,-705.078,82.031,71.777,59.570,0
1504428346.083,93.750,-592.773,53.711,64.941,60.059,0
1504428346.086,98.145,-806.152,35.156,78.125,45.898,0
1504428346.090,90.820,-898.926,81.543,81.543,40.527,0
1504428346.094,86.914,-709.961,82.520,72.754,68.359,0
1504428346.098,88.867,-684.570,45.410,72.266,50.293,0
1504428346.102,83.496,-808.594,55.176,71.289,40.039,0
1504428346.106,87.402,-709.473,69.824,75.195,40.527,0
1504428346.110,84.961,-589.355,62.988,66.895,48.828,0
1504428346.114,74.219,-732.422,60.547,61.523,38.574,0
1504428346.118,62.988,-934.082,42.969,77.637,33.691,0
1504428346.122,55.176,-873.047,15.625,79.590,67.383,0
1504428346.125,56.152,-648.926,30.762,72.266,79.590,0
1504428346.129,70.801,-723.145,30.762,75.684,62.500,0
1504428346.133,68.359,-951.172,19.531,62.012,20.996,0
1504428346.137,64.453,-742.676,47.363,64.941,31.250,0
1504428346.141,75.195,-572.266,61.523,86.914,69.336,0
1504428346.145,58.594,-713.379,53.711,68.359,47.363,0
1504428346.149,49.805,-895.020,6.836,52.734,20.508,0
1504428346.153,62.988,-829.590,-36.133,65.430,43.457,0
1504428346.157,62.988,-638.184,4.395,68.848,55.176,0
1504428346.161,67.383,-781.250,45.898,64.453,47.852,0
1504428346.165,68.359,-965.332,33.691,52.246,43.457,0
1504428346.168,62.988,-925.781,22.461,47.363,36.621,0
1504428346.172,57.129,-945.801,7.324,47.852,38.086,0
1504428346.176,47.363,-962.891,12.207,34.180,26.367,0
1504428346.180,44.922,-927.734,38.086,30.762,-23.438,0
1504428346.184,54.199,-666.992,40.527,44.922,30.762,0
1504428346.188,49.805,-616.699,46.875,45.898,72.266,0
1504428346.192,43.945,-766.113,34.180,46.387,50.781,0
1504428346.196,42.969,-672.363,13.672,46.875,52.246,0
1504428346.200,63.477,-598.633,21.484,64.941,55.176,0
1504428346.204,79.102,-691.895,19.043,70.312,55.664,0
1504428346.208,56.152,-846.191,-10.742,36.621,44.922,0
1504428346.211,55.176,-925.293,7.324,39.062,71.289,0
1504428346.215,60.547,-878.418,45.410,54.688,75.684,0
1504428346.219,60.059,-818.359,53.711,57.617,47.363,0
1504428346.223,54.688,-969.727,9.277,53.711,-1.953,0
1504428346.227,54.688,-828.613,13.184,53.223,5.859,0
1504428346.231,65.918,-624.023,58.105,65.918,40.039,0
1504428346.235,76.172,-782.715,46.875,74.219,32.227,0
1504428346.239,81.543,-804.688,38.574,79.590,33.691,0
1504428346.243,78.125,-664.062,37.598,84.961,41.016,0
1504428346.247,71.777,-630.859,33.691,79.102,60.547,0
1504428346.250,79.102,-808.594,33.203,88.867,46.875,0
1504428346.254,87.891,-911.133,24.414,103.516,7.812,0
1504428346.258,61.035,-869.141,-19.531,89.844,59.570,0
1504428346.262,56.641,-845.215,-20.020,82.031,89.844,0
1504428346.266,75.195,-898.438,45.898,93.750,34.180,0
1504428346.270,83.496,-897.461,66.895,107.422,42.480,0
1504428346.274,85.449,-673.340,45.898,101.074,52.246,0
1504428346.278,83.984,-692.383,39.551,87.891,39.062,0
1504428346.282,88.379,-877.441,31.738,89.844,45.410,0
1504428346.286,98.145,-784.668,49.805,104.980,55.664,0
1504428346.290,100.586,-602.051,71.289,118.652,60.547,0
1504428346.293,91.797,-760.742,55.176,110.840,39.062,0
1504428346.297,102.051,-813.477,58.594,107.910,54.199,0
1504428346.301,121.094,-656.738,75.684,111.328,66.406,0
1504428346.305,111.816,-833.496,61.523,99.609,65.918,0
1504428346.309,96.191,-986.816,43.945,90.332,64.453,0
1504428346.313,91.797,-947.754,45.898,78.613,28.320,0
1504428346.317,99.121,-760.254,63.965,82.520,58.105,0
1504428346.321,107.422,-602.051,74.707,93.750,82.520,0
1504428346.325,97.168,-792.480,54.688,79.590,55.176,0
1504428346.329,94.238,-959.473,43.457,73.242,39.062,0
1504428346.333,110.352,-775.879,37.598,75.684,60.547,0
1504428346.336,103.027,-665.039,39.062,73.730,59.082,0
1504428346.340,81.055,-854.004,67.871,64.453,29.785,0
1504428346.344,55.664,-888.672,68.359,35.645,41.016,0
1504428346.348,39.551,-703.125,29.785,20.996,66.406,0
1504428346.352,41.016,-821.777,30.273,24.414,105.957,0
1504428346.356,38.086,-974.121,59.570,21.973,83.008,0
1504428346.360,44.922,-924.805,58.594,23.926,2.441,0
1504428346.364,47.852,-774.414,40.039,27.344,27.344,0
1504428346.368,44.434,-743.164,23.926,27.344,50.781,0
1504428346.372,49.316,-824.219,12.207,28.809,48.828,0
1504428346.375,37.598,-759.766,-13.672,30.762,54.199,0
1504428346.379,26.855,-643.066,-29.297,32.715,67.871,0
1504428346.383,28.809,-753.906,23.438,31.738,81.055,0
1504428346.387,41.504,-967.285,14.648,41.504,70.312,0
1504428346.391,62.500,-850.586,13.672,61.523,40.039,0
1504428346.395,56.641,-685.547,59.082,54.199,42.969,0
1504428346.399,48.340,-850.098,51.270,48.340,64.941,0
1504428346.403,46.387,-972.168,39.062,44.922,26.855,0
1504428346.407,44.434,-812.988,32.715,33.203,11.230,0
1504428346.411,50.293,-698.242,29.297,35.156,25.391,0
1504428346.415,46.875,-831.055,30.273,42.480,16.602,0
1504428346.418,38.574,-942.871,2.441,36.133,7.812,0
1504428346.422,50.781,-773.438,0.488,36.133,25.391,0
1504428346.426,74.707,-698.242,51.758,58.105,39.062,0
1504428346.430,63.477,-791.992,40.039,57.617,39.062,0
1504428346.434,45.898,-795.898,15.625,40.039,42.969,0
1504428346.438,49.316,-688.965,34.180,30.762,55.176,0
1504428346.442,53.711,-736.816,49.805,32.227,41.016,0
1504428346.446,57.129,-916.992,44.434,43.457,49.805,0
1504428346.450,53.223,-992.188,49.805,36.621,64.941,0
1504428346.454,51.758,-803.223,22.461,33.203,70.312,0
1504428346.458,63.477,-660.645,5.371,52.734,76.660,0
1504428346.461,91.309,-888.184,62.988,67.871,30.762,0
1504428346.465,84.473,-946.777,56.152,47.363,0.000,0
1504428346.469,74.219,-699.219,34.668,35.645,39.551,0
1504428346.473,74.707,-692.383,38.086,41.992,68.848,0
1504428346.477,70.801,-881.348,-4.883,48.340,27.344,0
1504428346.481,80.566,-752.441,-20.020,59.082,46.875,0
1504428346.485,65.918,-635.254,26.855,47.363,72.754,0
1504428346.489,65.430,-775.879,50.293,51.270,53.223,0
1504428346.493,66.406,-956.055,30.273,58.105,67.383,0
1504428346.497,62.012,-971.680,-0.977,53.223,77.148,0
1504428346.500,57.129,-775.879,19.043,51.270,77.148,0
1504428346.504,63.965,-793.945,47.852,52.734,73.242,0
1504428346.508,75.684,-936.035,21.484,70.801,52.734,0
1504428346.512,53.711,-763.184,30.273,73.242,49.805,0
1504428346.516,58.105,-651.367,70.312,70.312,62.500,0
1504428346.520,61.035,-812.012,52.734,66.406,49.805,0
1504428346.524,38.086,-969.238,22.461,48.340,20.508,0
1504428346.528,42.969,-784.180,25.391,57.617,40.039,0
1504428346.532,46.387,-687.988,53.711,62.988,57.129,0
1504428346.536,38.086,-870.117,53.711,54.199,7.812,0
1504428346.540,33.691,-970.703,46.387,57.129,19.531,0
1504428346.543,32.715,-965.332,34.668,53.711,41.016,0
1504428346.547,37.109,-927.246,24.902,51.270,37.598,0
1504428346.551,33.691,-948.242,45.410,54.688,2.930,0
1504428346.555,31.738,-896.484,60.059,47.852,-1.465,0
1504428346.559,42.969,-684.570,44.922,43.457,40.039,0
1504428346.563,51.758,-761.719,43.457,49.805,63.477,0
1504428346.567,61.523,-893.555,53.223,52.734,65.918,0
1504428346.571,58.594,-763.184,5.371,52.246,39.551,0
1504428346.575,77.148,-680.176,5.859,73.730,38.086,0
1504428346.579,91.309,-759.277,52.734,92.285,59.570,0
1504428346.583,69.824,-890.137,44.922,68.848,58.105,0
1504428346.586,79.590,-931.152,69.336,62.500,44.434,0
1504428346.590,92.773,-952.148,83.496,66.406,41.016,0
1504428346.594,96.191,-923.340,62.500,61.035,54.199,0
1504428346.598,107.910,-952.637,84.961,78.125,19.043,0
1504428346.602,108.398,-817.383,81.543,91.309,10.254,0
1504428346.606,105.957,-642.578,59.570,97.168,50.781,0
1504428346.610,104.004,-744.629,62.012,95.703,62.012,0
1504428346.614,104.004,-807.617,49.805,87.402,52.246,0
1504428346.618,104.004,-695.312,58.105,84.473,36.621,0
1504428346.622,97.656,-762.695,42.969,87.402,53.711,0
1504428346.625,98.145,-936.035,5.859,92.285,66.406,0
1504428346.629,111.816,-824.707,65.918,101.562,66.895,0
1504428346.633,108.398,-803.223,104.980,101.562,80.078,0
1504428346.637,95.703,-938.477,71.777,97.168,86.914,0
1504428346.641,86.914,-929.199,43.945,90.332,67.871,0
1504428346.645,87.891,-745.117,49.805,85.449,78.613,0
1504428346.649,97.656,-627.930,42.480,94.727,83.496,0
1504428346.653,79.590,-699.707,47.363,78.613,60.547,0
1504428346.657,57.617,-900.879,72.266,59.570,41.016,0
1504428346.661,42.969,-941.895,62.988,55.176,21.973,0
1504428346.665,30.762,-718.262,41.016,56.152,45.410,0
1504428346.668,29.297,-752.930,41.992,49.805,60.547,0
1504428346.672,43.457,-884.766,52.246,46.387,41.992,0
1504428346.676,53.711,-805.176,34.668,46.387,9.766,0
1504428346.680,46.387,-854.980,24.902,35.156,69.336,0
1504428346.684,46.875,-929.199,10.742,27.832,114.746,0
1504428346.688,29.785,-967.773,17.578,-0.977,26.367,0
1504428346.692,29.297,-866.211,29.297,-3.418,-2.441,0
1504428346.696,34.180,-675.293,-0.488,7.812,30.762,0
1504428346.700,33.203,-788.086,-4.395,8.789,55.176,0
1504428346.704,34.668,-931.641,-2.441,4.395,44.922,0
1504428346.708,46.387,-724.121,0.488,23.438,43.457,0
1504428346.711,52.734,-618.652,-0.488,35.645,58.105,0
1504428346.715,46.387,-741.699,-8.789,31.250,46.387,0
1504428346.719,53.223,-758.789,10.254,43.457,41.016,0
1504428346.723,61.035,-687.500,10.254,45.898,30.762,0
1504428346.727,70.801,-838.867,-15.625,50.293,62.500,0
1504428346.731,82.520,-997.559,-19.043,58.105,47.852,0
1504428346.735,84.961,-882.812,7.812,63.965,15.625,0
1504428346.739,85.938,-681.641,1.953,69.336,43.457,0
1504428346.743,84.961,-832.031,6.836,66.406,34.668,0
1504428346.747,79.590,-896.484,33.203,70.312,43.457,0
1504428346.750,85.938,-723.633,52.734,83.984,43.457,0
1504428346.754,89.844,-638.672,37.109,94.238,40.527,0
1504428346.758,69.824,-713.379,11.230,74.707,61.523,0
1504428346.762,51.270,-855.469,28.809,59.082,67.871,0
1504428346.766,54.199,-683.594,35.645,62.500,84.961,0
1504428346.770,55.664,-643.066,44.922,56.641,61.523,0
1504428346.774,65.430,-866.211,78.125,78.613,63.965,0
1504428346.778,62.012,-963.867,80.078,82.520,75.684,0
1504428346.782,41.992,-818.359,11.719,50.781,44.922,0
1504428346.786,51.758,-643.066,15.625,52.246,60.547,0
1504428346.790,55.664,-778.320,79.102,63.965,62.500,0
1504428346.793,33.203,-923.340,65.430,53.223,17.090,0
1504428346.797,31.738,-761.719,58.105,49.316,35.645,0
1504428346.801,58.105,-826.172,54.199,65.918,51.270,0
1504428346.805,84.961,-947.266,55.176,77.637,39.551,0
1504428346.809,82.031,-856.445,41.504,75.195,57.617,0
1504428346.813,86.914,-737.793,49.805,87.402,55.176,0
1504428346.817,86.914,-744.629,88.379,87.402,42.969,0
1504428346.821,85.449,-877.930,89.844,91.309,68.848,0
1504428346.825,81.055,-957.520,57.129,95.703,84.961,0
1504428346.829,86.914,-780.762,38.086,107.910,75.195,0
1504428346.833,90.820,-749.512,66.406,110.840,52.246,0
1504428346.836,68.848,-933.105,81.055,90.332,20.020,0
1504428346.840,62.012,-921.387,73.730,84.961,13.672,0
1504428346.844,63.965,-730.957,53.711,83.496,45.410,0
1504428346.848,73.242,-754.395,48.828,92.773,62.500,0
1504428346.852,69.336,-880.859,62.012,86.426,42.480,0
1504428346.856,84.473,-744.141,75.195,92.285,62.012,0
1504428346.860,97.168,-734.375,61.523,110.840,91.309,0
1504428346.864,73.242,-842.773,21.484,96.680,73.730,0
1504428346.868,75.684,-962.402,38.574,87.402,62.500,0
1504428346.872,82.520,-923.828,67.871,90.820,55.664,0
1504428346.875,80.566,-688.965,55.664,89.355,66.895,0
1504428346.879,84.473,-802.734,52.734,83.008,36.621,0
1504428346.883,95.215,-938.965,39.062,82.031,5.371,0
1504428346.887,105.469,-725.586,38.086,87.402,44.434,0
1504428346.891,95.215,-633.301,73.242,92.285,57.129,0
1504428346.895,65.430,-762.207,42.480,68.848,44.922,0
1504428346.899,61.523,-791.016,6.348,54.688,38.086,0
1504428346.903,68.359,-665.039,-8.301,50.293,52.246,0
1504428346.907,62.500,-595.215,-17.090,46.875,81.543,0
1504428346.911,48.828,-716.797,-28.320,37.598,66.406,0
1504428346.915,44.434,-899.414,-6.348,38.086,55.176,0
1504428346.918,43.945,-929.688,51.758,39.551,62.012,0
1504428346.922,33.203,-951.172,24.902,16.602,49.316,0
1504428346.926,20.508,-975.586,7.324,2.930,8.301,0
1504428346.930,22.949,-921.387,27.832,5.371,-25.879,0
1504428346.934,29.785,-734.863,21.484,6.348,20.996,0
1504428346.938,16.113,-691.406,14.648,-2.441,52.734,0
1504428346.942,20.508,-892.578,17.090,4.395,31.250,0
1504428346.946,18.555,-838.867,1.465,6.348,27.344,0
1504428346.950,19.043,-630.371,12.207,10.254,73.730,0
1504428346.954,42.969,-742.188,32.227,27.344,68.359,0
1504428346.958,33.203,-810.059,-32.227,17.090,61.523,0
1504428346.961,22.949,-868.652,-30.762,9.277,66.895,0
1504428346.965,20.996,-926.270,30.273,16.113,46.387,0
1504428346.969,24.902,-875.000,32.715,17.578,34.180,0
1504428346.973,47.852,-938.965,24.902,34.180,24.414,0
1504428346.977,55.176,-928.223,6.348,50.781,39.062,0
1504428346.981,58.105,-858.398,17.090,54.688,61.523,0
1504428346.985,56.641,-872.559,18.066,46.387,44.434,0
1504428346.989,58.594,-868.652,4.395,47.852,48.340,0
1504428346.993,72.754,-659.668,19.531,56.152,90.820,0
1504428346.997,78.613,-655.762,26.367,63.477,83.008,0
1504428347.000,77.637,-791.504,10.254,68.848,52.734,0
1504428347.004,84.961,-764.160,22.949,66.406,49.805,0
1504428347.008,88.379,-846.680,51.758,62.988,74.707,0
1504428347.012,103.516,-923.340,77.148,79.590,73.242,0
1504428347.016,98.145,-916.504,44.434,67.383,34.668,0
1504428347.020,76.660,-909.180,32.715,50.293,14.160,0
1504428347.024,83.984,-689.941,78.125,73.242,39.551,0
1504428347.028,76.172,-700.684,57.129,76.660,42.480,0
1504428347.032,70.312,-796.875,37.109,76.660,35.645,0
1504428347.036,88.867,-827.637,62.988,97.168,36.621,0
1504428347.040,88.867,-821.777,51.270,104.980,34.180,0
1504428347.043,89.844,-763.672,42.480,111.328,48.828,0
1504428347.047,95.215,-840.820,64.941,110.352,52.246,0
1504428347.051,102.051,-713.867,93.262,117.188,42.480,0
1504428347.055,97.168,-786.133,98.633,116.211,66.406,0
1504428347.059,83.008,-952.637,85.938,111.816,70.312,0
1504428347.063,82.031,-903.809,63.477,119.141,40.527,0
1504428347.067,87.402,-732.422,34.180,112.793,41.504,0
1504428347.071,82.031,-624.512,37.598,94.727,40.527,0
1504428347.075,95.215,-784.180,62.988,94.238,39.551,0
1504428347.079,90.820,-896.973,45.898,83.008,28.320,0
1504428347.083,75.195,-703.613,29.785,73.242,37.598,0
1504428347.086,70.801,-659.180,27.344,72.266,38.574,0
1504428347.090,52.734,-739.258,20.996,55.176,51.270,0
1504428347.094,66.406,-819.336,28.320,62.012,76.172,0
1504428347.098,79.590,-778.809,15.137,64.453,75.195,0
1504428347.102,77.148,-818.848,31.250,62.500,88.867,0
1504428347.106,66.895,-900.879,35.645,58.105,113.281,0
1504428347.110,47.363,-729.004,13.672,44.922,83.496,0
1504428347.114,53.711,-639.160,41.992,56.641,56.641,0
1504428347.118,54.688,-685.059,21.973,56.641,44.434,0
1504428347.122,41.016,-884.277,-19.043,48.828,24.414,0
1504428347.125,41.016,-907.227,21.973,47.363,9.277,0
1504428347.129,36.621,-671.387,53.223,42.969,34.668,0
1504428347.133,67.871,-688.477,54.199,69.824,55.664,0
1504428347.137,88.867,-893.066,33.203,80.566,27.344,0
1504428347.141,58.594,-776.855,43.945,52.246,21.484,0
1504428347.145,51.270,-662.598,56.152,51.270,31.738,0
1504428347.149,48.828,-860.840,34.180,50.781,41.504,0
1504428347.153,39.551,-972.656,15.137,45.898,62.500,0
1504428347.157,46.387,-884.277,11.719,46.387,58.594,0
1504428347.161,54.688,-677.246,36.133,54.688,55.176,0
1504428347.165,51.758,-762.207,58.594,62.012,41.992,0
1504428347.168,46.387,-894.531,60.059,49.805,24.902,0
1504428347.172,33.203,-711.426,2.930,40.039,25.879,0
1504428347.176,27.344,-639.648,-32.227,41.504,39.551,0
1504428347.180,42.969,-744.629,25.879,50.293,36.133,0
1504428347.184,52.734,-761.230,51.758,56.152,30.273,0
1504428347.188,54.688,-602.539,48.340,63.477,66.895,0
1504428347.192,54.199,-589.355,48.828,65.918,72.266,0
1504428347.196,57.617,-786.621,42.969,74.219,76.172,0
1504428347.200,73.242,-877.441,58.594,90.820,78.125,0
1504428347.204,60.547,-614.746,54.199,79.102,89.844,0
1504428347.208,42.480,-571.289,12.695,64.941,75.195,0
1504428347.211,40.527,-867.188,7.324,55.664,12.207,0
1504428347.215,29.785,-902.832,13.672,45.898,35.156,0
1504428347.219,31.738,-716.797,-11.719,49.316,45.898,0
1504428347.223,43.945,-664.551,48.340,62.988,43.457,0
1504428347.227,34.668,-908.203,69.824,55.664,38.086,0
1504428347.231,30.273,-857.422,41.016,44.434,51.270,0
1504428347.235,38.574,-579.102,33.691,44.434,76.660,0
1504428347.239,39.551,-708.008,20.508,41.992,49.316,0
1504428347.243,38.086,-957.520,42.969,34.180,29.785,0
1504428347.247,33.203,-975.098,50.293,18.066,25.391,0
1504428347.250,46.875,-752.441,43.457,23.438,52.734,0
1504428347.254,51.758,-777.344,12.207,26.855,19.043,0
1504428347.258,40.039,-974.121,-26.855,23.926,-25.879,0
1504428347.262,29.297,-805.664,-21.973,35.645,7.812,0
1504428347.266,19.043,-618.652,9.766,28.809,36.621,0
1504428347.270,28.809,-782.227,30.762,26.367,42.969,0
1504428347.274,27.344,-928.223,21.973,25.391,46.875,0
1504428347.278,48.340,-689.453,31.250,43.945,64.941,0
1504428347.282,52.734,-575.684,21.484,55.176,58.105,0
1504428347.286,45.410,-758.301,20.508,54.199,55.664,0
1504428347.290,57.617,-852.539,40.039,63.965,87.891,0
1504428347.293,55.176,-820.801,23.926,59.570,81.543,0
1504428347.297,55.664,-715.332,-7.812,54.688,63.477,0
1504428347.301,64.941,-836.426,29.297,58.105,22.461,0
1504428347.305,60.547,-870.117,41.992,56.152,5.859,0
1504428347.309,61.523,-578.125,40.039,56.641,45.410,0
1504428347.313,56.152,-589.844,25.879,46.387,59.082,0
1504428347.317,67.383,-683.105,-7.324,49.805,66.895,0
1504428347.321,77.148,-603.516,51.270,54.688,61.035,0
1504428347.325,63.477,-550.293,71.289,40.039,46.875,0
1504428347.329,64.941,-676.270,43.457,51.270,36.621,0
1504428347.333,63.477,-837.891,24.902,51.270,44.434,0
1504428347.336,58.105,-860.840,29.785,46.875,46.387,0
1504428347.340,54.199,-822.754,17.578,51.758,76.172,0
1504428347.344,77.148,-850.586,25.391,70.801,67.871,0
1504428347.348,83.496,-798.828,62.012,78.125,37.598,0
1504428347.352,66.895,-623.535,55.664,65.918,52.246,0
1504428347.356,75.684,-527.832,58.105,81.543,64.941,0
1504428347.360,71.289,-713.379,25.879,87.891,57.129,0
1504428347.364,60.547,-953.613,-10.742,81.543,24.414,0
1504428347.368,67.871,-721.680,54.688,98.633,45.410,0
1504428347.372,84.961,-541.504,106.934,113.281,68.359,0
1504428347.375,81.055,-786.133,74.707,101.562,20.996,0
1504428347.379,58.594,-874.512,38.086,86.426,8.301,0
1504428347.383,62.988,-776.855,22.461,83.984,62.012,0
1504428347.387,75.684,-865.723,51.758,83.496,71.289,0
1504428347.391,83.984,-944.336,84.473,86.426,51.270,0
1504428347.395,96.191,-913.574,75.195,87.402,21.973,0
1504428347.399,98.633,-676.758,73.242,93.750,23.438,0
1504428347.403,92.773,-643.555,72.754,102.051,30.762,0
1504428347.407,96.680,-789.551,66.895,105.469,24.414,0
1504428347.411,93.750,-728.516,55.664,95.703,32.227,0
1504428347.415,96.191,-602.051,33.691,90.332,46.875,0
1504428347.418,103.027,-656.738,41.992,95.703,69.824,0
1504428347.422,101.562,-849.609,62.988,101.562,58.105,0
1504428347.426,103.516,-714.844,41.016,105.957,57.129,0
1504428347.430,116.211,-750.977,63.477,109.863,61.523,0
1504428347.434,109.375,-948.730,99.121,97.656,54.688,0
1504428347.438,75.684,-965.820,78.125,67.871,26.855,0
1504428347.442,65.430,-806.152,56.641,59.082,12.207,0
1504428347.446,65.918,-616.211,50.293,65.918,32.715,0
1504428347.450,62.988,-725.586,47.852,70.312,65.430,0
1504428347.454,63.477,-789.551,35.156,73.730,49.805,0
1504428347.458,63.477,-675.293,30.273,76.660,22.461,0
1504428347.461,69.336,-616.699,0.977,68.848,43.945,0
1504428347.465,78.125,-793.945,8.789,67.383,21.484,0
1504428347.469,82.031,-856.445,58.594,74.707,11.230,0
1504428347.473,82.520,-640.137,21.973,70.312,43.457,0
1504428347.477,77.637,-818.848,18.066,70.801,55.664,0
1504428347.481,68.848,-999.512,62.012,67.871,33.691,0
1504428347.485,64.941,-898.438,71.289,65.918,1.465,0
1504428347.489,49.805,-655.762,55.664,60.059,47.852,0
1504428347.493,45.410,-623.047,41.504,56.152,62.500,0
1504428347.497,66.895,-791.992,25.391,72.754,35.156,0
1504428347.500,47.852,-730.957,-2.930,56.641,35.645,0
1504428347.504,26.367,-629.395,12.207,29.785,36.133,0
1504428347.508,51.270,-713.867,40.039,41.504,45.410,0
1504428347.512,45.898,-836.426,12.695,42.969,57.617,0
1504428347.516,29.785,-728.027,-15.137,28.809,46.387,0
1504428347.520,46.875,-672.363,-4.883,43.457,37.109,0
1504428347.524,47.852,-850.098,-25.879,48.340,41.504,0
1504428347.528,34.180,-995.605,-7.324,31.250,0.488,0
1504428347.532,26.367,-860.352,47.852,24.902,-2.930,0
1504428347.536,21.484,-615.234,49.316,20.508,64.453,0
1504428347.540,31.250,-752.441,36.621,14.648,47.363,0
1504428347.543,41.504,-931.641,7.812,15.625,-1.953,0
1504428347.547,42.480,-754.395,16.113,13.672,30.762,0
1504428347.551,21.484,-684.570,3.906,3.418,50.293,0
1504428347.555,16.113,-794.922,-2.441,20.508,35.645,0
1504428347.559,12.207,-749.023,22.461,16.602,63.477,0
1504428347.563,0.488,-625.000,-4.395,-0.977,86.914,0
1504428347.567,17.578,-697.754,0.488,15.137,50.781,0
1504428347.571,27.344,-875.977,34.668,22.461,41.992,0
1504428347.575,15.625,-978.027,26.367,14.648,52.246,0
1504428347.579,9.277,-971.191,-4.395,14.160,30.273,0
1504428347.583,16.602,-827.637,0.000,18.555,33.203,0
1504428347.586,15.137,-870.117,31.250,31.738,37.598,0
1504428347.590,11.230,-930.664,47.852,43.457,8.789,0
1504428347.594,6.348,-698.730,34.180,35.156,14.160,0
1504428347.598,10.742,-703.613,34.668,37.598,28.320,0
1504428347.602,32.715,-861.816,54.688,55.176,20.996,0
1504428347.606,34.180,-751.465,4.883,51.758,33.203,0
1504428347.610,34.668,-616.699,23.926,41.992,43.945,0
1504428347.614,33.691,-729.492,65.430,38.574,39.551,0
1504428347.618,26.367,-909.180,49.805,44.434,55.176,0
1504428347.622,37.109,-850.586,52.734,54.199,83.496,0
1504428347.625,53.711,-684.082,45.898,58.105,75.684,0
