timestamps,TP9,AF7,AF8,TP10,Right AUX,Marker0
1504332332.597,43.457,25.391,45.898,56.641,-15.137,0
1504332332.601,40.039,38.086,16.113,48.340,36.133,0
1504332332.605,58.594,50.293,30.762,64.453,52.246,0
1504332332.609,56.641,44.922,59.570,64.453,35.645,0
1504332332.613,74.707,49.805,61.035,59.570,-3.418,0
1504332332.617,95.703,67.871,69.336,71.289,18.066,0
1504332332.621,73.730,49.316,64.453,65.430,59.082,0
1504332332.624,74.707,36.133,53.223,57.617,35.645,0
1504332332.628,87.402,53.711,44.922,52.734,29.785,0
1504332332.632,64.941,44.922,24.414,35.156,48.828,0
1504332332.636,42.969,31.250,-18.066,26.855,59.082,0
1504332332.640,44.922,46.875,2.930,29.785,54.688,0
1504332332.644,29.785,51.758,59.082,32.227,20.996,0
1504332332.648,23.438,54.199,62.500,40.039,15.625,0
1504332332.652,33.691,64.941,71.777,35.156,26.367,0
1504332332.656,26.855,40.527,56.152,37.598,65.430,0
1504332332.660,29.785,38.086,49.805,32.715,46.875,0
1504332332.663,37.109,60.547,71.289,23.926,-3.418,0
1504332332.667,28.320,46.875,66.406,29.785,25.879,0
1504332332.671,27.832,26.367,69.336,28.320,28.809,0
1504332332.675,16.113,20.020,50.293,11.230,11.719,0
1504332332.679,-1.953,16.602,35.645,9.277,54.199,0
1504332332.683,14.648,18.066,37.109,19.531,76.660,0
1504332332.687,32.227,30.273,21.484,17.090,41.504,0
1504332332.691,27.344,56.152,41.504,39.062,62.012,0
1504332332.695,27.344,68.359,78.125,47.363,52.734,0
1504332332.699,20.020,55.664,83.008,25.391,52.734,0
1504332332.703,16.602,30.273,71.289,37.598,66.895,0
1504332332.706,28.320,10.742,40.039,42.969,61.035,0
1504332332.710,39.062,23.926,30.762,47.852,47.363,0
1504332332.714,37.598,30.762,55.176,49.316,39.062,0
1504332332.718,46.387,25.391,62.500,38.086,27.344,0
1504332332.722,34.180,32.715,52.246,38.574,57.617,0
1504332332.726,35.156,61.035,39.551,44.922,83.496,0
1504332332.730,37.109,50.293,6.348,49.805,40.039,0
1504332332.734,41.992,38.574,14.648,34.668,46.387,0
1504332332.738,44.434,53.223,59.082,44.922,106.445,0
1504332332.742,31.738,68.359,76.660,58.105,91.309,0
1504332332.746,48.340,61.035,62.500,36.621,45.410,0
1504332332.749,76.660,50.293,50.293,51.270,46.875,0
1504332332.753,68.359,46.387,41.016,60.547,77.637,0
1504332332.757,64.453,36.133,13.184,55.176,87.402,0
1504332332.761,73.242,66.895,41.016,77.637,28.809,0
1504332332.765,72.754,81.543,70.312,88.379,12.207,0
1504332332.769,81.543,48.340,40.527,59.082,40.527,0
1504332332.773,79.102,38.086,38.574,54.199,61.035,0
1504332332.777,63.965,44.922,51.758,60.547,47.363,0
1504332332.781,67.383,55.664,35.645,55.664,33.203,0
1504332332.785,68.359,64.941,17.090,47.852,44.922,0
1504332332.788,62.012,49.805,10.742,56.641,61.523,0
1504332332.792,45.898,32.227,32.715,46.875,44.434,0
1504332332.796,38.086,25.879,66.895,41.016,20.996,0
1504332332.800,43.457,24.414,57.129,30.762,33.203,0
1504332332.804,42.480,41.992,55.664,26.367,42.969,0
1504332332.808,57.129,44.434,65.918,51.270,19.043,0
1504332332.812,39.551,62.500,62.500,50.293,1.953,0
1504332332.816,32.227,74.707,70.801,53.711,11.230,0
1504332332.820,59.082,43.945,74.219,55.176,12.207,0
1504332332.824,62.500,14.160,63.477,53.223,5.859,0
1504332332.828,61.523,29.297,49.805,58.594,14.160,0
1504332332.831,61.035,44.922,41.504,61.035,10.254,0
1504332332.835,57.129,18.066,52.734,64.941,42.480,0
1504332332.839,68.359,13.672,75.195,80.078,70.312,0
1504332332.843,93.750,56.641,80.078,95.215,41.504,0
1504332332.847,100.098,54.199,81.543,94.727,20.020,0
1504332332.851,86.914,30.762,53.223,85.938,14.648,0
1504332332.855,71.289,46.387,52.246,73.242,21.484,0
1504332332.859,61.035,62.500,76.172,72.266,29.785,0
1504332332.863,55.664,62.988,51.758,72.266,9.277,0
1504332332.867,40.527,60.547,43.457,45.410,-14.648,0
1504332332.871,51.758,39.062,51.758,40.527,3.418,0
1504332332.874,62.012,36.133,56.641,44.922,26.367,0
1504332332.878,50.293,55.176,43.945,36.621,15.137,0
1504332332.882,61.035,52.246,36.133,46.387,3.906,0
1504332332.886,49.316,24.902,29.297,47.363,29.297,0
1504332332.890,41.016,32.715,55.664,43.945,28.809,0
1504332332.894,61.523,67.383,69.336,45.898,9.766,0
1504332332.898,59.082,63.965,36.621,42.480,10.254,0
1504332332.902,30.762,47.852,8.789,29.297,40.527,0
1504332332.906,30.273,53.711,20.508,35.645,57.129,0
1504332332.910,50.293,70.801,59.082,40.039,32.227,0
1504332332.913,43.945,67.871,63.965,25.879,2.441,0
1504332332.917,45.410,52.246,52.246,41.016,45.898,0
1504332332.921,73.242,46.387,54.199,51.270,73.242,0
1504332332.925,73.730,32.227,58.594,40.039,57.129,0
1504332332.929,56.641,18.555,57.129,40.039,33.691,0
1504332332.933,63.477,14.648,68.359,56.641,47.363,0
1504332332.937,51.270,33.203,60.059,61.523,67.871,0
1504332332.941,51.758,54.199,52.246,56.641,35.156,0
1504332332.945,70.801,51.758,62.988,70.801,5.371,0
1504332332.949,73.242,57.129,52.246,69.336,9.766,0
1504332332.953,74.219,52.734,49.805,70.312,47.852,0
1504332332.956,62.012,59.570,59.082,71.289,27.344,0
1504332332.960,66.406,59.570,59.082,69.824,-21.973,0
1504332332.964,74.707,52.734,57.617,72.754,-10.742,0
1504332332.968,83.496,57.617,56.641,72.266,22.949,0
1504332332.972,60.059,39.062,26.855,60.547,56.641,0
1504332332.976,81.543,48.828,42.969,60.059,27.832,0
1504332332.980,93.262,39.062,76.172,56.152,34.180,0
1504332332.984,27.832,-11.230,46.387,27.832,37.109,0
1504332332.988,44.434,22.949,48.828,32.715,18.066,0
1504332332.992,81.055,69.824,40.527,50.293,19.043,0
1504332332.996,63.965,60.547,41.992,60.547,-17.578,0
1504332332.999,55.176,55.176,73.242,70.801,-53.711,0
1504332333.003,72.754,53.711,84.473,73.730,-25.879,0
1504332333.007,78.613,16.113,68.848,66.406,-21.484,0
1504332333.011,58.594,25.391,48.340,57.129,-36.621,0
1504332333.015,61.035,65.918,50.781,73.242,-36.133,0
1504332333.019,52.734,42.480,55.176,72.754,-36.133,0
1504332333.023,50.781,30.273,28.320,45.410,-53.223,0
1504332333.027,62.988,50.293,-0.488,35.645,-83.008,0
1504332333.031,46.387,62.500,31.250,41.992,-45.410,0
1504332333.035,24.902,54.199,73.242,21.973,-24.902,0
1504332333.038,6.348,29.297,62.988,-0.488,-39.551,0
1504332333.042,-1.465,32.227,73.242,17.090,-46.875,0
1504332333.046,27.344,50.781,91.309,49.316,-40.527,0
1504332333.050,31.250,45.898,67.383,39.551,-43.945,0
1504332333.054,6.836,36.621,56.641,21.973,-1.465,0
1504332333.058,13.672,22.461,58.105,26.367,-53.711,0
1504332333.062,26.855,7.324,57.617,27.344,-103.516,0
1504332333.066,21.973,8.789,54.199,37.109,-24.902,0
1504332333.070,26.367,43.457,39.551,40.039,-10.742,0
1504332333.074,49.805,67.871,40.527,52.246,-47.852,0
1504332333.078,59.570,60.547,55.176,68.848,-41.504,0
1504332333.081,36.621,60.547,62.012,57.129,-22.949,0
1504332333.085,19.043,55.664,60.059,39.551,-15.625,0
1504332333.089,28.320,51.270,60.059,43.945,-6.836,0
1504332333.093,32.227,54.688,60.059,49.316,-6.348,0
1504332333.097,34.668,52.246,40.527,48.340,-24.414,0
1504332333.101,44.922,42.480,36.133,40.527,-18.066,0
1504332333.105,35.156,32.715,53.223,45.410,-22.461,0
1504332333.109,41.504,38.086,53.711,62.012,1.953,0
1504332333.113,43.945,37.598,45.898,51.270,39.062,0
1504332333.117,52.246,41.992,53.711,50.781,-14.648,0
1504332333.121,104.004,65.918,56.152,76.660,-23.926,0
1504332333.124,108.887,56.641,59.570,86.426,-9.277,0
1504332333.128,69.824,45.898,38.086,79.102,-13.184,0
1504332333.132,48.340,56.641,9.766,51.270,43.457,0
1504332333.136,44.922,50.293,48.340,46.875,65.918,0
1504332333.140,52.734,41.016,71.777,54.688,34.668,0
1504332333.144,50.293,30.762,58.594,43.457,-2.441,0
1504332333.148,52.246,38.574,55.176,49.316,-28.320,0
1504332333.152,43.457,43.945,52.734,47.852,-2.441,0
1504332333.156,44.922,27.832,47.852,29.785,34.180,0
1504332333.160,43.457,30.762,53.223,30.273,20.020,0
1504332333.163,44.922,43.945,62.988,45.898,2.441,0
1504332333.167,65.918,58.594,68.848,58.105,23.438,0
1504332333.171,39.551,55.176,60.059,58.594,44.434,0
1504332333.175,23.926,44.434,24.414,50.781,39.551,0
1504332333.179,51.270,62.012,13.184,58.594,10.742,0
1504332333.183,40.527,46.387,42.480,53.223,21.484,0
1504332333.187,8.789,15.137,67.871,33.691,40.527,0
1504332333.191,18.066,19.043,61.523,52.246,24.414,0
1504332333.195,22.949,35.645,52.734,62.988,-27.832,0
1504332333.199,43.457,60.059,83.984,75.684,8.789,0
1504332333.203,25.879,39.062,76.172,65.918,62.988,0
1504332333.206,24.902,21.484,58.594,48.340,44.434,0
1504332333.210,44.922,36.133,64.453,45.898,58.105,0
1504332333.214,28.809,46.387,74.707,42.969,54.199,0
1504332333.218,55.664,32.715,50.293,69.824,42.969,0
1504332333.222,54.199,13.672,23.926,70.312,91.309,0
1504332333.226,39.062,41.504,58.105,57.129,77.637,0
1504332333.230,42.480,49.805,70.312,51.270,53.711,0
1504332333.234,31.250,36.621,70.312,48.828,60.547,0
1504332333.238,37.598,38.574,67.871,65.430,57.617,0
1504332333.242,47.852,31.738,50.293,57.617,47.852,0
1504332333.246,29.785,51.758,38.574,43.457,30.762,0
1504332333.249,28.809,63.477,24.414,54.199,31.250,0
1504332333.253,39.062,55.664,23.926,69.336,41.016,0
1504332333.257,40.527,39.062,55.664,56.641,33.203,0
1504332333.261,60.059,41.992,80.566,60.547,22.461,0
1504332333.265,55.176,41.016,62.012,62.012,51.270,0
1504332333.269,31.738,36.133,57.617,29.785,61.035,0
1504332333.273,26.367,53.223,52.734,18.066,66.895,0
1504332333.277,13.672,35.645,41.016,5.371,48.828,0
1504332333.281,13.184,35.645,46.387,19.043,47.852,0
1504332333.285,31.738,54.199,45.410,47.363,41.992,0
1504332333.288,32.715,46.875,42.969,49.316,35.645,0
1504332333.292,1.953,44.922,40.527,34.668,61.523,0
1504332333.296,-0.488,48.340,34.180,26.855,51.758,0
1504332333.300,20.508,34.180,59.570,36.133,40.039,0
1504332333.304,3.418,10.254,72.754,34.668,46.875,0
1504332333.308,4.883,11.719,57.617,41.992,63.965,0
1504332333.312,28.809,31.250,61.523,54.688,27.344,0
1504332333.316,34.180,33.203,64.941,62.988,31.250,0
1504332333.320,45.410,34.180,65.918,62.500,57.617,0
1504332333.324,56.152,47.363,72.266,65.430,63.477,0
1504332333.328,55.664,51.758,64.453,68.359,54.688,0
1504332333.331,42.480,45.410,61.523,66.895,14.648,0
1504332333.335,22.949,25.391,60.547,50.781,24.414,0
1504332333.339,43.457,48.828,49.316,49.316,76.172,0
1504332333.343,69.336,61.035,18.555,58.594,40.527,0
1504332333.347,59.570,38.086,25.879,58.105,-6.348,0
1504332333.351,51.758,46.387,58.594,67.871,16.113,0
1504332333.355,62.500,51.270,57.129,85.938,38.574,0
1504332333.359,76.660,39.551,65.918,94.727,-11.719,0
1504332333.363,87.891,50.293,79.590,86.914,-50.781,0
1504332333.367,92.285,57.129,71.289,74.707,10.254,0
1504332333.371,95.703,40.527,61.523,77.148,24.414,0
1504332333.374,62.012,47.363,54.199,70.801,-1.465,0
1504332333.378,37.109,54.199,49.316,53.711,-15.625,0
1504332333.382,53.223,57.617,45.410,58.105,-9.277,0
1504332333.386,51.758,59.570,58.105,53.711,29.785,0
1504332333.390,53.711,38.574,43.945,52.246,9.277,0
1504332333.394,53.711,37.598,22.461,61.035,-31.250,0
1504332333.398,42.969,43.945,27.344,48.828,-9.277,0
1504332333.402,51.758,42.480,30.273,48.340,6.348,0
1504332333.406,51.270,38.574,46.387,52.246,32.227,0
1504332333.410,48.340,52.734,71.289,51.270,40.039,0
1504332333.413,54.688,59.570,75.195,49.316,1.953,0
1504332333.417,52.246,41.992,45.898,54.199,-1.465,0
1504332333.421,41.016,32.227,45.898,55.664,10.254,0
1504332333.425,42.480,55.664,66.406,50.781,-7.812,0
1504332333.429,33.691,61.035,46.875,41.992,22.949,0
1504332333.433,26.855,36.133,22.461,29.785,49.805,0
1504332333.437,46.387,39.551,38.574,23.926,38.574,0
1504332333.441,73.242,23.438,38.574,24.902,41.016,0
1504332333.445,72.754,28.320,43.945,26.367,43.457,0
1504332333.449,53.223,57.617,67.871,33.691,47.363,0
1504332333.453,36.133,66.895,52.734,33.203,46.875,0
1504332333.456,26.367,55.176,26.855,29.785,43.945,0
1504332333.460,27.344,47.852,28.320,31.250,41.016,0
1504332333.464,51.270,53.223,48.340,55.664,36.133,0
1504332333.468,65.430,44.434,48.340,55.176,78.613,0
1504332333.472,83.496,51.758,67.383,63.477,92.773,0
1504332333.476,56.641,61.523,57.129,52.246,68.359,0
1504332333.480,19.043,36.133,32.227,23.926,35.156,0
1504332333.484,53.223,20.020,53.711,51.758,26.367,0
1504332333.488,74.219,31.250,37.109,64.453,49.316,0
1504332333.492,74.219,32.227,24.414,60.059,24.902,0
1504332333.496,83.984,37.598,55.176,66.406,-2.930,0
1504332333.499,79.102,54.199,57.617,77.148,2.930,0
1504332333.503,59.570,65.430,59.570,70.312,26.855,0
1504332333.507,59.570,62.500,49.316,53.711,41.504,0
1504332333.511,69.336,65.430,37.109,55.176,-18.555,0
1504332333.515,62.988,71.289,55.664,53.223,-55.176,0
1504332333.519,53.223,40.039,28.809,56.152,-18.066,0
1504332333.523,54.688,33.203,32.227,62.500,26.367,0
1504332333.527,47.852,39.551,61.035,55.664,-11.719,0
1504332333.531,26.855,22.461,32.227,21.973,-28.809,0
1504332333.535,41.504,28.809,42.969,15.625,24.414,0
1504332333.538,58.105,33.203,65.430,23.438,48.340,0
1504332333.542,47.852,29.785,47.363,24.414,18.066,0
1504332333.546,45.410,43.457,33.691,31.738,0.488,0
1504332333.550,39.551,56.152,38.574,26.855,37.109,0
1504332333.554,24.414,59.082,55.664,25.391,32.227,0
1504332333.558,35.156,56.152,61.035,31.738,-4.395,0
1504332333.562,48.828,68.848,48.828,36.621,19.043,0
1504332333.566,59.082,76.172,47.852,46.875,72.754,0
1504332333.570,62.500,48.828,41.016,58.594,77.148,0
1504332333.574,64.941,33.203,33.691,58.105,55.176,0
1504332333.578,63.965,48.340,33.203,56.641,47.852,0
1504332333.581,76.172,62.500,56.641,64.941,69.824,0
1504332333.585,82.520,61.523,54.199,66.895,65.430,0
1504332333.589,61.523,28.320,23.438,46.387,48.828,0
1504332333.593,52.734,57.617,50.293,49.316,40.039,0
1504332333.597,66.406,79.102,95.215,77.637,24.902,0
1504332333.601,56.152,35.156,63.477,60.547,34.180,0
1504332333.605,22.461,17.578,22.461,34.668,56.152,0
1504332333.609,34.180,48.340,20.996,45.898,69.824,0
1504332333.613,59.082,64.941,40.527,52.246,43.457,0
1504332333.617,56.641,33.203,57.129,45.410,10.742,0
1504332333.621,59.082,23.926,50.293,64.941,74.219,0
1504332333.624,75.195,36.133,48.828,75.684,78.125,0
1504332333.628,91.309,52.246,51.270,66.895,27.344,0
1504332333.632,83.008,53.223,56.152,52.734,60.547,0
1504332333.636,69.824,57.617,65.918,46.875,85.449,0
1504332333.640,59.082,64.941,54.688,59.570,76.172,0
1504332333.644,53.223,51.758,44.434,59.082,81.055,0
1504332333.648,53.223,46.387,47.363,70.312,56.152,0
1504332333.652,48.340,55.664,41.504,74.219,71.777,0
1504332333.656,49.316,40.039,57.617,62.988,103.516,0
1504332333.660,54.199,24.902,74.219,64.453,98.633,0
1504332333.663,52.734,18.555,46.387,52.246,102.539,0
1504332333.667,37.598,20.020,36.133,32.715,131.836,0
1504332333.671,10.742,30.273,52.734,28.809,155.762,0
1504332333.675,29.297,50.781,57.617,45.898,121.582,0
1504332333.679,42.969,53.711,48.828,61.035,117.188,0
1504332333.683,46.387,34.668,50.781,52.734,130.371,0
1504332333.687,68.848,54.199,76.172,61.523,159.180,0
1504332333.691,70.801,68.848,76.172,74.707,151.367,0
1504332333.695,75.684,57.617,61.035,71.777,132.812,0
1504332333.699,81.055,54.199,74.707,94.238,176.758,0
1504332333.703,46.387,39.062,41.504,69.824,196.777,0
1504332333.706,58.105,29.297,22.949,49.805,153.809,0
1504332333.710,97.168,24.414,55.176,62.988,125.488,0
1504332333.714,77.148,25.391,50.293,43.457,168.457,0
1504332333.718,83.984,54.199,50.293,47.852,184.082,0
1504332333.722,93.750,77.637,39.062,68.359,175.781,0
1504332333.726,52.734,66.406,33.691,47.363,172.852,0
1504332333.730,55.664,38.086,59.570,45.410,166.504,0
1504332333.734,68.359,56.641,81.543,57.617,168.457,0
1504332333.738,73.242,53.223,68.848,53.223,165.039,0
1504332333.742,97.168,43.457,49.805,62.500,159.668,0
1504332333.746,78.613,47.852,52.246,64.453,156.250,0
1504332333.749,53.711,43.945,59.082,52.246,137.207,0
1504332333.753,68.848,47.363,61.035,56.641,153.320,0
1504332333.757,66.406,18.555,43.945,54.688,187.500,0
1504332333.761,62.012,29.297,41.992,45.410,172.363,0
1504332333.765,70.312,46.875,59.082,47.363,136.719,0
1504332333.769,62.988,39.551,46.875,44.434,147.461,0
1504332333.773,64.453,49.316,42.480,45.898,178.223,0
1504332333.777,61.523,53.711,49.805,45.410,152.832,0
1504332333.781,45.898,52.734,52.734,46.387,129.395,0
1504332333.785,37.598,37.598,42.480,47.363,177.246,0
1504332333.788,45.410,36.621,51.270,49.805,181.641,0
1504332333.792,64.453,45.898,71.777,52.734,128.418,0
1504332333.796,53.223,29.785,62.012,45.410,98.145,0
1504332333.800,23.926,48.340,63.477,39.062,137.695,0
1504332333.804,2.930,24.414,40.039,28.320,153.320,0
1504332333.808,18.066,-4.395,38.086,28.809,114.746,0
1504332333.812,38.574,41.016,78.125,34.180,108.398,0
1504332333.816,22.461,72.754,88.379,38.574,133.301,0
1504332333.820,20.508,59.570,65.430,41.016,148.438,0
1504332333.824,21.484,39.551,55.176,39.551,124.023,0
1504332333.828,42.969,33.203,50.781,56.152,100.586,0
1504332333.831,44.434,26.855,41.016,61.523,105.469,0
1504332333.835,20.508,27.344,50.781,54.688,105.469,0
1504332333.839,22.949,32.227,61.523,53.711,106.445,0
1504332333.843,25.391,31.738,56.152,41.992,81.543,0
1504332333.847,36.621,27.832,57.617,36.621,70.312,0
1504332333.851,37.598,35.156,67.871,36.133,127.930,0
1504332333.855,35.156,17.578,50.781,42.480,120.605,0
1504332333.859,25.879,14.160,29.297,28.809,83.008,0
1504332333.863,41.992,41.992,51.758,39.551,118.164,0
1504332333.867,58.105,40.039,75.195,62.012,128.418,0
1504332333.871,46.875,54.688,29.785,37.109,142.578,0
1504332333.874,44.434,52.246,18.066,46.387,132.812,0
1504332333.878,28.320,24.902,47.852,66.406,95.703,0
1504332333.882,27.832,27.832,49.316,54.199,83.984,0
1504332333.886,28.809,27.344,28.809,48.828,62.012,0
1504332333.890,27.832,49.805,59.082,52.246,51.270,0
1504332333.894,47.852,70.312,95.703,43.945,64.941,0
1504332333.898,42.480,55.176,76.660,27.344,45.898,0
1504332333.902,34.668,48.340,50.781,23.438,44.922,0
1504332333.906,16.602,46.875,46.875,33.691,90.820,0
1504332333.910,12.207,27.832,41.504,37.598,89.355,0
1504332333.913,32.227,3.906,42.969,40.039,49.316,0
1504332333.917,50.781,5.371,50.293,42.969,50.293,0
1504332333.921,59.570,46.387,51.270,41.504,62.988,0
1504332333.925,53.711,68.359,31.250,34.180,46.387,0
1504332333.929,47.852,65.918,46.387,41.504,17.090,0
1504332333.933,53.223,55.664,82.520,49.316,41.504,0
1504332333.937,62.988,34.668,54.199,60.059,79.102,0
1504332333.941,49.805,51.270,61.523,61.035,51.270,0
1504332333.945,17.578,35.645,50.293,40.039,4.395,0
1504332333.949,21.973,33.691,30.273,41.504,-27.832,0
1504332333.953,44.434,66.895,59.570,41.016,0.488,0
1504332333.956,68.848,65.918,49.316,39.062,52.246,0
1504332333.960,55.664,37.109,35.156,48.340,56.641,0
1504332333.964,23.926,5.859,41.504,43.457,33.691,0
1504332333.968,37.598,22.461,59.082,52.734,56.152,0
1504332333.972,41.992,44.922,61.523,60.059,74.707,0
1504332333.976,47.852,33.691,40.039,47.852,54.688,0
1504332333.980,53.711,33.691,23.438,61.523,45.410,0
1504332333.984,48.340,48.828,30.762,75.195,40.527,0
1504332333.988,59.082,51.270,46.387,69.824,64.453,0
1504332333.992,62.500,53.223,52.734,61.523,44.922,0
1504332333.996,46.387,35.645,45.898,55.176,11.230,0
1504332333.999,42.969,27.344,53.223,39.062,58.594,0
1504332334.003,60.547,52.734,72.754,41.504,65.918,0
1504332334.007,67.871,53.711,78.613,64.453,34.180,0
1504332334.011,56.641,38.086,62.988,67.383,7.324,0
1504332334.015,52.734,23.438,42.969,39.062,21.484,0
1504332334.019,62.500,33.691,57.617,46.387,67.383,0
1504332334.023,89.355,73.730,64.453,93.262,57.129,0
1504332334.027,67.383,55.176,64.941,75.684,11.719,0
1504332334.031,23.926,23.926,61.523,28.320,16.113,0
1504332334.035,31.738,37.109,43.457,45.410,46.387,0
1504332334.038,34.668,27.832,23.438,46.387,18.555,0
1504332334.042,15.137,30.762,42.480,33.203,25.879,0
1504332334.046,16.602,39.551,61.523,45.898,35.645,0
1504332334.050,24.902,13.184,46.875,54.688,34.668,0
1504332334.054,29.785,33.691,50.293,44.434,54.199,0
1504332334.058,33.203,59.082,70.801,50.781,68.359,0
1504332334.062,33.203,49.805,70.801,60.059,30.762,0
1504332334.066,41.504,57.129,60.547,54.688,-14.160,0
1504332334.070,38.574,56.641,49.805,54.199,6.348,0
1504332334.074,36.133,42.969,41.992,49.805,20.508,0
1504332334.078,52.246,32.227,40.527,52.246,17.578,0
1504332334.081,64.453,38.574,62.988,57.129,-22.461,0
1504332334.085,34.668,31.738,69.336,39.551,-4.883,0
1504332334.089,14.648,7.812,52.734,31.250,73.730,0
1504332334.093,29.785,-5.371,47.852,44.922,30.762,0
1504332334.097,40.039,32.227,44.434,47.363,0.977,0
1504332334.101,36.133,69.824,43.457,57.617,23.926,0
1504332334.105,22.949,51.758,61.035,50.293,23.926,0
1504332334.109,34.180,44.434,77.637,33.691,28.809,0
1504332334.113,36.621,49.805,65.918,44.922,7.812,0
1504332334.117,23.438,51.270,54.688,51.758,36.621,0
1504332334.121,32.227,60.547,53.711,63.965,36.133,0
1504332334.124,43.945,38.574,41.016,63.965,-0.977,0
1504332334.128,48.828,8.789,41.016,49.805,-15.137,0
1504332334.132,50.781,35.156,60.059,46.387,14.160,0
1504332334.136,36.621,51.758,52.246,50.293,57.617,0
1504332334.140,42.969,47.363,58.594,65.918,22.949,0
1504332334.144,41.504,40.039,63.477,51.270,-19.531,0
1504332334.148,38.086,46.387,39.062,38.574,15.137,0
1504332334.152,62.988,61.035,44.922,64.941,47.363,0
1504332334.156,53.711,60.547,55.176,80.566,62.012,0
1504332334.160,46.875,67.871,58.594,55.176,32.715,0
1504332334.163,54.688,65.430,43.457,22.461,-13.672,0
1504332334.167,35.645,54.199,29.785,19.531,7.324,0
1504332334.171,26.855,41.504,46.875,23.926,21.973,0
1504332334.175,24.414,30.762,50.293,20.020,7.324,0
1504332334.179,33.691,40.039,57.617,35.156,6.348,0
1504332334.183,37.109,39.551,61.035,47.363,14.648,0
1504332334.187,51.270,42.480,65.918,66.406,46.387,0
1504332334.191,43.945,56.641,38.574,58.594,63.477,0
1504332334.195,11.719,34.180,16.602,23.926,59.570,0
1504332334.199,39.551,39.551,62.500,48.828,12.695,0
1504332334.203,44.434,42.969,73.730,67.871,23.438,0
1504332334.206,48.340,33.691,48.828,55.176,59.570,0
1504332334.210,63.965,37.598,46.875,56.152,32.715,0
1504332334.214,41.992,46.875,47.363,53.223,10.742,0
1504332334.218,39.062,63.965,46.387,53.223,19.043,0
1504332334.222,40.527,54.688,65.918,48.828,51.758,0
1504332334.226,56.641,32.227,60.059,75.195,51.270,0
1504332334.230,64.941,23.438,51.270,85.938,33.203,0
1504332334.234,62.988,43.457,65.918,85.449,39.062,0
1504332334.238,42.969,45.410,40.527,49.316,72.266,0
1504332334.242,29.297,49.316,36.133,17.090,59.570,0
1504332334.246,41.992,61.523,59.082,46.387,-16.113,0
1504332334.249,71.289,83.008,58.105,62.012,8.789,0
1504332334.253,57.129,65.430,33.691,44.922,73.242,0
1504332334.257,36.133,19.531,34.668,31.250,35.645,0
1504332334.261,27.344,25.391,67.871,39.551,-17.578,0
1504332334.265,11.230,33.691,59.082,28.320,-8.789,0
1504332334.269,40.039,31.738,50.293,46.387,57.129,0
1504332334.273,39.551,43.457,57.129,42.480,71.777,0
1504332334.277,0.977,44.922,48.340,16.602,32.227,0
1504332334.281,10.254,32.715,17.578,26.855,20.020,0
1504332334.285,31.738,38.574,37.598,43.457,32.715,0
1504332334.288,38.574,47.363,56.641,61.523,44.922,0
1504332334.292,46.387,49.805,18.555,67.871,42.969,0
1504332334.296,45.410,67.871,33.203,59.570,49.805,0
1504332334.300,71.289,82.031,65.918,62.500,62.012,0
1504332334.304,64.941,60.059,60.547,45.898,49.805,0
1504332334.308,42.480,36.133,41.504,29.785,14.648,0
1504332334.312,60.547,37.109,32.227,40.039,37.598,0
1504332334.316,73.730,34.180,35.645,45.898,52.734,0
1504332334.320,84.473,21.484,43.457,49.805,34.180,0
1504332334.324,77.148,51.270,58.105,48.828,50.781,0
1504332334.328,71.289,71.289,62.988,54.688,58.594,0
1504332334.331,60.059,61.523,55.664,56.641,55.176,0
1504332334.335,38.574,62.988,41.016,50.293,56.641,0
1504332334.339,30.273,52.246,38.574,31.250,57.129,0
1504332334.343,36.133,58.105,49.805,22.461,37.109,0
1504332334.347,46.875,50.293,48.828,32.227,2.441,0
1504332334.351,74.707,43.945,44.434,41.504,33.691,0
1504332334.355,85.938,53.223,44.922,34.668,53.711,0
1504332334.359,63.477,42.480,36.133,34.180,6.836,0
1504332334.363,69.336,37.598,40.039,44.922,0.977,0
1504332334.367,86.914,69.824,64.941,53.223,8.789,0
1504332334.371,74.707,90.332,66.406,45.898,28.809,0
1504332334.374,64.941,67.383,40.527,20.508,24.414,0
1504332334.378,94.727,73.730,49.805,35.156,-33.203,0
1504332334.382,80.078,73.242,54.688,33.203,-18.555,0
1504332334.386,56.152,43.945,27.832,23.438,24.414,0
1504332334.390,84.473,50.293,18.066,38.086,37.109,0
1504332334.394,76.660,63.477,44.434,36.133,9.766,0
1504332334.398,66.895,59.570,39.551,40.039,-15.625,0
1504332334.402,82.520,54.688,18.555,48.340,0.000,0
1504332334.406,83.984,31.250,37.109,39.062,16.113,0
1504332334.410,64.941,32.715,41.992,24.902,-2.441,0
1504332334.413,50.781,58.105,39.062,31.738,-24.414,0
1504332334.417,74.219,92.773,74.219,52.734,-3.906,0
1504332334.421,91.797,92.285,61.035,61.035,53.711,0
1504332334.425,65.430,48.828,29.785,38.574,17.090,0
1504332334.429,58.594,51.758,47.363,31.738,-24.414,0
1504332334.433,59.082,55.176,66.406,44.922,44.922,0
1504332334.437,62.012,47.852,60.059,44.434,44.434,0
1504332334.441,56.152,36.133,41.504,42.480,-11.719,0
1504332334.445,54.199,32.227,38.574,50.293,-32.227,0
1504332334.449,46.875,34.668,41.992,48.828,-7.324,0
1504332334.453,41.992,68.848,54.688,52.246,46.387,0
1504332334.456,45.410,86.426,54.688,53.711,38.086,0
1504332334.460,43.457,53.711,58.105,37.598,-26.367,0
1504332334.464,55.664,61.035,73.730,53.223,-30.273,0
1504332334.468,64.453,71.777,68.359,64.941,-10.254,0
1504332334.472,70.801,61.035,54.688,50.781,-2.930,0
1504332334.476,52.246,49.316,34.180,35.645,-8.789,0
1504332334.480,51.270,22.461,13.184,65.430,0.000,0
1504332334.484,67.871,29.785,30.273,59.082,19.043,0
1504332334.488,62.012,57.129,69.824,40.039,33.691,0
1504332334.492,70.801,41.992,80.078,56.152,2.930,0
1504332334.496,78.125,37.598,71.289,43.945,-11.719,0
1504332334.499,80.078,40.039,63.965,60.547,-7.812,0
1504332334.503,107.422,51.270,50.293,72.754,-26.367,0
1504332334.507,80.078,62.988,55.176,63.965,15.625,0
1504332334.511,59.570,56.152,73.242,70.312,37.598,0
1504332334.515,76.660,63.965,65.430,68.359,27.344,0
1504332334.519,68.359,60.059,37.109,63.965,39.062,0
1504332334.523,62.988,38.086,34.180,63.477,34.668,0
1504332334.527,49.316,17.578,55.176,57.129,17.090,0
1504332334.531,43.457,34.180,61.035,50.781,-1.465,0
1504332334.535,53.711,51.758,60.059,54.199,15.625,0
1504332334.538,47.852,31.738,66.406,45.898,46.875,0
1504332334.542,57.129,48.340,83.496,40.527,18.066,0
1504332334.546,62.012,46.387,64.941,46.387,-19.531,0
1504332334.550,66.895,45.410,49.805,56.152,-3.906,0
1504332334.554,71.777,88.379,66.895,59.570,25.391,0
1504332334.558,45.410,69.824,50.781,43.945,37.109,0
1504332334.562,49.316,11.719,26.367,41.992,23.438,0
1504332334.566,63.965,-1.465,18.555,41.504,26.855,0
1504332334.570,55.664,36.133,55.176,48.340,49.316,0
1504332334.574,53.223,52.246,74.707,54.688,22.461,0
1504332334.578,51.270,50.293,58.594,48.828,21.484,0
1504332334.581,72.754,62.500,69.336,50.293,18.066,0
1504332334.585,69.824,68.848,59.082,49.316,13.672,0
1504332334.589,37.109,55.664,36.621,34.668,46.875,0
1504332334.593,37.109,58.594,53.711,39.551,11.230,0
1504332334.597,61.035,72.754,56.641,71.777,6.348,0
1504332334.601,43.457,31.738,40.039,50.781,41.504,0
1504332334.605,13.184,-17.578,9.277,19.043,40.039,0
1504332334.609,23.926,-2.441,2.441,39.062,33.691,0
1504332334.613,36.133,41.016,66.895,50.293,43.945,0
1504332334.617,36.621,57.617,90.332,53.711,46.875,0
1504332334.621,36.133,63.477,74.707,47.363,31.738,0
1504332334.624,68.848,66.895,75.684,55.176,36.133,0
1504332334.628,78.613,50.781,64.941,79.102,13.184,0
1504332334.632,47.363,43.945,52.734,46.875,0.488,0
1504332334.636,42.480,33.203,53.711,39.551,-22.949,0
1504332334.640,59.082,22.461,63.477,62.012,-37.598,0
1504332334.644,69.336,22.461,61.035,63.965,-13.184,0
1504332334.648,58.594,17.090,56.641,63.965,1.465,0
1504332334.652,64.941,27.832,50.781,74.707,8.301,0
1504332334.656,82.031,39.062,63.965,85.449,-0.488,0
1504332334.660,64.453,30.762,81.543,97.656,-7.812,0
1504332334.663,82.031,46.875,72.266,95.215,-29.785,0
1504332334.667,85.449,56.641,55.176,73.242,-26.367,0
1504332334.671,48.340,49.805,44.922,69.824,-22.949,0
1504332334.675,50.293,51.758,52.734,65.430,-32.227,0
1504332334.679,48.828,51.758,54.688,56.641,-58.594,0
1504332334.683,28.320,34.180,41.992,39.551,-80.566,0
1504332334.687,23.926,-3.418,44.922,23.926,-37.598,0
1504332334.691,40.527,15.625,61.035,33.203,-9.766,0
1504332334.695,47.363,43.945,35.156,39.062,-37.598,0
1504332334.699,47.363,41.016,33.203,35.156,-59.570,0
1504332334.703,46.875,60.059,41.504,38.574,-27.344,0
1504332334.706,44.922,65.430,32.715,31.250,10.254,0
1504332334.710,40.039,45.410,42.969,17.090,-22.949,0
1504332334.714,41.016,52.246,46.875,21.484,-33.691,0
1504332334.718,53.711,59.082,42.480,29.297,-7.812,0
1504332334.722,75.195,42.969,35.645,47.363,-0.488,0
1504332334.726,82.031,36.621,44.434,52.246,-38.086,0
1504332334.730,75.195,22.461,57.617,53.223,-66.895,0
1504332334.734,73.730,27.344,58.105,65.918,-12.695,0
1504332334.738,83.496,39.551,49.805,69.336,20.020,0
1504332334.742,82.520,20.996,58.594,70.801,8.789,0
1504332334.746,69.824,25.879,50.781,74.707,21.973,0
1504332334.749,83.984,64.453,52.734,83.984,40.039,0
1504332334.753,74.707,64.941,69.824,75.195,62.012,0
1504332334.757,53.223,49.316,62.012,65.430,65.430,0
1504332334.761,43.945,49.316,58.105,57.617,32.227,0
1504332334.765,53.223,29.785,60.059,60.059,55.664,0
1504332334.769,50.293,14.648,69.336,52.734,107.422,0
1504332334.773,22.461,9.277,54.688,42.969,127.441,0
1504332334.777,40.527,37.598,46.387,53.711,107.422,0
1504332334.781,62.500,62.012,63.477,50.293,99.121,0
1504332334.785,65.918,57.129,74.707,61.035,133.301,0
1504332334.788,75.684,62.988,97.656,83.008,148.438,0
1504332334.792,49.316,33.691,42.480,57.129,146.484,0
1504332334.796,26.855,14.160,19.531,25.391,139.160,0
1504332334.800,34.180,35.645,60.059,28.320,140.137,0
1504332334.804,43.457,40.527,52.246,52.734,153.320,0
1504332334.808,41.504,15.625,51.270,61.523,134.766,0
1504332334.812,38.574,10.742,60.059,36.133,97.656,0
1504332334.816,58.594,39.062,67.871,43.945,135.254,0
1504332334.820,90.332,84.473,83.984,77.637,154.785,0
1504332334.824,71.289,67.871,72.266,43.457,125.488,0
1504332334.828,45.410,33.203,33.691,22.949,111.816,0
1504332334.831,43.457,57.617,14.648,29.785,64.453,0
1504332334.835,38.086,69.336,31.250,31.738,85.449,0
1504332334.839,40.527,45.410,48.828,33.691,118.164,0
1504332334.843,26.855,35.645,50.781,20.996,91.797,0
1504332334.847,37.598,28.809,49.805,30.762,83.008,0
1504332334.851,67.383,26.367,57.617,38.574,111.328,0
1504332334.855,62.988,38.086,56.641,41.016,114.746,0
1504332334.859,59.570,42.969,51.758,34.668,75.195,0
1504332334.863,54.688,55.664,55.664,48.340,44.434,0
1504332334.867,65.430,57.129,55.176,63.965,98.633,0
1504332334.871,80.566,53.711,66.895,60.547,128.418,0
1504332334.874,80.566,50.293,60.547,59.082,62.012,0
1504332334.878,58.105,41.016,33.691,49.805,26.855,0
1504332334.882,61.035,42.969,46.875,42.969,47.852,0
1504332334.886,79.102,37.598,62.500,52.734,89.844,0
1504332334.890,66.406,16.113,26.367,54.199,75.195,0
1504332334.894,88.867,28.320,36.133,59.570,42.969,0
1504332334.898,78.613,56.641,79.590,66.895,72.754,0
1504332334.902,64.941,68.359,60.547,57.129,100.098,0
1504332334.906,88.867,74.219,53.711,67.871,87.891,0
1504332334.910,73.730,69.336,76.660,60.547,69.336,0
1504332334.913,52.246,58.594,64.941,38.574,43.457,0
1504332334.917,55.176,44.922,52.246,41.992,80.078,0
1504332334.921,55.664,44.434,60.059,49.805,66.406,0
1504332334.925,62.988,38.574,53.711,64.453,14.648,0
1504332334.929,69.824,31.738,38.574,48.340,72.266,0
1504332334.933,60.547,36.133,42.969,49.805,64.941,0
1504332334.937,62.988,53.711,53.711,65.918,44.922,0
1504332334.941,55.176,61.035,70.312,44.434,67.383,0
1504332334.945,40.527,45.898,67.383,36.133,36.133,0
1504332334.949,42.969,38.086,60.059,35.645,40.039,0
1504332334.953,42.969,40.039,42.480,25.391,75.195,0
1504332334.956,41.992,55.664,23.926,18.555,80.078,0
1504332334.960,58.594,62.988,30.762,24.902,50.293,0
1504332334.964,55.176,50.293,32.227,24.902,22.949,0
1504332334.968,58.105,48.340,50.781,20.020,22.949,0
1504332334.972,70.801,55.664,55.176,28.320,46.875,0
1504332334.976,58.105,31.250,26.367,23.926,45.898,0
1504332334.980,60.547,28.809,24.902,20.996,14.648,0
1504332334.984,50.293,35.645,45.898,32.227,37.109,0
1504332334.988,44.434,46.875,55.664,30.762,77.148,0
1504332334.992,63.477,55.176,43.457,26.367,56.641,0
1504332334.996,75.195,50.293,43.945,33.691,29.297,0
1504332334.999,81.543,65.918,62.012,49.805,26.855,0
1504332335.003,71.777,59.082,60.059,62.012,53.223,0
1504332335.007,65.918,36.621,46.387,51.270,31.738,0
1504332335.011,81.055,41.504,36.621,44.922,-17.090,0
1504332335.015,85.449,63.477,46.387,46.387,9.277,0
1504332335.019,68.848,74.707,61.523,50.293,27.832,0
1504332335.023,43.945,39.062,32.715,46.875,16.113,0
1504332335.027,61.035,-1.953,39.062,56.152,0.000,0
1504332335.031,91.797,13.184,75.684,65.430,-32.715,0
1504332335.035,73.242,33.691,55.664,41.016,-4.883,0
1504332335.038,62.012,41.992,50.293,38.574,20.020,0
1504332335.042,70.312,56.152,60.059,43.945,-28.809,0
1504332335.046,70.801,53.223,62.500,50.781,-52.734,0
1504332335.050,55.664,53.711,57.617,62.988,-34.668,0
1504332335.054,44.434,41.504,36.621,54.688,-48.340,0
1504332335.058,66.406,39.062,28.320,63.477,-64.941,0
1504332335.062,79.102,34.668,55.176,60.059,-51.270,0
1504332335.066,65.430,33.691,73.242,43.945,-52.734,0
1504332335.070,58.105,45.410,62.988,49.805,-67.871,0
1504332335.074,64.453,30.273,39.062,55.664,-64.941,0
1504332335.078,73.242,18.066,35.645,48.828,-70.801,0
1504332335.081,74.707,26.855,40.039,48.340,-66.406,0
1504332335.085,67.383,34.668,35.156,52.734,-89.355,0
1504332335.089,79.590,56.152,54.688,64.453,-70.801,0
1504332335.093,80.078,74.707,53.711,52.246,-47.363,0
1504332335.097,76.660,62.500,44.434,32.715,-78.125,0
1504332335.101,99.121,59.082,62.500,53.711,-85.449,0
1504332335.105,102.539,63.477,46.875,43.457,-56.152,0
1504332335.109,97.168,64.453,41.504,29.297,-64.453,0
1504332335.113,92.773,64.453,49.805,42.969,-77.637,0
1504332335.117,74.219,55.664,36.621,40.527,-46.875,0
1504332335.121,71.289,32.715,23.926,22.461,-2.930,0
1504332335.124,66.406,23.438,30.762,25.879,-7.324,0
1504332335.128,64.453,50.781,49.316,47.363,-58.105,0
1504332335.132,77.148,59.570,47.363,49.316,-79.102,0
1504332335.136,83.496,62.012,28.320,54.199,-29.785,0
1504332335.140,91.309,66.895,36.133,57.617,5.859,0
1504332335.144,109.863,72.266,32.715,55.664,-14.648,0
1504332335.148,111.816,72.754,33.203,49.316,-30.273,0
1504332335.152,94.727,57.617,56.641,36.621,-1.465,0
1504332335.156,91.797,54.199,52.734,38.574,11.719,0
1504332335.160,85.449,41.504,45.898,36.621,-12.695,0
1504332335.163,76.172,47.363,48.340,37.598,-18.066,0
1504332335.167,73.242,47.363,46.387,44.922,17.090,0
1504332335.171,81.543,28.809,38.086,53.223,11.230,0
1504332335.175,82.031,29.297,30.273,48.340,-4.883,0
1504332335.179,62.988,50.293,38.086,41.016,-21.973,0
1504332335.183,67.383,69.336,44.434,50.293,-12.695,0
1504332335.187,74.219,62.500,29.297,46.387,19.531,0
1504332335.191,97.168,58.105,25.391,46.387,-10.742,0
1504332335.195,97.168,62.012,62.012,55.664,-54.688,0
1504332335.199,64.453,50.781,61.035,39.062,-86.426,0
1504332335.203,59.082,48.340,71.777,55.664,-72.266,0
1504332335.206,79.590,66.895,84.473,70.801,-55.176,0
1504332335.210,76.172,56.641,56.152,41.504,-81.543,0
1504332335.214,68.359,48.340,51.270,53.711,-81.543,0
1504332335.218,68.359,54.199,48.340,57.129,-61.035,0
1504332335.222,44.922,28.809,40.527,41.992,-63.477,0
1504332335.226,38.574,25.391,18.066,41.016,-76.172,0
1504332335.230,68.359,42.480,10.254,66.895,-96.680,0
1504332335.234,80.078,32.715,45.410,82.520,-110.352,0
1504332335.238,73.730,34.668,67.383,65.430,-84.961,0
1504332335.242,73.730,41.504,61.523,48.340,-64.453,0
1504332335.246,66.895,40.527,62.012,49.805,-77.637,0
1504332335.249,66.895,46.387,54.199,49.805,-91.797,0
1504332335.253,73.242,50.781,48.340,44.922,-104.980,0
1504332335.257,81.543,65.918,67.383,60.059,-68.848,0
1504332335.261,73.730,68.848,60.059,59.570,-66.895,0
1504332335.265,69.336,58.594,59.082,57.617,-78.125,0
1504332335.269,65.430,50.781,62.988,55.664,-27.832,0
1504332335.273,63.965,43.457,56.152,53.223,-4.395,0
1504332335.277,70.312,38.574,46.875,66.895,-23.438,0
1504332335.281,74.707,22.949,27.344,69.336,-7.324,0
1504332335.285,64.941,24.902,24.414,52.246,30.762,0
1504332335.288,64.941,40.527,60.547,61.035,25.879,0
1504332335.292,74.219,42.969,78.613,53.223,17.578,0
1504332335.296,59.082,41.992,68.848,39.062,4.883,0
1504332335.300,68.848,50.293,81.543,63.477,32.227,0
1504332335.304,84.473,56.152,88.379,77.148,84.473,0
1504332335.308,62.012,33.203,59.570,62.012,81.543,0
1504332335.312,64.941,34.180,42.480,50.293,55.664,0
1504332335.316,83.984,56.152,42.480,48.828,75.195,0
1504332335.320,62.012,76.172,42.480,44.922,107.422,0
1504332335.324,41.992,51.270,54.688,36.133,100.586,0
1504332335.328,53.711,20.508,67.383,58.594,80.078,0
1504332335.331,41.016,8.301,42.480,56.641,101.562,0
1504332335.335,28.809,16.602,45.898,29.785,144.531,0
1504332335.339,45.898,59.082,69.824,39.062,183.105,0
1504332335.343,63.965,63.965,72.266,62.988,157.227,0
1504332335.347,79.590,43.457,64.941,70.801,132.812,0
1504332335.351,52.734,46.387,54.199,47.363,200.195,0
1504332335.355,34.180,61.523,62.988,35.645,206.055,0
1504332335.359,55.176,63.477,74.707,52.246,182.617,0
1504332335.363,51.758,54.688,68.848,51.758,170.410,0
1504332335.367,41.016,39.551,45.410,43.945,179.688,0
1504332335.371,59.570,43.457,51.270,59.570,243.652,0
1504332335.374,67.383,35.156,67.871,66.406,254.883,0
1504332335.378,50.781,-9.277,43.945,46.875,213.867,0
1504332335.382,62.988,19.531,40.527,50.293,177.734,0
1504332335.386,70.801,65.430,58.105,70.312,167.969,0
1504332335.390,49.805,53.711,52.734,51.270,191.406,0
1504332335.394,58.105,54.688,58.105,34.668,193.848,0
1504332335.398,87.402,71.777,62.988,57.129,157.227,0
1504332335.402,58.594,66.406,69.824,56.641,155.273,0
1504332335.406,32.715,36.621,60.547,48.340,156.250,0
1504332335.410,54.199,12.695,46.387,45.410,125.488,0
1504332335.413,64.453,32.715,44.434,49.805,94.727,0
1504332335.417,85.938,55.176,36.621,67.871,77.148,0
1504332335.421,86.914,46.875,18.066,71.777,105.957,0
1504332335.425,71.289,21.973,29.785,62.012,109.863,0
1504332335.429,77.637,22.949,75.195,56.152,36.621,0
1504332335.433,69.824,37.598,75.684,52.734,45.410,0
1504332335.437,59.570,45.410,58.105,53.711,78.125,0
1504332335.441,74.219,72.754,79.590,62.012,60.059,0
1504332335.445,84.961,73.242,68.359,60.547,20.020,0
1504332335.449,67.383,38.574,61.035,53.223,-61.523,0
1504332335.453,82.520,36.621,74.707,44.434,-35.645,0
1504332335.456,80.078,41.992,59.082,47.852,-1.953,0
1504332335.460,53.711,36.621,54.199,40.527,-67.383,0
1504332335.464,47.363,49.316,38.086,22.461,-92.773,0
1504332335.468,57.129,30.273,26.855,40.527,-67.383,0
1504332335.472,57.617,27.344,53.711,56.152,-53.711,0
1504332335.476,47.852,44.434,72.266,55.664,-80.078,0
1504332335.480,56.152,44.922,47.852,66.406,-126.953,0
1504332335.484,46.387,59.082,40.039,54.688,-121.582,0
1504332335.488,54.688,83.496,65.918,58.105,-86.426,0
1504332335.492,62.500,53.711,42.969,70.312,-117.188,0
1504332335.496,57.129,7.812,41.992,53.223,-165.039,0
1504332335.499,64.453,16.602,62.012,56.152,-136.719,0
1504332335.503,75.684,28.809,45.898,61.523,-98.633,0
1504332335.507,88.867,47.363,49.316,59.082,-113.770,0
1504332335.511,77.637,58.594,69.824,65.430,-124.512,0
1504332335.515,52.246,49.805,54.199,44.922,-84.473,0
1504332335.519,71.777,48.340,55.664,56.152,-76.660,0
1504332335.523,84.473,63.477,58.594,69.824,-119.141,0
1504332335.527,69.336,43.945,38.574,47.363,-143.066,0
1504332335.531,63.965,35.645,32.715,39.062,-129.395,0
1504332335.535,83.496,70.801,40.039,46.387,-125.488,0
1504332335.538,96.191,74.707,47.852,58.594,-110.352,0
1504332335.542,72.754,56.641,25.391,51.270,-78.613,0
1504332335.546,82.520,61.035,43.457,50.293,-80.078,0
1504332335.550,92.773,65.918,63.965,64.941,-94.238,0
1504332335.554,62.012,28.320,58.594,53.711,-81.543,0
1504332335.558,74.219,15.625,58.594,49.316,-70.312,0
1504332335.562,101.562,47.852,54.688,74.219,-74.707,0
1504332335.566,93.750,38.086,35.645,66.895,-61.523,0
1504332335.570,90.820,35.645,25.879,45.410,-52.734,0
1504332335.574,85.449,61.523,40.039,40.039,-55.176,0
1504332335.578,81.055,76.660,60.059,38.086,-83.496,0
1504332335.581,80.078,69.336,70.312,39.062,-128.906,0
1504332335.585,65.430,61.035,53.711,44.434,-109.863,0
1504332335.589,54.199,56.152,54.199,53.711,-58.594,0
1504332335.593,63.477,46.875,46.875,63.477,-63.965,0
1504332335.597,79.102,41.992,36.621,60.059,-79.590,0
1504332335.601,65.918,41.992,59.082,46.387,-53.711,0
1504332335.605,59.570,42.480,70.312,55.176,-8.789,0
1504332335.609,54.688,43.945,74.707,59.570,-28.809,0
1504332335.613,59.570,36.621,63.477,53.223,-59.570,0
1504332335.617,76.172,31.738,47.363,59.570,-46.875,0
1504332335.621,69.336,35.156,50.781,61.523,-47.363,0
1504332335.624,77.637,36.621,42.480,68.359,-42.480,0
1504332335.628,103.027,54.199,30.762,78.125,-41.992,0
1504332335.632,86.426,55.176,38.086,64.453,-31.250,0
1504332335.636,86.914,60.547,61.523,69.336,10.742,0
1504332335.640,85.449,61.523,61.523,63.477,20.996,0
1504332335.644,85.449,40.527,61.035,56.641,-0.977,0
1504332335.648,92.773,42.480,61.523,66.406,8.301,0
1504332335.652,83.984,35.645,26.367,59.570,37.598,0
1504332335.656,83.496,48.340,34.668,53.223,27.832,0
1504332335.660,94.727,67.871,80.078,73.242,23.926,0
1504332335.663,96.680,54.688,91.309,87.402,22.949,0
1504332335.667,85.938,50.293,69.824,90.332,47.852,0
1504332335.671,87.891,37.598,52.734,70.801,83.496,0
1504332335.675,101.074,25.879,52.734,69.824,90.332,0
1504332335.679,107.910,46.387,43.457,88.867,94.727,0
1504332335.683,114.258,57.617,51.270,88.379,137.695,0
1504332335.687,121.582,67.383,80.566,101.562,145.996,0
1504332335.691,93.262,58.594,70.312,92.773,132.812,0
1504332335.695,56.641,36.133,43.945,50.781,129.883,0
1504332335.699,72.754,49.316,36.133,54.688,107.422,0
1504332335.703,82.031,63.965,41.016,59.570,135.254,0
1504332335.706,63.477,46.387,23.438,41.016,135.742,0
1504332335.710,68.359,36.133,14.160,49.316,105.957,0
1504332335.714,74.219,40.527,75.684,74.219,77.148,0
1504332335.718,71.777,28.809,84.961,84.961,65.918,0
1504332335.722,65.918,20.020,56.152,71.777,84.961,0
1504332335.726,58.105,38.574,66.406,60.547,79.590,0
1504332335.730,69.824,53.711,62.500,63.965,37.598,0
1504332335.734,71.777,25.391,61.523,69.824,29.297,0
1504332335.738,53.711,4.883,48.340,55.176,65.918,0
1504332335.742,66.406,33.203,46.387,53.223,69.336,0
1504332335.746,74.707,47.852,57.617,63.965,11.719,0
1504332335.749,57.129,47.852,46.387,56.152,3.418,0
1504332335.753,55.176,71.289,57.617,55.176,61.523,0
1504332335.757,62.500,59.082,83.008,61.035,25.879,0
1504332335.761,67.871,32.715,53.223,73.242,-59.570,0
1504332335.765,79.102,23.926,34.668,85.938,-62.500,0
1504332335.769,82.520,34.668,77.148,82.031,-23.926,0
1504332335.773,79.102,41.504,70.312,75.684,-56.152,0
1504332335.777,63.477,32.715,56.152,56.152,-107.422,0
1504332335.781,66.406,30.762,66.406,47.363,-122.559,0
1504332335.785,79.102,32.227,62.988,55.664,-101.562,0
1504332335.788,67.383,62.988,58.105,50.293,-73.730,0
1504332335.792,50.293,55.176,45.410,32.715,-116.211,0
1504332335.796,61.035,41.992,41.992,64.941,-173.828,0
1504332335.800,83.496,58.105,59.082,86.426,-127.930,0
1504332335.804,74.707,52.246,61.035,69.336,-119.629,0
1504332335.808,68.359,61.523,56.641,77.637,-171.875,0
1504332335.812,69.824,63.965,47.852,75.684,-167.969,0
1504332335.816,79.590,54.199,50.293,58.105,-168.945,0
1504332335.820,81.055,30.762,58.594,61.523,-190.918,0
1504332335.824,62.500,24.414,49.316,57.129,-182.129,0
1504332335.828,76.660,54.688,52.246,66.406,-174.805,0
1504332335.831,83.984,48.828,61.035,74.219,-183.594,0
1504332335.835,60.547,11.230,67.383,51.758,-125.000,0
1504332335.839,66.895,26.367,60.059,49.316,-105.957,0
1504332335.843,89.844,48.828,53.223,62.500,-127.441,0
1504332335.847,96.680,51.758,61.523,75.195,-125.488,0
1504332335.851,83.008,46.387,32.715,57.617,-92.285,0
1504332335.855,81.055,54.688,19.043,47.852,-74.219,0
1504332335.859,78.613,62.012,55.664,56.152,-96.680,0
1504332335.863,61.523,51.758,60.059,56.152,-144.043,0
1504332335.867,59.570,43.945,54.199,53.223,-150.391,0
1504332335.871,63.477,40.039,45.410,34.180,-99.121,0
1504332335.874,71.289,40.527,39.062,31.250,-64.453,0
1504332335.878,94.238,46.387,28.320,57.129,-86.914,0
1504332335.882,97.168,50.781,37.598,68.848,-107.910,0
1504332335.886,77.637,41.504,66.895,51.270,-92.285,0
1504332335.890,69.824,28.809,69.336,36.621,-78.125,0
1504332335.894,70.801,36.621,60.547,47.852,-80.566,0
1504332335.898,70.801,22.949,65.918,62.500,-83.984,0
1504332335.902,71.777,18.555,59.570,62.988,-51.270,0
1504332335.906,81.543,47.363,40.527,73.242,-74.707,0
1504332335.910,85.449,58.105,53.223,80.078,-70.312,0
1504332335.913,77.148,63.965,56.641,67.383,-35.156,0
1504332335.917,52.246,60.059,38.086,47.363,-37.109,0
1504332335.921,64.941,62.500,56.152,48.340,-21.973,0
1504332335.925,83.496,72.754,75.195,61.523,28.320,0
1504332335.929,67.383,48.828,54.199,46.875,41.504,0
1504332335.933,73.242,24.414,42.480,50.781,49.805,0
1504332335.937,80.566,36.621,54.199,65.430,69.824,0
1504332335.941,72.266,55.176,55.664,62.988,73.242,0
1504332335.945,67.871,22.461,51.270,52.246,89.844,0
1504332335.949,72.754,2.441,49.805,58.594,90.332,0
1504332335.953,67.383,27.344,38.574,61.523,108.398,0
1504332335.956,68.359,33.691,38.574,66.895,75.195,0
1504332335.960,87.891,33.203,52.246,76.660,41.016,0
1504332335.964,84.961,45.898,64.941,71.777,100.586,0
1504332335.968,62.988,59.082,61.035,70.312,119.629,0
1504332335.972,47.363,56.641,51.270,55.176,110.352,0
1504332335.976,41.016,27.832,63.965,50.781,116.211,0
1504332335.980,48.340,23.438,68.848,64.453,104.004,0
1504332335.984,54.199,27.832,63.477,60.059,117.188,0
1504332335.988,77.148,18.555,70.312,67.383,133.301,0
1504332335.992,75.684,26.855,63.477,70.801,124.023,0
1504332335.996,39.551,19.531,36.133,43.945,69.336,0
1504332335.999,46.875,51.270,51.758,38.574,71.777,0
1504332336.003,53.711,75.195,61.035,43.457,72.266,0
1504332336.007,36.621,56.641,12.207,28.809,87.891,0
1504332336.011,50.293,37.598,3.906,34.180,137.207,0
1504332336.015,64.453,22.461,71.777,55.176,136.719,0
1504332336.019,53.223,38.574,78.125,55.176,138.672,0
1504332336.023,51.270,51.758,56.641,40.527,138.672,0
1504332336.027,46.875,24.902,52.734,31.250,90.332,0
1504332336.031,50.781,20.996,41.504,48.340,61.523,0
1504332336.035,58.594,59.082,64.453,65.430,75.684,0
1504332336.038,61.035,83.496,88.867,81.055,102.051,0
1504332336.042,78.125,75.195,82.031,87.891,83.496,0
1504332336.046,91.797,63.477,102.051,100.098,83.496,0
1504332336.050,82.520,48.340,104.980,107.910,94.238,0
1504332336.054,83.008,55.176,81.543,82.520,120.605,0
1504332336.058,103.516,78.613,87.402,89.355,124.023,0
1504332336.062,79.102,83.008,76.172,94.727,103.516,0
1504332336.066,65.918,86.914,83.496,95.215,137.695,0
1504332336.070,89.355,89.844,114.258,98.633,160.645,0
1504332336.074,82.031,83.008,103.516,95.215,125.977,0
1504332336.078,97.168,80.566,89.844,105.957,101.562,0
1504332336.081,122.559,78.613,94.238,99.121,101.074,0
1504332336.085,103.516,75.684,77.637,98.145,109.863,0
1504332336.089,104.492,102.051,94.727,114.258,112.793,0
1504332336.093,102.539,91.797,100.586,102.539,56.152,0
1504332336.097,88.867,66.406,85.938,92.285,72.266,0
1504332336.101,87.891,76.172,95.215,87.402,109.863,0
1504332336.105,84.473,75.195,83.496,71.289,115.234,0
1504332336.109,91.309,82.520,70.801,83.008,103.027,0
1504332336.113,93.262,96.680,63.477,95.703,74.707,0
1504332336.117,86.914,95.703,68.359,84.473,85.938,0
1504332336.121,86.914,71.777,71.777,77.148,103.027,0
1504332336.124,96.191,64.453,73.730,80.078,95.703,0
1504332336.128,92.285,71.289,77.148,78.613,67.871,0
1504332336.132,101.074,84.961,75.684,103.516,57.617,0
1504332336.136,93.262,81.055,56.641,100.586,86.914,0
1504332336.140,78.613,43.945,55.664,65.918,90.332,0
1504332336.144,97.168,65.430,91.309,77.148,122.559,0
1504332336.148,90.332,88.867,91.309,80.078,122.070,0
1504332336.152,79.590,77.148,75.684,65.430,90.820,0
1504332336.156,91.309,89.844,79.590,77.637,110.352,0
1504332336.160,89.844,98.145,85.938,78.125,111.328,0
1504332336.163,76.172,69.336,66.406,65.430,85.938,0
1504332336.167,82.520,54.688,70.312,62.500,112.305,0
1504332336.171,102.539,70.801,78.125,69.336,130.859,0
1504332336.175,106.934,69.824,81.055,84.961,73.730,0
1504332336.179,104.004,77.637,74.219,84.961,60.059,0
1504332336.183,87.402,81.543,40.527,66.895,90.820,0
1504332336.187,92.285,72.754,53.711,73.730,107.422,0
1504332336.191,109.375,75.195,96.680,86.914,112.305,0
1504332336.195,103.027,60.547,91.797,93.262,76.660,0
1504332336.199,97.656,42.969,63.477,84.961,54.688,0
1504332336.203,101.562,55.664,75.684,79.102,108.398,0
1504332336.206,97.168,60.547,74.219,78.125,135.742,0
1504332336.210,93.750,43.945,45.898,68.359,74.219,0
1504332336.214,113.770,78.613,73.730,92.773,76.172,0
1504332336.218,104.004,91.797,86.914,91.309,128.906,0
1504332336.222,98.145,72.754,84.473,81.055,124.023,0
1504332336.226,97.656,85.938,74.707,85.449,96.680,0
1504332336.230,70.312,82.520,50.293,67.871,93.750,0
1504332336.234,59.082,68.848,61.523,64.453,121.582,0
1504332336.238,68.848,78.125,77.148,73.242,136.719,0
1504332336.242,75.684,79.590,78.613,70.312,89.355,0
1504332336.246,69.824,59.082,60.547,58.105,61.035,0
1504332336.249,64.453,46.875,38.574,62.012,75.684,0
1504332336.253,87.402,53.711,63.477,96.680,78.125,0
1504332336.257,95.703,54.688,82.031,103.516,60.059,0
1504332336.261,69.824,38.086,63.477,59.570,63.965,0
1504332336.265,45.410,36.621,59.570,32.715,77.637,0
1504332336.269,41.992,47.852,65.430,33.203,68.359,0
1504332336.273,53.711,48.828,67.383,48.828,72.266,0
1504332336.277,58.105,53.711,64.941,54.688,54.688,0
1504332336.281,61.523,56.641,67.383,58.105,40.039,0
1504332336.285,68.359,56.152,54.199,70.312,68.848,0
1504332336.288,57.129,52.734,53.223,56.641,58.594,0
1504332336.292,51.758,50.293,68.848,64.941,59.570,0
1504332336.296,70.312,56.641,58.105,88.867,58.105,0
1504332336.300,68.359,45.410,65.918,76.660,76.172,0
1504332336.304,63.965,39.062,78.125,74.219,100.586,0
1504332336.308,73.242,36.621,75.195,94.238,71.289,0
1504332336.312,64.453,46.875,84.473,89.355,56.641,0
1504332336.316,54.688,65.918,78.613,62.988,38.574,0
1504332336.320,52.246,55.664,60.547,46.875,59.082,0
1504332336.324,38.574,43.457,53.711,54.199,97.656,0
1504332336.328,41.504,39.551,48.340,64.941,49.316,0
1504332336.331,55.176,44.922,52.246,65.430,4.395,0
1504332336.335,56.152,56.152,74.219,74.707,46.875,0
1504332336.339,72.266,65.430,60.547,94.238,67.871,0
1504332336.343,60.547,71.777,41.992,73.730,52.734,0
1504332336.347,43.945,67.383,53.223,55.176,18.066,0
1504332336.351,50.293,56.641,69.336,69.824,27.344,0
1504332336.355,63.477,58.594,54.688,80.078,58.594,0
1504332336.359,65.918,56.152,41.016,87.402,45.898,0
1504332336.363,56.152,42.480,58.105,80.078,20.508,0
1504332336.367,83.496,69.824,54.688,94.727,16.113,0
1504332336.371,83.008,80.566,33.691,77.637,37.109,0
1504332336.374,53.711,56.152,36.133,54.199,6.836,0
1504332336.378,59.082,57.617,62.988,65.918,-29.297,0
1504332336.382,77.637,50.781,61.035,56.152,16.113,0
1504332336.386,76.172,55.664,63.477,51.270,49.805,0
1504332336.390,44.434,49.316,45.898,42.480,40.039,0
1504332336.394,66.406,55.664,49.316,55.176,18.555,0
1504332336.398,86.914,64.941,66.895,67.871,34.668,0
1504332336.402,72.754,59.570,46.387,57.617,59.570,0
1504332336.406,89.355,63.477,62.988,73.242,41.992,0
1504332336.410,79.102,49.316,55.664,60.547,-12.207,0
1504332336.413,62.012,54.199,51.270,42.969,-37.598,0
1504332336.417,65.430,74.219,73.730,50.293,-7.812,0
1504332336.421,60.547,79.102,67.383,54.199,-2.441,0
1504332336.425,46.387,64.453,44.922,44.434,-40.527,0
1504332336.429,38.574,34.180,31.738,30.762,-30.762,0
1504332336.433,54.199,25.391,29.297,56.641,-10.742,0
1504332336.437,62.988,25.391,45.898,67.871,-2.930,0
1504332336.441,58.594,30.273,70.801,42.969,-3.418,0
1504332336.445,60.059,57.617,77.637,46.875,-22.949,0
1504332336.449,65.918,59.082,77.148,52.246,-45.898,0
1504332336.453,75.195,46.387,81.055,54.199,-26.855,0
1504332336.456,71.289,51.758,72.266,51.758,-4.883,0
1504332336.460,70.801,57.617,54.199,59.082,-5.859,0
1504332336.464,64.941,59.082,46.387,77.148,-29.297,0
1504332336.468,56.152,46.387,18.066,54.199,-51.758,0
1504332336.472,54.688,51.758,26.855,38.574,-6.836,0
1504332336.476,52.734,55.664,62.988,52.734,15.137,0
1504332336.480,49.805,54.199,62.988,49.316,-10.254,0
1504332336.484,59.570,69.824,64.941,56.152,-26.855,0
1504332336.488,78.125,67.383,70.801,63.965,7.812,0
1504332336.492,82.031,65.430,56.152,57.617,10.254,0
1504332336.496,66.406,54.688,47.363,45.410,-59.570,0
1504332336.499,65.430,52.734,59.082,47.363,-55.176,0
1504332336.503,80.078,58.594,49.316,57.129,-21.484,0
1504332336.507,71.777,56.152,44.434,59.570,-45.410,0
1504332336.511,74.707,52.246,53.223,50.781,-83.008,0
1504332336.515,80.078,30.273,25.391,57.617,-60.059,0
1504332336.519,67.871,44.922,18.555,67.871,-12.695,0
1504332336.523,59.570,59.570,46.875,50.781,-28.809,0
1504332336.527,53.711,34.668,59.570,53.223,-56.152,0
1504332336.531,59.570,31.250,68.848,78.125,-56.641,0
1504332336.535,71.289,58.105,62.500,86.914,-33.691,0
1504332336.538,68.359,45.410,66.895,64.941,-29.785,0
1504332336.542,69.824,13.184,77.637,55.664,-28.320,0
1504332336.546,61.523,41.504,63.965,61.035,-54.688,0
1504332336.550,46.387,78.125,65.430,63.965,-36.621,0
1504332336.554,51.270,59.570,49.805,56.152,-49.316,0
1504332336.558,56.152,45.898,38.086,55.176,-73.730,0
1504332336.562,61.523,61.035,63.965,72.266,-64.941,0
1504332336.566,66.406,53.711,68.359,72.754,-57.129,0
1504332336.570,62.012,38.574,62.500,70.312,-42.969,0
1504332336.574,46.875,44.922,62.988,51.270,-53.711,0
1504332336.578,34.668,67.871,58.105,34.668,-65.918,0
1504332336.581,51.270,50.781,55.664,37.109,-62.500,0
1504332336.585,58.105,21.973,50.781,51.270,-44.434,0
1504332336.589,62.012,65.918,62.988,68.848,-47.852,0
1504332336.593,58.594,69.336,50.293,38.574,-43.457,0
1504332336.597,53.711,31.738,13.184,33.203,-64.453,0
1504332336.601,61.523,36.133,31.738,53.711,-68.848,0
1504332336.605,53.711,30.762,57.617,33.691,-24.902,0
1504332336.609,48.340,34.180,50.293,27.832,-34.180,0
1504332336.613,56.641,59.082,55.176,42.969,-37.598,0
1504332336.617,68.359,78.613,68.359,48.340,-69.336,0
1504332336.621,70.801,67.383,72.754,54.688,-49.316,0
1504332336.624,65.430,52.734,58.105,71.289,-40.527,0
1504332336.628,62.988,69.824,53.223,67.871,-104.004,0
1504332336.632,65.430,51.270,51.270,61.035,-72.754,0
1504332336.636,60.547,43.457,46.387,60.547,-26.367,0
1504332336.640,46.875,58.594,51.758,43.457,-9.277,0
1504332336.644,68.359,57.129,52.734,52.734,-22.461,0
1504332336.648,78.125,40.527,66.895,59.570,-67.871,0
1504332336.652,64.453,47.363,62.012,56.152,-74.707,0
1504332336.656,83.008,46.387,30.762,70.801,-34.180,0
1504332336.660,87.402,32.227,32.715,63.477,-26.855,0
1504332336.663,49.316,40.527,51.758,51.270,-64.941,0
1504332336.667,41.992,61.035,67.383,56.152,-29.785,0
1504332336.671,54.199,72.754,67.383,56.641,-11.230,0
1504332336.675,53.711,65.918,63.477,50.781,-5.371,0
1504332336.679,46.875,41.016,52.246,33.203,-24.902,0
1504332336.683,51.758,31.250,39.062,37.109,-47.363,0
1504332336.687,72.754,54.199,35.156,54.688,-28.809,0
1504332336.691,65.430,57.129,29.785,45.410,-51.758,0
1504332336.695,41.504,57.129,58.105,43.945,-64.941,0
1504332336.699,43.945,57.129,71.289,57.129,-56.641,0
1504332336.703,47.852,60.059,60.059,48.828,-12.207,0
1504332336.706,56.641,58.105,55.664,47.852,-20.508,0
1504332336.710,63.477,58.594,61.035,45.898,-58.105,0
1504332336.714,51.758,65.430,64.941,27.832,-62.500,0
1504332336.718,61.035,62.500,65.430,40.527,-5.371,0
1504332336.722,73.730,63.477,60.547,52.734,5.859,0
1504332336.726,66.406,57.129,65.430,43.945,-39.551,0
1504332336.730,38.086,34.180,58.594,20.996,-62.012,0
1504332336.734,23.926,17.578,27.832,15.625,-93.262,0
1504332336.738,25.879,34.668,29.785,26.855,-84.961,0
1504332336.742,21.484,36.133,33.203,32.227,-53.711,0
1504332336.746,33.691,10.254,19.043,34.180,-102.051,0
1504332336.749,52.246,33.691,50.781,52.734,-121.094,0
1504332336.753,48.828,50.293,79.102,48.340,-73.730,0
1504332336.757,35.645,33.691,61.523,19.531,-103.516,0
1504332336.761,14.160,42.969,46.387,6.836,-101.562,0
1504332336.765,24.902,53.223,50.293,16.602,-90.332,0
1504332336.769,49.316,52.246,47.852,37.109,-80.078,0
1504332336.773,33.203,52.246,41.016,28.320,-53.223,0
1504332336.777,28.809,35.645,57.129,27.832,-39.062,0
1504332336.781,23.438,7.812,39.551,21.484,-8.301,0
1504332336.785,33.691,32.227,51.270,32.227,-11.719,0
1504332336.788,36.133,52.734,77.637,38.086,-91.797,0
1504332336.792,33.691,44.434,50.781,22.949,-85.449,0
1504332336.796,45.898,66.406,63.477,41.016,-20.996,0
1504332336.800,44.922,57.617,69.336,46.387,17.578,0
1504332336.804,27.832,12.207,42.969,28.320,-20.020,0
1504332336.808,33.691,-3.418,44.922,25.391,-50.781,0
1504332336.812,66.895,44.922,77.148,56.641,-47.852,0
1504332336.816,59.082,67.871,68.848,65.430,-48.340,0
1504332336.820,15.625,51.758,27.832,20.996,-30.762,0
1504332336.824,32.227,46.875,32.715,22.949,-16.113,0
1504332336.828,48.828,35.156,48.828,39.551,-17.090,0
1504332336.831,32.715,48.828,54.688,27.344,-31.738,0
1504332336.835,35.156,36.133,49.805,35.156,-18.066,0
1504332336.839,32.715,39.551,45.410,42.969,13.184,0
1504332336.843,32.227,52.734,49.316,37.598,12.207,0
1504332336.847,49.805,51.270,62.500,43.457,-13.672,0
1504332336.851,57.129,61.035,72.754,53.223,32.715,0
1504332336.855,23.438,27.344,34.180,36.621,24.414,0
1504332336.859,29.297,-16.602,21.484,40.527,-1.465,0
1504332336.863,84.473,29.785,85.938,90.332,35.156,0
1504332336.867,74.707,92.285,92.773,64.453,41.992,0
1504332336.871,38.574,70.312,23.438,8.301,34.180,0
1504332336.874,24.414,38.086,-4.883,2.930,29.785,0
1504332336.878,26.855,40.527,35.645,9.766,-5.859,0
1504332336.882,27.832,57.129,43.945,24.902,16.113,0
1504332336.886,18.555,53.223,44.922,42.969,59.570,0
1504332336.890,40.039,24.902,65.918,47.852,19.043,0
1504332336.894,62.988,31.250,66.406,51.270,-20.996,0
1504332336.898,32.227,41.504,59.082,43.457,-38.574,0
1504332336.902,23.926,46.875,63.965,45.410,-47.852,0
1504332336.906,42.969,65.918,62.988,50.293,-3.906,0
1504332336.910,42.969,45.898,45.898,48.828,35.156,0
1504332336.913,39.551,29.785,52.734,65.430,28.809,0
1504332336.917,41.504,50.293,65.430,68.848,9.766,0
1504332336.921,61.523,45.898,43.457,63.477,-11.719,0
1504332336.925,77.637,39.551,22.949,62.500,45.410,0
1504332336.929,82.031,36.133,36.133,69.336,62.988,0
1504332336.933,77.148,32.227,48.340,71.777,-5.371,0
1504332336.937,71.289,40.527,56.641,58.594,-31.738,0
1504332336.941,68.359,44.434,46.875,46.387,21.484,0
1504332336.945,68.359,48.828,51.758,59.570,55.176,0
1504332336.949,82.031,55.176,40.527,64.453,-23.926,0
1504332336.953,83.496,44.922,28.809,67.871,29.785,0
1504332336.956,65.430,44.922,49.805,69.336,70.801,0
1504332336.960,62.988,58.594,51.270,64.453,-6.348,0
1504332336.964,62.988,40.039,51.758,53.223,8.301,0
1504332336.968,50.781,26.367,30.273,49.316,34.180,0
1504332336.972,50.293,24.414,29.785,51.758,17.090,0
1504332336.976,39.551,25.879,46.875,46.875,41.504,0
1504332336.980,35.156,37.598,45.898,46.387,85.449,0
1504332336.984,43.457,41.992,42.969,48.828,91.797,0
1504332336.988,49.805,51.270,35.645,43.945,67.383,0
1504332336.992,46.387,41.504,35.645,38.086,16.602,0
1504332336.996,38.086,25.879,34.668,27.344,36.133,0
1504332336.999,55.664,62.012,51.270,36.133,55.664,0
1504332337.003,71.777,52.246,46.387,53.711,34.668,0
1504332337.007,73.242,26.367,28.809,55.176,37.109,0
1504332337.011,67.383,41.992,48.340,51.758,10.742,0
1504332337.015,41.504,54.688,21.484,29.785,-16.602,0
1504332337.019,51.270,69.336,30.762,39.062,5.859,0
1504332337.023,66.895,68.848,68.359,64.941,93.750,0
1504332337.027,57.129,52.246,41.992,54.688,84.961,0
1504332337.031,51.758,41.992,42.969,42.480,10.254,0
1504332337.035,56.641,34.668,77.148,53.223,5.371,0
1504332337.038,56.152,42.969,68.359,42.969,18.555,0
1504332337.042,30.273,39.551,25.879,29.297,36.133,0
1504332337.046,21.484,36.133,15.137,27.344,64.453,0
1504332337.050,13.184,54.199,47.852,29.785,19.531,0
1504332337.054,18.555,58.105,62.500,46.387,-12.207,0
1504332337.058,31.738,20.996,42.480,47.852,38.574,0
1504332337.062,40.527,15.625,41.016,46.875,70.312,0
1504332337.066,43.945,24.902,40.039,47.363,75.195,0
1504332337.070,62.988,10.742,31.738,54.199,19.043,0
1504332337.074,58.105,21.973,38.086,50.781,-10.742,0
1504332337.078,40.527,37.109,51.758,39.551,10.742,0
1504332337.081,40.039,34.668,74.219,39.062,9.277,0
1504332337.085,50.781,41.016,65.918,51.758,16.602,0
1504332337.089,51.270,33.203,17.090,55.176,9.766,0
1504332337.093,26.855,41.016,38.574,43.457,33.691,0
1504332337.097,41.504,66.895,69.336,61.035,47.852,0
1504332337.101,62.012,68.359,43.945,70.312,38.574,0
1504332337.105,60.059,52.246,44.434,59.570,57.129,0
1504332337.109,53.223,45.410,62.988,76.172,23.926,0
1504332337.113,39.551,53.223,44.922,62.988,31.738,0
1504332337.117,23.438,36.621,35.645,32.715,33.691,0
1504332337.121,42.480,19.043,49.805,50.293,-20.508,0
1504332337.124,62.500,11.719,46.387,58.105,17.578,0
1504332337.128,54.688,29.297,38.086,52.734,78.125,0
1504332337.132,25.391,56.152,39.062,33.203,79.102,0
1504332337.136,22.949,68.359,55.176,15.137,41.992,0
1504332337.140,28.320,67.383,52.246,24.414,41.992,0
1504332337.144,36.133,63.965,44.922,48.828,31.738,0
1504332337.148,36.621,41.992,29.297,45.898,23.926,0
1504332337.152,34.180,39.551,18.555,38.086,61.035,0
1504332337.156,53.223,36.133,41.992,31.250,28.320,0
1504332337.160,45.898,32.227,46.387,36.133,-6.836,0
1504332337.163,38.574,65.430,47.852,47.363,44.434,0
1504332337.167,45.898,49.316,57.129,52.246,64.941,0
1504332337.171,35.645,39.062,62.500,46.875,58.594,0
1504332337.175,29.297,47.852,62.500,20.508,29.297,0
1504332337.179,46.387,47.363,47.852,31.738,13.672,0
1504332337.183,49.316,57.617,28.809,46.875,40.527,0
1504332337.187,36.133,38.086,40.527,47.363,40.527,0
1504332337.191,51.270,3.906,44.434,48.828,69.824,0
1504332337.195,71.777,6.836,52.246,44.434,43.457,0
1504332337.199,76.660,49.316,61.035,62.012,1.953,0
1504332337.203,64.453,77.637,51.270,62.012,8.789,0
1504332337.206,43.457,65.430,19.043,53.223,22.461,0
1504332337.210,64.453,52.734,22.949,62.500,14.648,0
1504332337.214,68.359,64.941,59.082,57.617,10.742,0
1504332337.218,38.574,70.801,50.781,54.199,-2.930,0
1504332337.222,43.457,51.758,14.160,55.664,-8.789,0
1504332337.226,55.176,41.992,27.344,65.918,29.297,0
1504332337.230,45.898,53.223,69.824,49.805,45.898,0
1504332337.234,58.105,51.270,41.504,41.992,72.754,0
1504332337.238,80.078,56.641,32.227,56.641,47.852,0
1504332337.242,68.848,57.617,83.496,73.730,10.254,0
1504332337.246,55.664,34.180,95.703,64.453,19.531,0
1504332337.249,65.430,25.391,61.035,49.805,20.508,0
1504332337.253,72.266,21.973,37.598,50.293,44.922,0
1504332337.257,45.898,43.945,44.922,50.293,27.344,0
1504332337.261,34.668,47.852,49.805,62.012,24.414,0
1504332337.265,31.250,45.410,37.598,60.059,1.465,0
1504332337.269,24.902,47.363,55.664,39.062,-34.180,0
1504332337.273,27.344,14.160,47.852,24.902,14.160,0
1504332337.277,25.879,20.020,20.508,40.527,8.789,0
1504332337.281,36.621,49.316,41.016,49.316,12.695,0
1504332337.285,48.828,53.711,34.668,54.199,4.883,0
1504332337.288,62.012,65.430,37.598,55.664,-33.203,0
1504332337.292,46.387,64.453,59.570,31.250,21.484,0
1504332337.296,21.973,32.227,48.828,26.855,9.277,0
1504332337.300,24.902,42.969,43.457,22.461,-10.742,0
1504332337.304,38.086,52.734,57.617,33.691,-1.953,0
1504332337.308,53.711,27.832,58.105,53.711,13.672,0
1504332337.312,54.688,38.574,29.297,52.246,42.969,0
1504332337.316,37.598,56.641,33.203,47.852,17.578,0
1504332337.320,37.109,28.320,54.199,57.617,4.395,0
1504332337.324,50.781,37.598,56.641,67.383,-23.438,0
1504332337.328,53.711,56.152,62.012,59.570,-13.184,0
1504332337.331,54.199,41.992,43.457,46.387,-23.926,0
1504332337.335,65.918,55.664,48.340,60.547,-39.551,0
1504332337.339,57.129,45.898,46.875,54.199,1.465,0
1504332337.343,48.340,44.434,28.320,32.227,-30.273,0
1504332337.347,63.965,72.266,58.105,62.988,7.324,0
1504332337.351,63.965,64.941,53.711,61.035,62.988,0
1504332337.355,35.645,15.625,26.855,23.438,64.453,0
1504332337.359,34.180,4.883,38.574,18.555,-9.277,0
1504332337.363,64.941,49.316,46.875,63.477,-1.465,0
1504332337.367,56.641,64.453,53.223,72.754,67.383,0
1504332337.371,36.133,19.043,53.223,54.199,32.227,0
1504332337.374,40.039,7.324,37.109,49.805,-17.578,0
1504332337.378,55.176,22.461,41.504,61.523,12.695,0
1504332337.382,44.922,37.598,52.246,76.172,26.855,0
1504332337.386,22.949,53.711,67.871,64.941,48.340,0
1504332337.390,28.320,62.500,62.500,53.223,41.016,0
1504332337.394,21.973,41.504,48.828,43.945,1.465,0
1504332337.398,27.344,23.926,55.664,50.781,34.668,0
1504332337.402,30.273,43.945,43.945,50.781,33.203,0
1504332337.406,32.227,50.293,37.109,52.734,60.059,0
1504332337.410,28.809,47.852,45.898,53.711,82.520,0
1504332337.413,39.551,30.762,44.434,57.617,57.129,0
1504332337.417,50.781,26.367,49.805,51.758,53.223,0
1504332337.421,38.574,30.762,49.805,38.574,41.016,0
1504332337.425,33.203,23.438,45.898,46.387,-6.348,0
1504332337.429,36.621,27.832,46.387,29.785,-2.930,0
1504332337.433,45.410,41.504,50.781,31.738,-11.230,0
1504332337.437,72.754,61.523,76.172,74.707,-10.254,0
1504332337.441,61.035,35.156,49.805,68.359,-17.578,0
1504332337.445,25.879,33.691,1.953,29.297,-11.230,0
1504332337.449,47.363,71.289,19.043,33.203,-2.441,0
1504332337.453,57.129,54.688,46.875,42.480,18.066,0
1504332337.456,57.129,41.504,66.895,52.246,23.926,0
1504332337.460,59.570,52.246,78.125,53.711,-23.438,0
1504332337.464,46.387,44.922,56.152,40.039,22.949,0
1504332337.468,35.645,32.715,45.410,46.875,53.223,0
1504332337.472,38.086,47.852,51.758,48.340,35.156,0
1504332337.476,43.945,53.711,35.156,45.898,55.664,0
1504332337.480,50.781,54.199,36.621,68.848,15.137,0
1504332337.484,62.988,62.988,45.410,66.895,-21.973,0
1504332337.488,49.316,60.059,50.781,50.781,33.691,0
1504332337.492,31.250,46.875,50.781,41.016,93.262,0
1504332337.496,34.180,56.152,45.898,34.668,76.660,0
1504332337.499,30.762,61.523,54.688,41.992,56.641,0
1504332337.503,25.391,12.207,56.641,56.152,60.547,0
1504332337.507,31.250,-11.230,43.457,54.688,52.246,0
1504332337.511,61.035,39.062,51.270,56.152,38.086,0
1504332337.515,40.527,73.730,20.020,41.016,19.043,0
1504332337.519,19.531,70.312,16.113,26.855,29.785,0
1504332337.523,43.457,52.246,39.551,48.340,35.645,0
1504332337.527,22.949,-4.395,26.367,46.875,42.969,0
1504332337.531,8.301,2.930,64.941,31.250,47.363,0
1504332337.535,26.855,50.293,80.566,36.621,10.254,0
1504332337.538,31.250,48.340,73.242,35.645,6.348,0
1504332337.542,28.809,53.223,69.336,34.180,-1.953,0
1504332337.546,40.039,62.012,46.875,38.574,12.695,0
1504332337.550,41.016,59.570,47.363,49.316,49.805,0
1504332337.554,45.898,43.457,69.824,58.594,52.734,0
1504332337.558,65.918,47.852,78.613,77.637,33.691,0
1504332337.562,95.215,71.289,80.566,96.680,33.691,0
1504332337.566,79.590,55.664,59.082,75.684,26.367,0
1504332337.570,14.160,16.602,20.996,38.574,-13.672,0
1504332337.574,16.602,13.672,40.039,48.340,10.742,0
1504332337.578,35.645,14.160,66.406,55.176,27.832,0
1504332337.581,23.438,24.902,48.828,45.410,58.105,0
1504332337.585,41.992,47.363,37.598,62.988,26.367,0
1504332337.589,54.688,49.316,55.664,77.148,1.953,0
1504332337.593,52.734,55.176,50.781,69.336,64.941,0
1504332337.597,55.664,57.129,47.852,67.383,49.805,0
1504332337.601,59.570,54.199,58.105,70.312,15.625,0
1504332337.605,45.898,40.527,41.504,50.781,11.230,0
1504332337.609,40.527,25.391,46.875,37.109,43.457,0
1504332337.613,48.828,24.414,54.199,52.246,69.824,0
1504332337.617,52.246,17.090,41.016,52.246,54.199,0
1504332337.621,39.062,35.645,55.176,46.875,9.277,0
1504332337.624,36.133,52.246,48.828,57.617,43.457,0
1504332337.628,48.828,36.621,40.039,59.082,79.102,0
1504332337.632,58.105,43.945,59.570,51.270,50.781,0
1504332337.636,51.270,44.922,43.945,34.668,32.227,0
1504332337.640,29.297,44.922,44.922,39.551,23.438,0
1504332337.644,5.371,49.805,43.945,27.832,48.340,0
1504332337.648,23.926,52.246,54.688,30.273,34.668,0
1504332337.652,40.039,34.668,57.617,27.344,15.137,0
1504332337.656,21.973,21.484,40.039,16.113,50.293,0
1504332337.660,24.902,27.344,30.273,28.320,15.625,0
1504332337.663,40.527,35.645,34.180,20.020,-9.766,0
1504332337.667,40.527,56.641,58.105,37.598,27.832,0
1504332337.671,31.738,62.988,55.664,35.645,26.855,0
1504332337.675,20.020,42.480,42.969,11.719,-49.316,0
1504332337.679,21.973,17.578,55.664,20.508,-46.875,0
1504332337.683,20.508,34.668,47.852,28.809,63.477,0
1504332337.687,31.250,50.781,62.988,43.457,52.734,0
1504332337.691,43.945,48.828,81.543,43.457,48.340,0
1504332337.695,30.273,34.668,62.500,23.926,62.012,0
1504332337.699,4.395,-2.930,47.852,13.184,20.508,0
1504332337.703,11.230,8.789,54.199,17.578,14.648,0
1504332337.706,51.270,54.199,74.219,39.551,33.691,0
1504332337.710,55.176,72.266,71.777,53.711,61.523,0
1504332337.714,59.082,86.914,60.547,50.781,42.480,0
1504332337.718,48.340,47.852,35.156,32.227,-27.344,0
1504332337.722,43.945,15.625,26.855,37.109,-1.953,0
1504332337.726,39.551,28.320,6.836,49.316,55.176,0
1504332337.730,20.508,37.598,10.742,52.734,38.086,0
1504332337.734,28.320,51.758,54.688,60.547,16.113,0
1504332337.738,45.898,65.430,65.430,59.570,56.641,0
1504332337.742,36.621,47.852,77.637,52.734,76.172,0
1504332337.746,16.113,16.602,71.777,49.316,58.105,0
1504332337.749,22.461,22.461,55.176,36.133,84.473,0
1504332337.753,42.480,31.738,56.152,30.762,127.441,0
1504332337.757,31.738,47.363,44.922,36.621,104.004,0
1504332337.761,23.438,61.523,49.805,25.391,59.082,0
1504332337.765,48.340,46.387,62.012,45.898,109.863,0
1504332337.769,58.105,36.621,21.484,56.152,135.254,0
1504332337.773,42.480,60.547,15.137,26.855,110.352,0
1504332337.777,58.594,91.797,67.383,48.828,81.055,0
1504332337.781,67.383,55.176,59.082,53.711,88.379,0
1504332337.785,58.105,29.785,37.109,21.973,129.395,0
1504332337.788,58.105,54.688,47.852,20.508,127.441,0
1504332337.792,38.086,50.293,41.992,19.531,112.793,0
1504332337.796,34.668,47.363,34.668,32.227,114.746,0
1504332337.800,65.918,77.148,53.711,46.875,96.191,0
1504332337.804,67.871,67.383,61.523,39.551,124.023,0
1504332337.808,46.387,27.344,60.547,30.273,141.602,0
1504332337.812,34.668,22.461,51.270,24.902,103.516,0
1504332337.816,45.898,20.996,33.691,34.180,105.469,0
1504332337.820,48.828,8.789,27.832,40.527,128.906,0
1504332337.824,54.199,48.340,55.176,41.504,127.930,0
1504332337.828,76.172,80.566,72.754,50.293,73.242,0
1504332337.831,82.031,72.266,69.336,60.059,49.316,0
1504332337.835,71.289,67.383,64.941,61.523,87.891,0
1504332337.839,65.918,51.270,55.176,75.684,107.422,0
1504332337.843,80.566,53.711,39.551,80.078,79.590,0
1504332337.847,72.754,49.316,20.996,70.801,58.594,0
1504332337.851,61.035,31.250,57.129,45.898,89.355,0
1504332337.855,75.195,37.109,80.078,55.176,112.305,0
1504332337.859,79.102,36.621,57.617,74.707,67.871,0
1504332337.863,53.223,34.668,51.270,50.781,30.273,0
1504332337.867,41.504,34.180,48.828,47.363,49.805,0
1504332337.871,38.574,34.180,39.551,50.781,69.824,0
1504332337.874,40.039,49.316,53.711,64.453,42.480,0
1504332337.878,39.551,61.523,62.988,68.848,4.395,0
1504332337.882,41.504,61.035,27.832,62.012,43.945,0
1504332337.886,49.805,20.996,36.133,35.156,58.105,0
1504332337.890,53.711,23.926,62.500,14.648,36.133,0
1504332337.894,47.852,51.270,63.477,27.344,7.812,0
1504332337.898,30.273,33.203,53.223,21.484,41.016,0
1504332337.902,31.250,27.832,47.852,13.672,49.805,0
1504332337.906,29.297,27.832,36.621,37.109,16.602,0
1504332337.910,9.277,36.621,41.504,43.945,-4.395,0
1504332337.913,7.324,42.480,64.941,30.762,-21.973,0
1504332337.917,17.090,48.828,74.219,28.320,7.324,0
1504332337.921,18.555,57.617,66.895,39.062,-1.465,0
1504332337.925,40.039,53.223,56.641,54.199,-20.996,0
1504332337.929,41.992,41.016,52.246,59.570,-34.668,0
1504332337.933,31.738,48.828,40.527,43.945,-69.824,0
1504332337.937,27.832,50.781,43.945,35.156,-63.965,0
1504332337.941,39.062,40.039,61.523,45.898,-3.906,0
1504332337.945,31.250,2.441,55.176,40.039,20.508,0
1504332337.949,30.273,3.418,50.293,50.293,16.113,0
1504332337.953,49.316,30.273,50.781,49.316,3.906,0
1504332337.956,45.898,49.805,61.035,38.086,20.996,0
1504332337.960,46.875,66.895,76.172,62.988,2.930,0
1504332337.964,31.738,55.664,67.383,57.129,-10.742,0
1504332337.968,12.695,35.645,54.199,32.715,13.672,0
1504332337.972,26.367,37.598,61.035,39.551,7.324,0
1504332337.976,29.785,39.062,41.992,35.645,9.277,0
1504332337.980,20.508,29.297,21.484,24.902,-10.254,0
1504332337.984,31.250,26.855,41.992,47.852,-14.160,0
1504332337.988,41.016,29.297,61.035,70.312,23.926,0
1504332337.992,39.551,22.949,62.012,48.340,9.277,0
1504332337.996,38.086,31.250,38.574,26.855,-20.996,0
1504332337.999,41.016,42.969,27.344,46.875,1.465,0
1504332338.003,39.062,55.176,42.480,47.852,30.762,0
1504332338.007,40.527,74.707,71.289,42.969,16.113,0
1504332338.011,19.043,54.199,79.590,34.180,-10.254,0
1504332338.015,-0.977,32.227,54.688,22.949,-20.996,0
1504332338.019,29.297,15.625,31.250,34.180,-3.906,0
1504332338.023,32.715,0.977,29.785,17.578,2.930,0
1504332338.027,12.695,9.766,39.551,10.254,-26.367,0
1504332338.031,19.531,30.762,61.035,25.879,-17.578,0
1504332338.035,20.996,52.246,57.129,21.484,20.020,0
1504332338.038,17.090,64.453,48.828,16.113,37.598,0
1504332338.042,37.598,82.031,41.992,35.156,27.344,0
1504332338.046,20.996,52.734,8.789,28.320,29.297,0
1504332338.050,2.930,9.766,42.969,14.648,41.992,0
1504332338.054,12.695,10.742,84.473,16.113,28.320,0
1504332338.058,9.766,28.320,76.660,9.766,-4.395,0
1504332338.062,24.414,50.781,57.129,19.043,-13.672,0
1504332338.066,24.414,52.246,32.715,22.461,26.367,0
1504332338.070,21.973,46.387,51.758,25.879,20.996,0
1504332338.074,48.828,46.875,57.617,49.805,41.016,0
1504332338.078,58.105,45.898,43.457,56.641,62.500,0
1504332338.081,44.922,55.176,54.688,48.828,22.949,0
1504332338.085,37.109,62.012,50.781,52.734,3.418,0
1504332338.089,62.988,36.621,37.109,59.082,2.441,0
1504332338.093,60.059,19.043,44.922,56.641,39.551,0
1504332338.097,36.133,27.832,67.871,48.340,56.152,0
1504332338.101,51.270,29.785,53.711,53.711,60.059,0
1504332338.105,54.688,29.297,46.387,68.359,70.312,0
1504332338.109,73.242,55.176,81.055,69.824,50.293,0
1504332338.113,50.781,83.984,67.383,51.758,15.137,0
1504332338.117,19.043,58.105,42.969,36.133,-2.441,0
1504332338.121,48.828,48.340,53.711,56.641,21.973,0
1504332338.124,70.801,46.387,37.109,63.965,26.855,0
1504332338.128,67.871,45.898,40.527,51.758,-1.953,0
1504332338.132,41.504,60.059,44.922,42.480,-1.465,0
1504332338.136,41.992,52.246,25.879,50.293,55.176,0
1504332338.140,62.988,70.801,47.852,61.035,48.828,0
1504332338.144,78.125,80.078,71.777,68.359,0.977,0
1504332338.148,80.566,51.758,61.035,69.336,0.000,0
1504332338.152,62.500,54.199,56.641,58.594,27.344,0
1504332338.156,61.035,56.641,34.668,72.266,45.898,0
1504332338.160,85.449,27.832,16.113,94.727,8.301,0
1504332338.163,91.309,16.602,31.738,73.730,-23.926,0
1504332338.167,83.984,36.133,57.617,49.805,-3.418,0
1504332338.171,62.012,53.223,61.523,41.504,22.461,0
1504332338.175,51.270,60.547,49.316,54.688,-0.977,0
1504332338.179,67.871,65.918,52.246,56.641,9.277,0
1504332338.183,65.430,45.410,62.012,47.852,-14.648,0
1504332338.187,72.266,46.875,62.500,57.617,-2.441,0
1504332338.191,73.730,63.965,51.270,58.105,23.926,0
1504332338.195,73.242,59.082,50.293,48.340,-21.484,0
1504332338.199,77.637,59.082,32.227,43.945,-30.273,0
1504332338.203,94.727,83.984,29.297,78.613,1.953,0
1504332338.206,93.750,60.059,47.363,84.961,13.184,0
1504332338.210,87.402,23.926,53.223,67.383,-2.930,0
1504332338.214,96.680,43.457,68.848,67.871,11.230,0
1504332338.218,73.242,53.223,64.453,59.082,-5.859,0
1504332338.222,66.895,83.984,61.523,64.453,-6.348,0
1504332338.226,68.359,76.660,54.199,72.754,31.250,0
1504332338.230,63.477,20.508,44.434,75.195,1.953,0
1504332338.234,71.777,22.949,25.879,80.566,6.836,0
1504332338.238,83.984,59.082,18.066,93.262,11.230,0
1504332338.242,81.543,66.895,66.895,89.355,-13.672,0
1504332338.246,60.059,59.082,78.125,64.941,-58.594,0
1504332338.249,48.828,44.922,55.664,68.848,-36.621,0
1504332338.253,66.895,60.547,56.641,86.914,18.555,0
1504332338.257,67.383,55.176,51.270,68.848,10.254,0
1504332338.261,53.223,36.133,61.035,55.176,51.758,0
1504332338.265,44.434,64.453,93.750,66.895,57.617,0
1504332338.269,35.156,65.430,81.055,66.406,9.766,0
1504332338.273,26.855,22.461,38.086,50.293,42.480,0
1504332338.277,35.645,25.391,31.738,48.828,52.246,0
1504332338.281,27.344,50.781,52.246,44.434,10.254,0
1504332338.285,20.508,48.828,55.664,41.016,14.160,0
1504332338.288,47.363,35.645,41.504,42.480,50.781,0
1504332338.292,53.223,48.828,61.523,51.270,19.043,1
1504332338.296,69.824,59.570,79.102,77.148,1.953,0
1504332338.300,87.891,47.363,57.129,95.703,10.254,0
1504332338.304,87.891,44.434,30.762,73.242,33.203,0
1504332338.308,80.078,54.688,41.992,52.246,18.066,0
1504332338.312,64.453,60.547,36.621,55.664,5.859,0
1504332338.316,51.270,48.340,17.578,42.480,51.270,0
1504332338.320,64.453,44.434,39.551,30.273,69.824,0
1504332338.324,66.895,55.176,37.598,36.621,35.645,0
1504332338.328,62.988,66.406,60.547,51.758,15.625,0
1504332338.331,74.219,61.035,81.055,61.523,42.480,0
1504332338.335,69.824,69.824,74.219,64.453,61.035,0
1504332338.339,53.711,58.594,46.387,58.594,53.223,0
1504332338.343,63.965,27.832,26.855,50.293,-1.953,0
1504332338.347,74.707,31.738,45.410,63.477,1.465,0
1504332338.351,60.547,37.598,49.316,76.660,69.824,0
1504332338.355,69.336,51.270,55.664,67.383,101.074,0
1504332338.359,70.312,52.246,21.973,55.176,82.031,0
1504332338.363,79.102,53.223,5.859,75.195,43.945,0
1504332338.367,84.961,79.102,75.195,99.609,60.059,0
1504332338.371,54.688,62.988,70.801,84.473,70.312,0
1504332338.374,42.969,27.344,42.480,55.664,57.617,0
1504332338.378,37.598,23.926,72.754,45.898,29.785,0
1504332338.382,40.527,43.457,75.684,44.922,28.809,0
1504332338.386,40.527,39.062,61.035,49.805,52.734,0
1504332338.390,23.926,33.691,68.848,50.781,52.734,0
1504332338.394,53.711,63.477,83.984,71.777,38.574,0
1504332338.398,58.594,66.895,54.688,64.941,35.645,0
1504332338.402,26.855,46.387,5.371,41.992,43.457,0
1504332338.406,23.926,33.691,21.484,42.969,62.500,0
1504332338.410,26.367,24.902,61.523,50.781,83.496,0
1504332338.413,25.879,30.273,69.336,61.523,58.594,0
1504332338.417,21.973,47.363,55.664,61.035,33.203,0
1504332338.421,32.227,48.340,38.086,62.012,54.199,0
1504332338.425,37.598,16.602,56.641,63.477,46.875,0
1504332338.429,27.344,28.809,81.543,62.500,25.879,0
1504332338.433,24.414,48.340,61.523,58.594,51.270,0
1504332338.437,37.598,39.062,45.410,56.152,77.637,0
1504332338.441,54.688,40.527,42.969,50.781,47.363,0
1504332338.445,56.641,45.898,47.852,67.383,-15.137,0
1504332338.449,39.551,48.340,66.406,72.266,-20.996,0
1504332338.453,51.270,44.922,70.312,66.895,49.805,0
1504332338.456,59.082,46.387,60.547,75.684,83.984,0
1504332338.460,41.504,46.387,55.664,77.148,50.781,0
1504332338.464,38.574,46.387,41.016,60.547,0.977,0
1504332338.468,47.363,1.953,39.062,63.965,45.898,0
1504332338.472,70.312,7.812,70.312,94.238,72.754,0
1504332338.476,71.777,46.875,76.660,76.660,-15.137,0
1504332338.480,67.871,28.320,66.406,70.312,-31.738,0
1504332338.484,66.406,23.926,70.801,75.684,26.855,0
1504332338.488,42.969,17.090,73.242,60.059,33.203,0
1504332338.492,32.227,33.691,73.242,66.406,8.301,0
1504332338.496,49.316,58.594,56.641,57.617,-0.488,0
1504332338.499,55.176,55.664,48.828,61.035,-10.742,0
1504332338.503,47.363,46.875,49.316,69.824,-25.391,0
1504332338.507,45.410,37.109,51.758,75.195,-32.227,0
1504332338.511,57.617,33.203,68.848,86.426,-23.926,0
1504332338.515,67.871,41.504,61.035,89.844,-40.527,0
1504332338.519,58.105,52.246,41.016,80.078,-36.133,0
1504332338.523,44.434,46.875,53.711,71.777,-18.555,0
1504332338.527,30.762,41.992,60.059,66.895,-9.766,0
1504332338.531,40.527,46.875,49.316,69.336,-21.973,0
1504332338.535,53.711,39.551,66.406,78.613,-26.367,0
1504332338.538,40.039,4.883,53.711,55.176,-18.066,0
1504332338.542,41.016,-4.883,40.039,51.270,-0.488,0
1504332338.546,43.457,24.414,50.781,61.035,2.930,0
1504332338.550,41.016,71.777,48.828,72.754,-19.531,0
1504332338.554,46.875,93.750,57.617,77.637,-9.766,0
1504332338.558,40.527,41.992,66.895,61.523,7.812,0
1504332338.562,44.922,28.320,46.875,59.082,-14.648,0
1504332338.566,48.340,51.270,28.809,56.152,-54.688,0
1504332338.570,44.434,45.410,50.781,71.777,-27.832,0
1504332338.574,60.547,43.945,49.316,89.355,-6.348,0
1504332338.578,57.617,44.434,6.836,76.172,-65.430,0
1504332338.581,58.105,36.621,28.809,63.965,-85.938,0
1504332338.585,41.992,37.598,63.965,54.199,-53.711,0
1504332338.589,41.016,65.918,60.547,65.918,-21.973,0
1504332338.593,21.484,69.336,57.617,61.523,-20.996,0
1504332338.597,4.395,27.832,56.152,36.133,-28.809,0
1504332338.601,16.602,11.230,61.523,34.180,-39.551,0
1504332338.605,24.414,38.574,61.523,48.340,-44.434,0
1504332338.609,49.805,46.387,64.453,55.664,-32.715,0
1504332338.613,61.523,24.902,65.918,70.312,-4.395,0
1504332338.617,50.781,24.902,74.707,68.359,7.812,0
1504332338.621,44.434,37.598,78.125,63.965,-8.301,0
1504332338.624,52.246,35.156,37.109,73.730,-21.484,0
1504332338.628,59.570,51.270,20.020,74.707,-48.828,0
1504332338.632,53.223,71.289,41.992,65.918,-45.898,0
1504332338.636,34.668,47.363,57.129,52.246,3.418,0
1504332338.640,39.062,6.836,62.500,55.664,9.766,0
1504332338.644,31.738,11.230,61.523,48.340,-4.395,0
1504332338.648,35.156,37.598,70.312,63.965,5.371,0
1504332338.652,35.156,55.664,71.289,57.617,-8.789,0
1504332338.656,25.391,51.758,49.805,41.016,-6.836,0
1504332338.660,47.363,57.617,42.969,50.293,21.484,0
1504332338.663,53.223,58.594,59.570,47.852,-23.438,0
1504332338.667,45.410,37.598,48.340,48.340,-10.254,0
1504332338.671,31.738,28.809,29.785,32.227,-9.766,0
1504332338.675,47.852,38.574,47.363,40.039,-10.742,0
1504332338.679,55.664,36.133,60.059,44.434,20.996,0
1504332338.683,55.664,39.062,47.363,46.387,84.473,0
1504332338.687,64.941,58.105,41.992,64.453,99.609,0
1504332338.691,45.410,54.688,43.457,57.129,15.137,0
1504332338.695,39.062,39.062,32.715,40.527,-61.035,0
1504332338.699,54.688,46.387,38.574,52.246,-31.738,0
1504332338.703,62.012,64.453,36.133,59.082,26.367,0
1504332338.706,60.059,51.758,47.852,57.617,-12.207,0
1504332338.710,45.410,34.668,70.312,57.129,-50.781,0
1504332338.714,50.781,43.457,64.453,60.547,-5.371,0
1504332338.718,50.293,5.859,54.199,60.547,91.309,0
1504332338.722,60.547,3.906,61.035,58.594,43.457,0
1504332338.726,79.590,73.730,73.242,76.172,49.316,0
1504332338.730,71.289,103.516,67.871,83.984,74.219,0
1504332338.734,47.363,52.734,39.551,60.059,55.176,0
1504332338.738,37.598,22.949,42.480,45.898,80.078,0
1504332338.742,37.598,27.832,39.551,44.434,35.156,0
1504332338.746,46.387,39.551,45.410,59.570,23.438,0
1504332338.749,47.852,45.410,66.895,59.082,15.137,0
1504332338.753,44.434,46.387,67.871,54.199,10.254,0
1504332338.757,54.688,66.895,62.500,49.805,14.160,0
1504332338.761,64.453,51.270,49.316,32.715,25.391,0
1504332338.765,51.270,33.203,41.992,17.578,13.184,0
1504332338.769,33.203,47.363,32.715,8.789,8.301,0
1504332338.773,39.551,64.453,47.363,26.855,32.715,0
1504332338.777,40.527,70.801,39.062,35.645,17.578,0
1504332338.781,28.809,61.523,19.531,11.719,30.762,0
1504332338.785,46.387,70.801,44.922,25.391,48.340,0
1504332338.788,75.195,73.730,52.734,39.551,94.727,0
1504332338.792,73.730,51.758,54.688,26.855,62.988,0
1504332338.796,57.617,50.781,31.738,27.832,13.672,0
1504332338.800,65.918,66.895,28.320,32.715,65.430,0
1504332338.804,64.453,68.848,28.320,27.832,62.012,0
1504332338.808,54.199,58.105,7.324,26.367,75.684,0
1504332338.812,56.641,32.715,30.273,21.484,41.992,0
1504332338.816,83.008,53.223,76.660,44.922,1.953,0
1504332338.820,74.219,62.988,93.262,41.992,50.293,0
1504332338.824,59.082,45.898,60.059,31.250,76.660,0
1504332338.828,70.312,58.594,38.574,53.223,40.039,0
1504332338.831,79.102,66.895,45.410,57.129,37.109,0
1504332338.835,83.496,59.570,51.758,42.969,66.895,0
1504332338.839,83.008,45.410,48.340,36.621,51.270,0
1504332338.843,68.848,52.734,67.871,33.203,0.000,0
1504332338.847,71.289,53.711,32.715,40.039,-12.695,0
1504332338.851,65.430,62.988,-0.977,37.598,-25.879,0
1504332338.855,76.172,70.801,58.105,46.875,-1.953,0
1504332338.859,79.102,46.387,73.730,52.246,7.324,0
1504332338.863,58.594,50.293,59.570,47.363,-52.734,0
1504332338.867,62.988,70.312,56.641,50.781,-27.344,0
1504332338.871,65.918,62.988,40.039,47.363,35.645,0
1504332338.874,85.938,52.246,60.059,71.289,23.926,0
1504332338.878,72.754,30.762,56.152,67.871,36.621,0
1504332338.882,46.387,11.719,14.648,36.621,63.965,0
1504332338.886,74.219,23.926,34.180,48.828,98.145,0
1504332338.890,77.637,57.617,68.359,50.781,81.543,0
1504332338.894,24.414,70.801,51.270,25.879,-6.348,0
1504332338.898,4.395,65.918,14.160,21.973,-44.434,0
1504332338.902,24.902,65.918,17.090,21.484,5.371,0
1504332338.906,28.809,70.312,41.016,24.414,44.434,0
1504332338.910,24.902,45.898,56.152,29.297,23.926,0
1504332338.913,41.016,25.391,74.707,46.875,15.625,0
1504332338.917,38.574,47.363,73.730,56.152,6.348,0
1504332338.921,18.066,35.645,53.223,52.246,-19.531,0
1504332338.925,33.691,28.320,29.297,56.641,-16.602,0
1504332338.929,19.531,42.969,38.574,44.434,53.223,0
1504332338.933,14.160,36.621,62.012,42.480,70.312,0
1504332338.937,26.367,38.574,50.293,62.500,41.504,0
1504332338.941,39.062,62.988,67.871,70.312,64.453,0
1504332338.945,45.410,63.965,76.172,56.641,54.199,0
1504332338.949,14.160,47.363,66.895,31.738,42.480,0
1504332338.953,43.945,53.711,89.844,52.734,54.199,0
1504332338.956,74.219,63.477,73.242,67.383,88.867,0
1504332338.960,51.758,32.715,40.527,57.617,42.480,0
1504332338.964,41.992,-0.977,45.898,67.383,33.691,0
1504332338.968,47.363,20.996,48.828,56.641,114.258,0
1504332338.972,45.410,43.457,38.086,35.645,44.922,0
1504332338.976,48.340,26.855,59.570,56.152,18.555,0
1504332338.980,71.777,22.461,87.891,70.801,56.641,0
1504332338.984,60.059,48.340,77.148,49.805,71.777,0
1504332338.988,41.504,60.059,44.922,47.852,74.707,0
1504332338.992,29.297,52.246,35.645,42.969,59.082,0
1504332338.996,42.480,38.086,53.223,52.246,17.578,0
1504332338.999,68.848,22.461,57.617,80.078,61.523,0
1504332339.003,42.969,35.156,66.406,71.289,65.430,0
1504332339.007,22.461,40.039,67.871,50.781,53.223,0
1504332339.011,50.781,24.902,65.430,42.969,39.062,0
1504332339.015,55.664,30.273,65.918,53.223,-18.555,0
1504332339.019,33.203,42.480,62.012,57.129,11.719,0
1504332339.023,29.297,40.527,61.035,55.176,56.641,0
1504332339.027,53.223,33.691,47.363,62.988,60.547,0
1504332339.031,53.223,36.133,28.809,69.336,56.641,0
1504332339.035,49.316,63.477,54.688,68.359,45.898,0
1504332339.038,33.691,54.688,76.660,49.805,5.371,0
1504332339.042,12.207,15.137,66.406,32.715,44.434,0
1504332339.046,23.438,20.020,64.941,39.062,68.359,0
1504332339.050,34.180,43.945,73.730,49.805,28.809,0
1504332339.054,18.066,35.156,58.594,47.363,62.500,0
1504332339.058,10.742,18.555,22.949,38.574,99.609,0
1504332339.062,18.066,31.250,36.621,28.809,80.078,0
1504332339.066,24.902,46.875,69.824,30.762,30.273,0
1504332339.070,39.551,35.645,71.777,33.691,54.199,0
1504332339.074,41.016,23.926,76.660,36.133,105.469,0
1504332339.078,20.996,30.762,67.383,41.016,94.727,0
1504332339.081,27.832,38.086,34.668,48.828,76.172,0
1504332339.085,21.973,16.113,38.574,48.828,124.512,0
1504332339.089,22.949,6.348,56.641,42.969,153.809,0
1504332339.093,46.387,38.574,59.570,36.621,100.098,0
1504332339.097,46.387,59.082,54.199,38.574,116.211,0
1504332339.101,48.828,54.688,49.805,38.086,183.594,0
1504332339.105,42.969,39.551,54.688,24.902,180.176,0
1504332339.109,34.668,34.180,60.547,33.203,124.512,0
1504332339.113,41.992,33.691,72.754,55.664,114.746,0
1504332339.117,51.758,25.391,64.941,53.711,156.250,0
1504332339.121,42.480,39.551,57.617,42.969,183.594,0
1504332339.124,38.086,54.199,61.523,50.293,175.293,0
1504332339.128,35.645,32.715,32.227,45.410,181.641,0
1504332339.132,35.156,45.898,34.180,43.945,193.848,0
1504332339.136,36.133,51.270,55.664,30.273,173.340,0
1504332339.140,21.973,9.277,44.434,19.531,165.527,0
1504332339.144,30.273,27.344,55.176,51.270,186.523,0
1504332339.148,43.945,62.012,80.078,54.688,180.176,0
1504332339.152,34.180,41.016,67.383,42.969,197.754,0
1504332339.156,57.617,41.504,51.758,65.430,213.379,0
1504332339.160,69.824,58.594,53.711,70.312,218.262,0
1504332339.163,47.363,50.293,42.480,49.316,197.266,0
1504332339.167,55.664,55.176,26.367,41.992,184.082,0
1504332339.171,42.480,44.434,25.391,26.855,191.895,0
1504332339.175,22.949,32.715,40.039,16.602,167.969,0
1504332339.179,6.348,31.250,58.594,23.926,145.508,0
1504332339.183,3.906,41.992,75.684,24.414,148.438,0
1504332339.187,25.879,39.551,85.938,18.066,184.570,0
1504332339.191,41.992,23.926,68.848,31.250,176.758,0
1504332339.195,46.875,23.926,49.316,41.992,118.164,0
1504332339.199,52.734,47.852,62.012,34.668,142.090,0
1504332339.203,51.758,49.316,39.551,41.016,181.152,0
1504332339.206,45.410,46.387,32.715,64.941,155.273,0
1504332339.210,45.410,51.758,77.637,62.500,108.887,0
1504332339.214,46.875,54.199,66.406,37.598,89.355,0
1504332339.218,55.664,56.152,30.273,56.152,137.207,0
1504332339.222,62.988,68.848,62.988,68.848,164.062,0
1504332339.226,60.547,54.199,70.801,50.781,130.859,0
1504332339.230,45.410,29.297,51.270,45.898,106.934,0
1504332339.234,29.785,15.625,72.754,32.227,118.164,0
1504332339.238,26.855,-5.859,58.594,34.668,144.531,0
1504332339.242,46.875,33.203,29.785,53.711,118.164,0
1504332339.246,74.707,66.406,38.086,58.594,94.238,0
1504332339.249,66.895,54.199,64.453,56.152,119.141,0
1504332339.253,41.992,34.180,55.664,41.504,109.375,0
1504332339.257,49.316,26.855,39.062,39.062,110.352,0
1504332339.261,56.641,58.594,60.059,57.129,119.141,0
1504332339.265,41.504,72.266,67.383,63.965,89.355,0
1504332339.269,33.203,62.012,58.105,64.453,85.938,0
1504332339.273,39.551,62.012,48.340,56.152,89.844,0
1504332339.277,41.504,36.621,-7.812,29.785,63.477,0
1504332339.281,39.062,25.391,-5.371,32.715,92.285,0
1504332339.285,63.965,49.316,64.941,49.805,98.145,0
1504332339.288,49.316,62.500,88.379,52.246,53.711,0
1504332339.292,25.879,54.688,77.148,45.410,77.637,0
1504332339.296,40.527,45.898,79.102,52.246,74.219,0
1504332339.300,38.574,21.484,73.730,56.641,81.055,0
1504332339.304,25.879,26.367,52.246,42.969,86.426,0
1504332339.308,28.320,54.199,38.086,51.270,70.801,0
1504332339.312,51.758,38.086,35.156,67.383,64.941,0
1504332339.316,43.457,41.504,13.184,47.852,60.059,0
1504332339.320,48.340,45.898,22.949,54.199,61.035,0
1504332339.324,70.801,29.297,73.730,66.895,64.453,0
1504332339.328,86.914,57.617,83.984,73.242,58.594,0
1504332339.331,69.336,75.684,70.312,78.613,26.855,0
1504332339.335,39.062,53.711,55.664,55.176,61.035,0
1504332339.339,57.617,38.086,62.012,54.688,103.027,0
1504332339.343,69.336,53.711,53.711,55.176,72.754,0
1504332339.347,59.570,57.617,34.668,52.734,38.574,0
1504332339.351,59.082,53.223,47.363,45.410,41.504,0
1504332339.355,57.129,57.617,36.621,44.434,94.727,0
1504332339.359,64.941,62.500,39.551,58.594,62.988,0
1504332339.363,50.293,34.668,59.082,49.316,9.277,0
1504332339.367,38.574,25.879,47.852,53.223,18.066,0
1504332339.371,50.293,61.523,56.152,57.129,30.762,0
1504332339.374,45.410,59.570,68.359,40.527,18.066,0
1504332339.378,35.156,46.387,53.711,32.227,-22.949,0
1504332339.382,37.109,44.922,34.668,43.945,2.441,0
1504332339.386,22.949,43.457,34.180,40.527,34.668,0
1504332339.390,7.324,29.785,37.109,21.484,2.441,0
1504332339.394,29.785,27.344,47.852,39.062,-11.719,0
1504332339.398,45.898,39.062,66.406,58.594,0.488,0
1504332339.402,32.227,46.387,33.691,29.785,25.879,0
1504332339.406,38.574,61.523,17.090,26.855,43.457,0
1504332339.410,30.762,58.105,52.734,35.156,5.859,0
1504332339.413,9.277,37.598,51.758,22.461,-9.277,0
1504332339.417,20.996,35.645,60.547,32.227,17.578,0
1504332339.421,59.570,43.945,60.547,46.387,15.137,0
1504332339.425,59.082,66.406,53.223,49.316,0.977,0
1504332339.429,32.715,62.012,59.570,41.016,37.598,0
1504332339.433,44.922,52.734,48.828,38.574,35.645,0
1504332339.437,41.504,46.875,10.254,41.016,20.508,0
1504332339.441,51.270,48.828,30.762,39.062,39.551,0
1504332339.445,56.152,70.801,73.730,44.434,39.551,0
1504332339.449,47.363,47.363,51.758,50.293,25.879,0
1504332339.453,68.359,40.039,47.363,39.062,37.598,0
1504332339.456,81.543,49.805,44.434,43.945,55.176,0
1504332339.460,56.152,27.344,28.320,32.715,23.926,0
1504332339.464,36.133,18.555,29.785,23.438,-15.625,0
1504332339.468,52.734,43.457,35.645,38.086,-0.488,0
1504332339.472,63.477,74.219,43.457,28.809,31.738,0
1504332339.476,41.016,59.082,30.762,2.441,20.996,0
1504332339.480,36.133,38.574,41.016,13.184,22.461,0
1504332339.484,42.480,55.176,61.523,20.996,33.203,0
1504332339.488,20.996,63.477,53.223,0.000,54.199,0
1504332339.492,25.879,50.781,23.926,0.488,68.848,0
1504332339.496,43.945,58.105,25.879,21.973,30.762,0
1504332339.499,39.551,64.941,51.758,18.066,15.625,0
1504332339.503,37.109,57.129,43.945,-0.977,29.785,0
1504332339.507,36.621,53.223,42.480,-12.207,15.625,0
1504332339.511,52.734,56.152,44.922,-0.977,-9.766,0
1504332339.515,70.801,60.547,34.180,43.457,-14.160,0
1504332339.519,42.969,41.504,29.297,51.270,30.273,0
1504332339.523,27.344,38.574,48.340,39.551,54.688,0
1504332339.527,38.086,45.898,72.754,37.598,23.438,0
1504332339.531,40.527,45.898,71.289,27.832,14.648,0
1504332339.535,43.457,51.758,54.688,25.879,42.480,0
1504332339.538,45.410,56.152,38.086,40.039,59.082,0
1504332339.542,77.148,45.898,13.672,53.223,21.973,0
1504332339.546,65.918,9.766,21.973,32.227,2.930,0
1504332339.550,39.551,5.371,61.035,28.809,30.273,0
1504332339.554,51.758,51.270,72.266,47.852,30.762,0
1504332339.558,57.129,72.754,58.594,49.316,7.812,2
1504332339.562,50.781,81.055,64.941,50.293,7.812,0
1504332339.566,45.410,54.688,58.594,42.969,15.625,0
1504332339.570,40.527,14.160,55.664,32.227,22.461,0
1504332339.574,65.430,44.434,67.871,53.711,38.086,0
1504332339.578,75.684,54.688,27.832,70.801,55.664,0
1504332339.581,64.941,46.875,19.043,57.129,40.039,0
1504332339.585,78.125,72.266,68.848,70.312,43.457,0
1504332339.589,71.777,65.430,63.965,75.684,51.270,0
1504332339.593,63.477,53.223,65.430,61.523,48.828,0
1504332339.597,55.664,44.922,55.664,52.734,33.691,0
1504332339.601,30.762,30.762,33.691,22.949,14.160,0
1504332339.605,31.738,25.391,47.363,22.461,35.645,0
1504332339.609,54.199,20.508,69.824,48.828,37.598,0
1504332339.613,46.387,20.996,74.707,42.969,5.859,0
1504332339.617,50.293,50.293,66.406,45.410,-16.602,0
1504332339.621,55.664,69.336,46.387,46.875,-5.371,0
1504332339.624,66.895,62.500,26.855,60.547,10.742,0
1504332339.628,80.566,67.871,48.828,72.266,-7.324,0
1504332339.632,56.152,62.500,71.777,56.641,-16.602,0
1504332339.636,37.598,31.250,42.480,50.293,21.484,0
1504332339.640,45.410,19.531,21.973,51.758,21.484,0
1504332339.644,68.848,52.734,62.012,63.477,7.324,0
1504332339.648,87.891,62.500,55.664,70.312,-9.766,0
1504332339.652,44.922,25.391,34.668,33.691,-34.180,0
1504332339.656,35.156,27.832,85.449,61.523,-5.371,0
1504332339.660,47.852,30.762,66.895,89.355,-47.852,0
1504332339.663,30.762,31.250,16.602,68.359,-75.684,0
1504332339.667,46.875,65.430,67.383,75.195,-17.578,0
1504332339.671,54.199,38.574,93.750,66.406,-2.441,0
1504332339.675,39.551,16.113,68.848,47.852,-29.785,0
1504332339.679,38.086,58.105,59.570,49.805,-43.945,0
1504332339.683,39.551,64.941,52.246,48.828,-22.461,0
1504332339.687,56.152,53.223,54.199,49.805,-20.020,0
1504332339.691,65.918,63.477,46.387,67.383,-25.391,0
1504332339.695,42.480,55.664,23.438,57.129,-39.062,0
1504332339.699,38.574,41.016,36.133,48.340,-63.477,0
1504332339.703,44.434,31.738,41.016,60.059,-36.133,0
1504332339.706,69.336,21.973,65.918,97.656,-7.324,0
1504332339.710,91.309,52.734,108.398,107.422,-28.320,0
1504332339.714,65.918,45.410,80.566,68.848,-42.969,0
1504332339.718,57.129,25.391,54.199,54.688,-5.859,0
1504332339.722,53.711,45.898,56.641,51.270,-9.277,0
1504332339.726,48.340,51.758,63.477,56.152,-41.504,0
1504332339.730,57.129,52.246,65.430,73.730,-39.551,0
1504332339.734,57.617,48.340,56.152,75.684,-26.855,0
1504332339.738,54.199,40.527,48.340,65.918,-20.996,0
1504332339.742,62.988,27.832,50.293,68.848,-27.832,0
1504332339.746,63.965,20.020,51.270,66.406,-54.199,0
1504332339.749,60.059,30.762,30.273,64.941,-69.824,0
1504332339.753,73.730,47.852,37.598,72.754,-54.199,0
1504332339.757,73.242,43.457,66.895,67.383,-30.273,0
1504332339.761,57.617,62.012,84.961,59.570,-49.805,0
1504332339.765,48.340,84.961,85.449,56.641,-50.781,0
1504332339.769,20.020,50.781,56.152,33.203,-28.809,0
1504332339.773,20.020,22.461,51.758,27.344,-46.387,0
1504332339.777,40.527,30.762,56.152,52.734,-37.109,0
1504332339.781,38.574,34.668,16.602,60.059,-62.988,0
1504332339.785,32.715,9.277,4.395,39.551,-71.289,0
1504332339.788,71.777,15.137,47.852,66.895,-41.504,0
1504332339.792,87.402,62.012,71.289,94.238,-69.336,0
1504332339.796,41.992,83.496,86.914,62.012,-113.770,0
1504332339.800,32.227,63.965,73.730,39.062,-122.559,0
1504332339.804,29.785,31.250,65.430,26.855,-78.613,0
1504332339.808,26.855,30.273,64.453,30.762,-76.172,0
1504332339.812,44.434,31.250,39.062,45.410,-126.465,0
1504332339.816,53.223,18.555,36.621,52.246,-118.164,0
1504332339.820,48.340,30.273,55.176,55.664,-64.941,0
1504332339.824,52.734,49.805,71.289,52.734,-46.875,0
1504332339.828,70.312,68.848,77.637,65.430,-98.633,0
1504332339.831,60.547,52.246,41.992,64.453,-88.379,0
1504332339.835,56.152,38.086,33.203,56.152,-61.523,0
1504332339.839,69.336,59.570,51.270,59.570,-100.098,0
1504332339.843,57.129,49.316,50.293,46.875,-102.051,0
1504332339.847,60.059,22.461,65.430,61.035,-75.195,0
1504332339.851,68.359,19.531,50.293,64.453,-53.711,0
1504332339.855,71.777,40.527,36.621,63.965,-52.734,0
1504332339.859,55.176,52.734,49.316,62.012,-52.246,0
1504332339.863,37.109,39.551,44.922,38.086,-73.730,0
1504332339.867,68.359,54.199,53.711,44.922,-57.617,0
1504332339.871,61.523,50.781,27.832,41.504,-35.156,0
1504332339.874,22.949,43.457,28.809,14.648,-46.875,0
1504332339.878,25.879,50.781,46.875,11.719,-23.438,0
1504332339.882,50.781,51.758,44.434,33.203,5.859,0
1504332339.886,54.199,54.199,47.363,59.570,-22.461,0
1504332339.890,41.504,52.246,35.156,58.594,-34.180,0
1504332339.894,45.410,54.199,67.383,60.547,-24.902,0
1504332339.898,50.293,32.227,61.523,54.688,-52.246,0
1504332339.902,57.129,29.297,43.945,59.082,-32.227,0
1504332339.906,75.684,59.570,59.082,65.918,-0.977,0
1504332339.910,46.387,41.504,32.715,53.711,6.348,0
1504332339.913,20.996,16.602,39.062,42.969,8.301,0
1504332339.917,41.016,24.902,44.922,41.992,16.602,0
1504332339.921,44.434,30.762,14.160,34.180,32.227,0
1504332339.925,24.902,35.156,20.020,29.297,15.625,0
1504332339.929,40.527,61.523,55.664,56.641,-25.391,0
1504332339.933,67.383,83.984,71.289,67.871,-34.668,0
1504332339.937,91.309,64.453,54.688,56.152,-8.301,0
1504332339.941,71.289,29.297,38.086,42.969,0.977,0
1504332339.945,53.711,32.227,47.363,40.039,-12.695,0
1504332339.949,66.895,56.152,58.594,48.340,4.883,0
1504332339.953,68.359,48.828,38.574,46.875,30.273,0
1504332339.956,77.637,38.574,52.734,46.387,36.621,0
1504332339.960,71.777,46.875,67.383,47.363,17.578,0
1504332339.964,58.594,53.223,52.246,44.922,3.418,0
1504332339.968,60.547,55.176,26.367,43.945,12.207,0
1504332339.972,65.918,63.965,21.973,50.781,9.277,0
1504332339.976,59.570,69.824,62.012,46.387,-12.207,0
1504332339.980,55.176,42.480,76.660,53.223,-7.324,0
1504332339.984,73.730,32.227,69.336,66.895,-3.418,0
1504332339.988,64.941,33.203,43.945,47.852,4.883,0
1504332339.992,57.617,24.414,32.227,38.086,29.785,0
1504332339.996,75.684,34.180,54.199,52.734,40.039,0
1504332339.999,80.566,35.156,58.105,54.688,53.711,0
1504332340.003,58.105,41.016,62.012,51.270,45.898,0
1504332340.007,40.527,61.035,57.129,49.805,37.598,0
1504332340.011,49.805,57.129,38.574,37.598,31.250,0
1504332340.015,49.805,54.199,40.039,41.504,34.668,0
1504332340.019,78.613,47.363,46.387,48.340,41.992,0
1504332340.023,95.215,49.316,42.480,45.898,50.781,0
1504332340.027,77.148,64.941,40.527,52.734,17.090,0
1504332340.031,63.477,56.641,27.344,46.387,27.832,0
1504332340.035,63.965,36.621,27.832,41.992,37.598,0
1504332340.038,69.824,36.133,38.574,51.270,33.691,0
1504332340.042,67.871,37.109,41.016,62.012,59.082,0
1504332340.046,61.035,40.527,61.035,45.410,36.621,0
1504332340.050,62.500,53.223,64.453,39.062,65.430,0
1504332340.054,59.570,53.711,65.918,41.504,107.910,0
1504332340.058,73.730,62.012,67.871,53.223,88.867,3
1504332340.062,66.406,45.898,51.270,47.363,54.688,0
1504332340.066,58.105,20.996,28.809,41.504,74.219,0
1504332340.070,73.730,39.551,50.293,58.105,118.652,0
1504332340.074,55.176,43.945,64.941,57.617,119.141,0
1504332340.078,61.035,30.762,51.758,60.547,79.590,0
1504332340.081,67.383,33.203,53.223,62.988,51.270,0
1504332340.085,73.730,49.805,65.430,61.523,58.105,0
1504332340.089,89.844,70.312,79.102,62.988,81.055,0
1504332340.093,56.641,63.477,56.152,60.547,81.543,0
1504332340.097,57.129,56.152,37.598,64.941,68.848,0
1504332340.101,88.379,61.035,54.688,74.219,76.172,0
1504332340.105,82.520,48.340,47.852,61.523,97.656,0
1504332340.109,61.523,25.391,39.551,45.410,85.449,0
1504332340.113,47.363,22.949,53.223,48.828,52.246,0
1504332340.117,63.477,39.062,46.875,62.012,70.312,0
1504332340.121,88.379,52.246,41.504,72.754,90.820,0
1504332340.124,79.102,66.895,61.035,55.176,69.824,0
1504332340.128,71.289,57.617,57.129,51.270,46.875,0
1504332340.132,64.941,41.016,52.734,57.129,75.684,0
1504332340.136,50.781,25.391,54.199,48.828,90.820,0
1504332340.140,53.223,37.109,38.086,40.527,70.312,0
1504332340.144,71.289,51.758,45.410,50.293,67.383,0
1504332340.148,90.820,69.824,61.035,65.918,84.473,0
1504332340.152,85.449,75.195,68.848,58.594,115.234,0
1504332340.156,32.715,47.363,48.340,31.250,114.746,0
1504332340.160,14.648,8.789,6.348,31.250,63.965,0
1504332340.163,60.059,11.230,10.254,59.570,49.316,0
1504332340.167,50.293,43.945,50.781,58.105,101.074,0
1504332340.171,49.805,62.500,62.988,63.477,105.957,0
1504332340.175,104.004,77.148,84.473,89.844,62.500,0
1504332340.179,44.922,49.805,73.730,45.898,71.289,0
1504332340.183,-13.672,27.832,55.176,13.672,100.586,0
1504332340.187,27.832,16.113,53.223,32.227,116.699,0
1504332340.191,33.691,5.859,34.668,20.996,144.043,0
1504332340.195,45.410,29.297,37.109,48.340,103.027,0
1504332340.199,57.129,33.203,40.527,60.059,41.992,0
1504332340.203,62.500,30.762,57.129,42.969,81.055,0
1504332340.206,81.543,55.176,83.008,58.105,86.914,0
1504332340.210,98.633,72.266,73.730,73.730,64.453,0
1504332340.214,75.684,59.570,36.621,42.969,84.961,0
1504332340.218,70.801,63.477,31.738,38.086,61.035,0
1504332340.222,81.055,46.387,23.438,44.922,60.059,0
1504332340.226,85.938,20.020,35.645,47.363,32.715,0
1504332340.230,91.309,34.668,73.242,63.965,12.695,0
1504332340.234,76.172,41.504,57.129,57.129,54.199,0
1504332340.238,72.754,32.715,30.762,42.969,86.914,0
1504332340.242,70.312,37.109,40.527,48.340,54.199,0
1504332340.246,67.871,53.711,57.617,56.152,40.527,0
1504332340.249,72.266,58.594,49.805,44.922,62.500,0
1504332340.253,69.336,75.195,44.922,49.316,51.758,0
1504332340.257,77.148,73.242,65.918,79.102,39.062,0
1504332340.261,81.543,48.340,59.082,79.590,3.906,0
1504332340.265,70.801,47.852,28.320,65.918,-17.578,0
1504332340.269,73.242,43.457,39.062,75.195,45.410,0
1504332340.273,60.059,28.809,52.734,57.129,60.547,0
1504332340.277,41.504,13.672,39.551,32.227,30.273,0
1504332340.281,58.594,26.367,40.039,54.688,40.527,0
1504332340.285,62.012,43.945,44.922,62.012,62.012,0
1504332340.288,38.086,43.457,48.340,35.645,57.129,0
1504332340.292,33.203,56.641,60.059,26.367,18.066,0
1504332340.296,27.832,58.105,61.035,24.902,6.348,0
1504332340.300,36.133,71.777,76.172,50.781,27.344,0
1504332340.304,30.762,62.012,74.707,46.875,78.125,0
1504332340.308,6.836,10.254,35.156,21.973,51.270,0
1504332340.312,5.371,19.531,34.180,24.902,45.410,0
1504332340.316,44.922,26.367,62.988,44.922,88.379,0
1504332340.320,50.781,12.207,34.180,42.969,79.102,0
1504332340.324,32.227,23.438,32.715,46.387,80.078,0
1504332340.328,19.531,27.832,81.543,46.387,61.035,0
1504332340.331,14.648,38.086,62.988,47.852,46.387,0
1504332340.335,41.992,63.965,49.316,53.711,45.410,0
1504332340.339,45.410,54.199,58.594,51.270,43.945,0
1504332340.343,26.367,24.414,57.617,60.059,52.246,0
1504332340.347,26.367,32.715,62.012,62.500,55.664,0
1504332340.351,26.855,8.789,48.828,50.293,85.449,0
1504332340.355,31.250,-6.348,51.758,59.570,87.891,0
1504332340.359,26.855,18.555,43.457,52.246,75.684,0
1504332340.363,36.621,49.805,55.664,55.176,37.598,0
1504332340.367,62.500,93.262,96.680,80.566,28.809,0
1504332340.371,42.480,69.824,65.918,47.852,34.668,0
1504332340.374,34.180,31.250,42.969,25.391,29.297,0
1504332340.378,43.457,51.758,48.340,54.688,31.738,0
1504332340.382,32.715,37.598,40.039,42.480,40.039,0
1504332340.386,23.926,10.742,33.203,25.879,38.574,0
1504332340.390,26.855,23.438,46.875,54.199,59.082,0
1504332340.394,49.316,35.645,41.504,62.988,48.828,0
1504332340.398,51.270,29.785,20.996,59.570,16.113,0
1504332340.402,29.785,38.574,43.945,55.664,29.297,0
1504332340.406,20.996,60.547,69.336,52.246,51.270,0
1504332340.410,1.465,60.547,57.617,31.738,30.762,0
1504332340.413,15.625,68.848,58.594,41.016,5.859,0
1504332340.417,41.016,57.129,59.570,47.852,41.992,0
1504332340.421,40.527,24.414,41.016,39.062,93.262,0
1504332340.425,37.598,15.137,21.484,42.480,99.609,0
1504332340.429,42.480,30.762,38.086,41.992,36.133,0
1504332340.433,68.359,46.387,62.012,54.199,37.598,0
1504332340.437,69.336,39.551,55.664,62.012,94.238,0
1504332340.441,43.945,39.062,61.035,55.664,87.402,0
1504332340.445,40.527,53.223,74.219,59.082,53.711,0
1504332340.449,34.668,54.199,69.824,45.898,59.082,0
1504332340.453,21.973,49.805,55.664,46.875,80.078,0
1504332340.456,19.531,39.551,44.922,42.969,77.637,0
1504332340.460,28.320,30.762,50.781,33.203,50.293,0
1504332340.464,47.363,36.621,56.641,61.523,86.914,0
1504332340.468,28.809,36.621,51.270,60.059,120.117,0
1504332340.472,30.273,40.039,44.434,37.598,80.078,0
1504332340.476,61.523,40.039,53.711,51.758,72.266,0
1504332340.480,74.219,51.758,62.012,78.125,76.172,0
1504332340.484,84.961,66.895,72.754,91.797,78.613,0
1504332340.488,50.293,35.156,52.734,60.059,92.285,0
1504332340.492,21.973,9.277,6.348,20.996,67.383,0
1504332340.496,18.555,30.762,14.160,28.320,65.430,0
1504332340.499,20.020,37.109,36.133,35.645,44.434,0
1504332340.503,30.273,30.273,31.738,31.738,52.246,0
1504332340.507,57.129,58.594,65.918,47.363,90.820,0
1504332340.511,58.105,64.453,79.590,49.316,74.219,0
1504332340.515,45.898,62.012,75.684,46.387,52.246,0
1504332340.519,54.688,58.594,71.777,63.477,86.914,0
1504332340.523,54.688,44.434,49.805,73.730,120.117,0
1504332340.527,31.738,47.852,42.480,47.363,79.102,0
1504332340.531,52.246,21.484,40.527,41.992,71.777,0
1504332340.535,66.895,4.883,43.945,50.293,98.633,0
1504332340.538,27.344,34.180,56.641,41.992,122.559,0
1504332340.542,19.531,55.664,62.988,46.875,114.258,0
1504332340.546,31.738,65.918,54.688,40.527,90.820,0
1504332340.550,29.785,42.480,48.340,20.020,107.910,0
1504332340.554,27.344,30.273,46.387,20.996,122.559,0
1504332340.558,16.602,36.133,47.852,30.273,117.188,0
1504332340.562,25.391,32.227,16.602,22.461,79.102,4
1504332340.566,45.898,47.363,14.648,30.762,72.754,0
1504332340.570,41.992,72.754,64.941,61.523,125.488,0
1504332340.574,35.156,62.988,64.453,54.688,152.344,0
1504332340.578,39.062,39.551,60.547,16.602,121.094,0
1504332340.581,17.090,37.109,52.734,5.371,126.465,0
1504332340.585,29.297,42.969,46.875,22.949,164.062,0
1504332340.589,37.109,38.086,54.199,22.461,140.137,0
1504332340.593,23.438,21.484,20.996,24.414,123.535,0
1504332340.597,43.945,32.227,0.977,30.273,133.789,0
1504332340.601,36.621,63.477,43.945,36.133,170.410,0
1504332340.605,31.250,58.105,71.777,31.250,190.918,0
1504332340.609,57.617,32.227,44.434,38.574,170.898,0
1504332340.613,61.523,14.648,31.250,45.898,155.762,0
1504332340.617,53.711,29.297,44.922,35.156,198.730,0
1504332340.621,57.129,41.504,36.621,34.180,223.145,0
1504332340.624,48.340,36.621,50.293,41.016,205.078,0
1504332340.628,41.504,41.016,71.289,48.340,183.594,0
1504332340.632,51.270,42.480,52.734,40.039,176.270,0
1504332340.636,41.504,62.012,30.762,25.391,183.594,0
1504332340.640,40.527,55.664,35.645,28.809,183.594,0
1504332340.644,40.039,45.898,48.828,42.969,174.805,0
1504332340.648,36.621,50.293,43.457,33.691,175.293,0
1504332340.652,55.176,48.340,51.270,30.273,207.031,0
1504332340.656,58.105,52.246,52.246,27.832,208.984,0
1504332340.660,64.941,62.988,33.203,36.133,208.008,0
1504332340.663,73.242,47.852,18.066,32.227,173.828,0
1504332340.667,54.199,44.922,37.109,26.367,166.992,0
1504332340.671,44.922,67.383,35.645,30.273,205.078,0
1504332340.675,42.480,80.078,21.973,34.668,166.992,0
1504332340.679,32.715,49.316,47.852,28.809,128.906,0
1504332340.683,44.434,29.297,68.359,35.645,130.859,0
1504332340.687,63.477,54.688,74.707,51.270,138.672,0
1504332340.691,48.340,48.340,51.270,42.969,164.062,0
1504332340.695,36.621,45.410,36.621,36.133,117.676,0
1504332340.699,36.621,32.227,42.969,26.367,101.562,0
1504332340.703,24.414,25.391,52.246,28.809,165.527,0
1504332340.706,33.203,52.734,55.176,47.852,166.992,0
1504332340.710,61.035,67.871,72.754,69.336,131.836,0
1504332340.714,38.574,53.223,69.336,48.340,110.352,0
1504332340.718,17.090,21.973,42.480,24.902,109.375,0
1504332340.722,45.898,2.930,45.898,50.781,116.211,0
1504332340.726,74.707,25.879,61.523,76.172,90.332,0
1504332340.730,78.613,62.500,65.918,66.895,76.660,0
1504332340.734,50.781,38.574,39.551,53.711,105.957,0
1504332340.738,46.387,28.320,32.715,48.828,135.254,0
1504332340.742,48.828,54.199,59.082,44.922,114.746,0
1504332340.746,51.270,41.504,63.965,41.016,95.215,0
1504332340.749,56.152,32.227,38.086,39.062,81.543,0
1504332340.753,58.105,41.992,33.203,46.387,83.008,0
1504332340.757,47.852,48.828,57.129,45.410,62.012,0
1504332340.761,35.645,36.621,55.664,39.062,38.086,0
1504332340.765,25.879,22.949,29.785,18.066,52.734,0
1504332340.769,44.434,42.969,15.137,20.020,53.223,0
1504332340.773,62.500,43.457,29.785,30.273,36.133,0
1504332340.777,54.688,34.180,63.477,34.668,36.621,0
1504332340.781,40.039,38.574,62.988,30.762,49.805,0
1504332340.785,21.973,45.410,39.551,23.438,59.082,0
1504332340.788,33.203,58.105,46.875,50.293,66.406,0
1504332340.792,57.129,57.617,78.125,71.777,57.617,0
1504332340.796,44.434,43.457,73.730,47.363,47.852,0
1504332340.800,18.555,24.902,46.387,42.480,14.648,0
1504332340.804,17.090,22.461,30.273,45.898,17.090,0
1504332340.808,33.691,44.434,33.203,53.223,33.691,0
1504332340.812,60.547,63.965,62.500,74.219,30.762,0
1504332340.816,53.711,49.805,64.941,60.059,38.574,0
1504332340.820,57.129,34.180,51.270,61.523,58.105,0
1504332340.824,65.430,45.410,41.504,60.059,81.055,0
1504332340.828,50.293,52.246,33.203,38.086,38.086,0
1504332340.831,39.551,34.668,69.336,37.598,3.418,0
1504332340.835,30.273,27.344,69.824,34.668,41.016,0
1504332340.839,56.152,47.363,49.805,57.617,75.195,0
1504332340.843,73.242,48.340,57.129,71.289,51.758,0
1504332340.847,50.781,22.949,57.617,43.945,22.949,0
1504332340.851,60.547,21.973,64.453,55.664,38.086,0
1504332340.855,52.734,41.016,61.035,51.270,52.246,0
1504332340.859,31.250,60.059,45.898,47.852,12.695,0
1504332340.863,27.832,59.570,44.922,53.223,-27.344,0
1504332340.867,22.949,34.668,43.457,42.480,-3.418,0
1504332340.871,19.531,37.598,52.246,49.805,41.016,0
1504332340.874,19.531,42.969,57.129,46.875,67.871,0
1504332340.878,33.691,41.992,68.359,45.898,40.039,0
1504332340.882,44.922,41.016,79.590,55.664,52.734,0
1504332340.886,41.504,21.484,56.641,62.988,111.328,0
1504332340.890,27.344,17.578,32.715,56.641,105.957,0
1504332340.894,10.742,11.230,37.598,34.668,83.984,0
1504332340.898,20.508,14.648,49.805,43.457,108.887,0
1504332340.902,29.785,26.367,53.711,59.082,155.762,0
1504332340.906,29.297,45.898,66.895,54.688,164.551,0
1504332340.910,34.668,60.547,70.801,44.434,132.812,0
1504332340.913,32.227,37.598,51.758,27.832,138.184,0
1504332340.917,11.719,20.020,28.809,14.160,162.598,0
1504332340.921,20.508,34.668,37.109,44.434,179.199,0
1504332340.925,36.621,44.922,53.711,54.688,166.992,0
1504332340.929,29.785,30.762,56.152,36.133,147.461,0
1504332340.933,23.438,44.922,61.035,34.180,160.156,0
1504332340.937,25.391,31.250,53.711,23.438,169.434,0
1504332340.941,29.297,-4.395,50.781,20.996,189.941,0
1504332340.945,24.414,31.250,45.410,19.043,191.895,0
1504332340.949,21.973,63.477,44.434,22.949,176.758,0
1504332340.953,40.527,55.176,71.289,40.527,219.727,0
1504332340.956,38.574,28.320,58.594,34.180,281.250,0
1504332340.960,22.461,14.648,37.109,12.695,269.043,0
1504332340.964,12.695,36.133,31.738,10.742,245.605,0
1504332340.968,15.137,29.297,6.348,11.719,262.207,0
1504332340.972,40.039,15.625,8.301,16.602,333.496,0
1504332340.976,54.688,24.414,41.992,28.809,383.301,0
1504332340.980,49.805,29.297,64.453,38.086,416.992,0
1504332340.984,36.133,26.855,59.570,28.809,448.730,0
1504332340.988,18.066,40.039,39.551,16.113,510.254,0
1504332340.992,-0.488,32.715,34.668,24.902,579.590,0
1504332340.996,-10.742,12.207,29.785,37.109,571.777,0
1504332340.999,3.906,36.133,29.785,43.457,642.578,0
1504332341.003,28.320,41.992,45.410,39.062,731.445,0
1504332341.007,21.484,38.086,32.227,24.414,755.859,0
1504332341.011,-18.066,-3.906,1.953,-11.719,788.574,0
1504332341.015,-29.297,-37.598,3.906,-15.625,857.910,0
1504332341.019,5.371,-0.977,31.738,10.742,942.383,0
1504332341.023,28.809,39.062,85.449,25.879,979.004,0
1504332341.027,30.273,46.875,73.242,25.391,987.793,0
1504332341.031,33.691,61.523,52.734,20.020,996.094,0
1504332341.035,52.246,73.242,71.289,25.391,-1000.000,0
1504332341.038,48.340,37.598,46.387,29.297,999.023,0
1504332341.042,39.551,28.809,32.715,25.879,999.512,0
1504332341.046,44.922,29.785,38.086,23.438,999.512,0
1504332341.050,46.387,33.691,40.527,27.344,999.512,0
1504332341.054,58.594,44.922,54.199,44.434,999.512,0
1504332341.058,50.293,30.273,38.086,38.086,999.512,0
1504332341.062,50.293,30.762,11.230,30.762,999.512,5
1504332341.066,59.082,37.109,20.996,52.734,999.512,0
1504332341.070,41.504,26.367,47.363,41.504,999.512,0
1504332341.074,57.617,22.949,58.594,33.691,999.512,0
1504332341.078,70.312,49.805,57.617,47.363,999.512,0
1504332341.081,56.152,67.871,48.340,44.922,999.512,0
1504332341.085,62.500,48.828,43.457,39.062,999.512,0
1504332341.089,74.219,72.754,54.688,55.176,999.512,0
1504332341.093,80.566,86.426,38.574,67.871,999.512,0
1504332341.097,70.312,59.570,5.371,51.270,999.512,0
1504332341.101,64.453,35.156,25.879,53.223,999.512,0
1504332341.105,76.172,19.531,66.895,65.430,999.512,0
1504332341.109,68.359,18.555,72.754,72.754,999.512,0
1504332341.113,53.711,30.762,60.547,63.477,999.512,0
1504332341.117,59.570,39.062,53.711,63.965,999.512,0
1504332341.121,49.316,43.457,6.348,76.172,999.512,0
1504332341.124,39.551,56.641,-20.020,78.125,999.512,0
1504332341.128,62.988,60.547,55.176,93.750,999.512,0
1504332341.132,55.176,62.500,94.238,88.379,999.512,0
1504332341.136,32.715,39.551,52.246,65.918,999.512,0
1504332341.140,25.879,20.020,49.316,50.781,999.512,0
1504332341.144,27.344,35.156,67.383,59.082,999.512,0
1504332341.148,18.066,31.738,62.012,60.547,999.512,0
1504332341.152,20.020,26.367,52.734,41.992,998.047,0
1504332341.156,22.949,37.109,59.082,44.922,-999.023,0
1504332341.160,27.344,38.086,63.477,51.758,994.629,0
1504332341.163,36.133,44.922,57.129,58.594,965.332,0
1504332341.167,34.180,60.059,38.086,57.129,944.824,0
1504332341.171,56.152,52.246,34.668,49.805,957.520,0
1504332341.175,78.125,36.133,37.598,59.082,923.828,0
1504332341.179,65.918,28.320,16.602,51.758,850.098,0
1504332341.183,64.941,37.109,48.340,63.477,836.426,0
1504332341.187,73.242,39.062,79.102,89.355,855.957,0
1504332341.191,61.035,24.414,71.777,79.590,822.754,0
1504332341.195,49.316,40.039,67.871,64.453,748.535,0
1504332341.199,42.969,49.805,60.059,55.176,745.605,0
1504332341.203,66.406,43.457,48.340,68.848,736.816,0
1504332341.206,77.148,39.551,42.969,76.660,660.156,0
1504332341.210,55.664,30.273,39.062,62.012,624.512,0
1504332341.214,61.523,49.316,33.691,62.988,615.234,0
1504332341.218,87.891,54.688,38.086,73.730,582.031,0
1504332341.222,107.910,44.434,36.621,97.168,547.363,0
1504332341.226,108.887,49.805,35.645,96.680,506.348,0
1504332341.230,95.703,34.668,35.645,72.754,469.727,0
1504332341.234,47.852,29.297,23.438,54.688,451.172,0
1504332341.238,38.574,42.969,50.781,44.922,425.781,0
1504332341.242,46.387,28.320,58.594,49.805,377.441,0
1504332341.246,34.180,28.320,42.969,55.664,333.984,0
1504332341.249,45.898,40.039,52.246,61.035,288.086,0
1504332341.253,51.270,31.250,28.320,66.895,261.230,0
1504332341.257,41.992,41.504,28.809,53.711,237.793,0
1504332341.261,54.688,46.387,58.594,48.828,193.848,0
1504332341.265,63.965,35.156,70.801,62.500,157.715,0
1504332341.269,36.621,10.742,48.340,57.617,120.605,0
1504332341.273,34.668,17.090,59.570,41.504,137.207,0
1504332341.277,44.434,24.902,67.383,45.898,82.520,0
1504332341.281,36.621,13.672,45.410,52.734,20.508,0
1504332341.285,45.410,31.250,37.109,50.293,31.250,0
1504332341.288,58.594,52.246,60.547,59.570,47.363,0
1504332341.292,47.852,57.617,75.195,67.383,3.906,0
1504332341.296,44.922,42.969,60.059,53.223,-62.012,0
1504332341.300,50.781,42.480,47.363,61.035,-44.922,0
1504332341.304,39.062,28.320,24.414,53.223,-26.855,0
1504332341.308,43.945,30.762,29.785,51.270,-74.219,0
1504332341.312,51.270,35.156,42.969,61.523,-131.348,0
1504332341.316,70.801,-8.301,47.852,78.613,-180.664,0
1504332341.320,76.660,-31.250,47.363,73.730,-209.961,0
1504332341.324,61.523,11.719,52.246,53.711,-234.863,0
1504332341.328,69.824,59.082,55.176,51.270,-297.363,0
1504332341.331,60.059,53.223,46.387,39.062,-331.055,0
1504332341.335,61.523,46.875,43.457,46.875,-333.984,0
1504332341.339,58.594,51.270,40.039,45.410,-387.695,0
1504332341.343,55.176,52.246,24.902,43.945,-463.867,0
1504332341.347,62.012,44.922,20.996,43.457,-481.445,0
1504332341.351,42.969,30.762,20.508,36.621,-461.426,0
1504332341.355,35.156,14.160,36.133,47.852,-472.656,0
1504332341.359,61.523,26.855,80.566,70.312,-522.949,0
1504332341.363,37.109,39.551,53.223,34.180,-547.363,0
1504332341.367,11.230,17.090,23.438,10.742,-555.664,0
1504332341.371,24.414,25.879,47.363,36.621,-550.781,0
1504332341.374,27.832,74.219,54.688,46.875,-574.707,0
1504332341.378,35.645,75.684,52.734,47.852,-586.426,0
1504332341.382,43.457,61.035,57.617,46.875,-585.938,0
1504332341.386,40.527,44.434,50.293,52.734,-611.328,0
1504332341.390,48.828,15.137,46.387,64.453,-606.445,0
1504332341.394,62.500,45.898,46.875,68.848,-610.352,0
1504332341.398,38.574,56.152,47.852,49.805,-634.766,0
1504332341.402,24.902,50.293,51.270,19.043,-637.695,0
1504332341.406,40.527,65.918,57.617,44.434,-633.789,0
1504332341.410,54.688,48.340,62.012,66.895,-616.211,0
1504332341.413,52.246,39.062,60.547,43.945,-648.926,0
1504332341.417,48.828,49.805,63.965,54.688,-678.223,0
1504332341.421,41.016,55.664,61.523,54.199,-619.629,0
1504332341.425,34.668,52.246,60.547,29.785,-608.887,0
1504332341.429,52.246,50.293,73.730,48.340,-672.363,0
1504332341.433,59.082,40.039,64.941,58.105,-675.781,0
1504332341.437,63.477,43.945,57.617,55.664,-620.605,0
1504332341.441,76.660,59.082,51.270,63.965,-620.117,0
1504332341.445,59.570,73.730,27.344,53.711,-654.785,0
1504332341.449,47.852,23.926,25.879,33.203,-642.578,0
1504332341.453,61.035,-13.184,65.430,53.223,-623.535,0
1504332341.456,69.336,41.016,86.426,72.266,-617.188,0
1504332341.460,59.082,64.453,69.336,53.223,-659.668,0
1504332341.464,53.223,49.805,66.406,53.223,-683.105,0
1504332341.468,59.570,46.387,41.504,60.547,-619.629,0
1504332341.472,66.406,59.570,35.645,57.129,-608.887,0
1504332341.476,57.129,63.965,69.336,64.941,-646.973,0
1504332341.480,51.270,61.523,63.477,54.688,-664.062,0
1504332341.484,48.828,62.988,40.527,38.574,-651.855,0
1504332341.488,46.387,37.598,1.465,31.250,-600.098,0
1504332341.492,57.617,19.043,7.812,23.438,-587.891,0
1504332341.496,42.969,35.156,68.848,40.039,-618.652,0
1504332341.499,26.367,36.621,76.172,41.016,-606.445,0
1504332341.503,37.109,38.574,32.227,32.715,-587.891,0
1504332341.507,41.016,41.992,21.973,46.875,-618.164,0
1504332341.511,21.973,48.828,47.852,53.711,-647.949,0
1504332341.515,17.090,51.758,65.430,40.527,-622.070,0
1504332341.519,39.551,66.406,59.082,37.598,-595.215,0
1504332341.523,44.434,66.406,52.246,47.852,-613.770,0
1504332341.527,38.574,28.809,53.223,38.086,-593.750,0
1504332341.531,36.133,13.672,34.180,35.156,-568.848,0
1504332341.535,35.156,41.504,26.855,43.945,-581.543,0
1504332341.538,50.781,68.359,59.082,48.828,-561.523,0
