timestamps,TP9,AF7,AF8,TP10,Right AUX,Marker0
1510137834.540,54.688,-7.812,41.504,18.555,-27.832,0
1510137834.544,36.621,14.648,39.062,27.832,-54.199,0
1510137834.548,20.996,62.988,18.555,8.301,-60.547,0
1510137834.551,15.625,55.664,15.137,0.488,-29.785,0
1510137834.555,20.508,31.738,17.578,0.977,-37.109,0
1510137834.559,24.902,36.621,12.207,16.113,-28.320,0
1510137834.563,30.273,56.641,19.043,24.902,-33.203,0
1510137834.567,36.621,42.969,24.902,23.438,-5.859,0
1510137834.571,42.480,3.418,27.344,28.320,23.438,0
1510137834.575,59.082,8.301,39.551,40.527,12.695,0
1510137834.579,52.246,38.086,32.715,32.227,-8.789,0
1510137834.583,27.832,63.477,17.090,24.414,29.785,0
1510137834.587,42.969,50.293,16.113,19.531,52.734,0
1510137834.591,71.289,6.348,23.926,21.484,55.664,0
1510137834.594,39.062,22.461,26.855,25.879,53.223,0
1510137834.598,5.371,51.758,25.879,20.508,23.438,0
1510137834.602,8.789,57.129,24.414,18.066,59.082,0
1510137834.606,25.391,62.988,21.484,7.812,10.742,0
1510137834.610,36.621,36.133,20.996,-1.465,-17.578,0
1510137834.614,33.203,30.273,18.066,6.836,53.711,0
1510137834.618,23.438,58.105,21.484,16.113,61.035,0
1510137834.622,22.461,36.133,26.855,18.555,76.660,0
1510137834.626,28.320,25.391,26.367,16.113,89.355,0
1510137834.630,25.391,51.758,17.090,15.137,77.637,0
1510137834.634,26.855,51.270,14.160,12.207,77.637,0
1510137834.637,39.062,26.855,22.461,7.324,78.613,0
1510137834.641,40.527,4.883,32.227,29.297,103.516,0
1510137834.645,33.203,-2.441,37.598,33.691,115.723,0
1510137834.649,19.043,13.184,32.715,21.484,106.445,0
1510137834.653,11.230,45.898,32.227,26.367,89.844,0
1510137834.657,17.090,59.082,32.715,21.484,92.773,0
1510137834.661,22.461,18.555,36.621,24.414,101.074,0
1510137834.665,29.297,6.348,28.320,20.996,111.816,0
1510137834.669,27.344,47.852,18.555,5.371,125.488,0
1510137834.673,13.672,58.105,16.602,10.254,112.305,0
1510137834.676,11.230,55.664,12.207,11.719,132.812,0
1510137834.680,19.531,32.715,18.555,0.488,82.031,0
1510137834.684,14.648,-3.906,26.367,0.488,41.016,0
1510137834.688,12.207,20.996,26.367,1.953,110.840,0
1510137834.692,13.672,59.082,26.367,15.137,81.543,0
1510137834.696,8.789,65.430,25.391,15.137,70.312,0
1510137834.700,7.324,52.246,16.602,16.113,113.770,0
1510137834.704,29.297,35.645,20.996,32.715,106.445,0
1510137834.708,36.621,40.527,26.367,24.902,108.887,0
1510137834.712,25.391,31.738,20.996,15.137,63.965,0
1510137834.716,31.738,1.953,23.926,13.672,94.238,0
1510137834.719,42.480,0.488,23.438,14.160,137.695,0
1510137834.723,20.508,20.020,22.461,9.766,103.516,0
1510137834.727,17.578,9.766,27.344,23.926,133.789,0
1510137834.731,38.086,30.762,22.461,23.438,156.738,0
1510137834.735,21.973,59.570,14.160,3.906,161.133,0
1510137834.739,17.090,66.895,14.648,7.812,130.859,0
1510137834.743,19.043,65.430,9.277,-0.977,96.680,0
1510137834.747,21.973,41.992,11.719,3.906,138.184,0
1510137834.751,31.250,19.531,26.855,18.555,131.836,0
1510137834.755,48.340,20.508,38.086,21.973,71.289,0
1510137834.759,50.781,31.738,25.879,28.320,92.285,0
1510137834.762,41.016,42.969,15.625,22.949,113.281,0
1510137834.766,33.203,29.297,17.090,21.973,87.891,0
1510137834.770,34.668,1.953,24.902,20.020,86.914,0
1510137834.774,40.039,27.832,30.273,28.809,68.848,0
1510137834.778,43.945,60.547,32.227,32.715,70.312,0
1510137834.782,56.152,60.059,31.738,32.227,72.754,0
1510137834.786,62.012,61.035,30.273,31.250,78.613,0
1510137834.790,62.988,61.035,31.250,29.785,71.289,0
1510137834.794,39.551,39.062,30.273,33.691,43.945,0
1510137834.798,24.902,24.414,35.156,34.668,45.898,0
1510137834.801,33.691,13.184,33.203,30.273,61.035,0
1510137834.805,37.598,8.301,34.180,33.203,36.621,0
1510137834.809,42.969,22.461,45.898,43.457,55.176,0
1510137834.813,41.992,38.574,34.180,28.809,62.500,0
1510137834.817,47.852,16.602,28.809,15.625,4.883,0
1510137834.821,51.758,-15.137,40.039,34.668,40.039,0
1510137834.825,37.598,48.828,29.297,27.344,65.430,0
1510137834.829,37.109,105.957,16.113,7.324,32.715,0
1510137834.833,39.551,90.820,11.719,7.812,27.344,0
1510137834.837,29.785,71.289,15.625,16.602,55.664,0
1510137834.841,17.578,34.668,20.020,17.090,52.246,0
1510137834.844,24.902,-6.348,31.738,29.297,-20.020,0
1510137834.848,50.781,19.043,38.574,32.715,15.137,0
1510137834.852,38.574,53.711,25.879,19.043,86.426,0
1510137834.856,27.344,41.016,22.949,20.020,34.668,0
1510137834.860,42.480,31.738,29.785,27.832,10.254,0
1510137834.864,65.918,46.387,35.156,42.969,24.902,0
1510137834.868,55.664,48.340,33.691,35.156,59.570,0
1510137834.872,39.551,53.711,27.832,20.996,32.227,0
1510137834.876,48.340,62.988,29.297,18.555,32.715,0
1510137834.880,48.828,20.508,41.504,37.598,41.504,0
1510137834.884,51.758,-27.344,42.480,43.457,-0.977,0
1510137834.887,45.410,17.090,30.762,24.902,19.043,0
1510137834.891,49.805,64.941,34.668,37.109,-7.812,0
1510137834.895,57.129,63.965,32.227,31.738,-4.883,0
1510137834.899,61.035,32.715,20.020,6.348,43.945,0
1510137834.903,57.129,13.184,18.066,7.812,22.949,0
1510137834.907,37.598,43.945,22.461,17.578,22.461,0
1510137834.911,35.645,39.062,24.902,24.414,42.480,0
1510137834.915,41.992,-0.488,30.762,29.785,51.270,0
1510137834.919,46.875,18.555,29.297,23.438,52.734,0
1510137834.923,43.945,55.664,20.508,11.719,39.551,0
1510137834.926,59.570,64.453,18.555,8.301,62.012,0
1510137834.930,47.363,46.875,24.414,8.789,73.242,0
1510137834.934,3.418,42.480,23.438,4.395,43.457,0
1510137834.938,19.531,39.551,14.648,-1.465,79.102,0
1510137834.942,42.969,43.945,20.020,12.207,96.191,0
1510137834.946,22.949,56.641,28.320,25.879,68.359,0
1510137834.950,15.137,27.344,24.414,20.508,31.738,0
1510137834.954,35.156,-0.488,25.391,24.902,41.504,0
1510137834.958,45.898,16.602,28.809,27.344,84.473,0
1510137834.962,46.387,43.945,26.367,21.973,80.078,0
1510137834.966,41.992,49.316,27.344,23.438,73.242,0
1510137834.969,51.758,39.551,33.691,26.855,91.797,0
1510137834.973,46.387,23.926,36.621,27.832,103.516,0
1510137834.977,28.809,35.645,32.227,19.531,65.430,0
1510137834.981,35.156,45.898,39.062,25.879,49.316,0
1510137834.985,43.457,47.363,39.062,36.621,62.988,0
1510137834.989,51.758,32.715,33.203,42.969,80.078,0
1510137834.993,64.453,5.371,33.203,38.086,47.363,0
1510137834.997,75.195,-12.695,42.480,39.551,-11.719,0
1510137835.001,61.035,-5.371,47.363,54.688,27.832,0
1510137835.005,36.133,37.598,31.738,32.715,37.109,0
1510137835.009,33.203,60.059,21.973,14.648,14.648,0
1510137835.012,30.273,59.082,18.066,11.719,12.695,0
1510137835.016,25.879,53.711,21.973,12.695,15.137,0
1510137835.020,26.367,55.664,24.414,22.949,4.395,0
1510137835.024,31.738,64.941,21.973,22.949,-36.133,0
1510137835.028,44.434,56.641,23.926,19.043,-71.777,0
1510137835.032,50.293,47.363,25.879,21.484,-61.035,0
1510137835.036,45.410,36.621,27.344,26.367,-32.715,0
1510137835.040,49.316,13.184,24.902,29.785,-42.480,0
1510137835.044,50.781,1.465,24.414,25.879,-38.574,0
1510137835.048,34.180,-3.906,28.320,41.016,14.160,0
1510137835.051,45.898,17.090,36.621,43.945,5.859,0
1510137835.055,53.223,48.828,36.133,30.762,-40.527,0
1510137835.059,42.969,50.781,20.996,24.902,-69.336,0
1510137835.063,50.781,41.504,16.113,21.973,-22.949,0
1510137835.067,50.293,34.180,19.531,24.902,15.137,0
1510137835.071,49.316,31.250,22.461,34.180,-6.348,0
1510137835.075,53.711,25.391,32.227,41.992,-22.949,0
1510137835.079,50.293,15.625,31.738,38.574,-54.688,0
1510137835.083,43.945,37.109,22.461,23.438,-29.785,0
1510137835.087,55.176,51.270,37.109,35.645,-50.781,0
1510137835.091,61.523,20.996,42.480,49.805,-15.625,0
1510137835.094,70.312,13.672,31.250,36.621,11.719,0
1510137835.098,57.617,56.152,26.367,23.926,-25.391,0
1510137835.102,24.902,67.383,21.484,9.766,-19.531,0
1510137835.106,10.742,59.570,20.996,10.742,-21.973,0
1510137835.110,24.902,55.664,20.508,7.812,-28.320,0
1510137835.114,40.527,38.574,20.020,10.254,-42.969,0
1510137835.118,36.621,16.602,23.926,21.973,-29.297,0
1510137835.122,35.156,-0.977,31.738,26.855,-12.695,0
1510137835.126,44.434,-13.672,38.086,22.949,21.973,0
1510137835.130,39.062,0.000,43.945,24.414,-17.578,0
1510137835.134,23.926,37.598,40.039,28.809,-34.180,0
1510137835.137,19.043,51.270,27.832,12.695,12.207,0
1510137835.141,20.996,49.316,21.973,5.859,6.836,0
1510137835.145,24.414,45.898,21.973,6.836,-4.883,0
1510137835.149,17.090,38.086,24.902,5.859,-10.742,0
1510137835.153,24.902,36.621,24.902,3.418,-0.977,0
1510137835.157,38.086,-2.930,22.949,-7.324,6.836,0
1510137835.161,30.762,-38.574,30.273,10.254,15.625,0
1510137835.165,29.297,-3.906,31.738,21.973,-3.418,0
1510137835.169,25.391,55.176,26.855,10.742,-26.855,0
1510137835.173,31.738,77.148,19.531,-1.953,-17.578,0
1510137835.176,44.922,67.383,20.508,-1.953,-33.203,0
1510137835.180,31.250,59.082,26.367,23.438,-2.930,0
1510137835.184,22.949,48.340,20.020,28.809,36.133,0
1510137835.188,28.809,36.133,16.113,5.371,-24.902,0
1510137835.192,28.320,13.184,23.926,-1.953,-22.949,0
1510137835.196,39.062,-23.926,31.250,19.531,22.949,0
1510137835.200,62.500,-54.199,42.969,41.016,31.250,0
1510137835.204,56.152,-40.039,42.480,27.832,14.648,0
1510137835.208,37.109,41.016,37.598,27.344,12.207,0
1510137835.212,27.344,79.590,32.227,19.531,32.715,0
1510137835.216,26.367,68.359,23.926,12.695,23.438,0
1510137835.219,41.016,73.730,26.855,20.020,-7.812,0
1510137835.223,41.504,66.406,22.949,8.301,-7.324,0
1510137835.227,39.551,34.180,20.996,5.371,24.414,0
1510137835.231,33.691,23.438,16.113,0.488,27.832,0
1510137835.235,23.926,35.645,17.090,11.719,-22.461,0
1510137835.239,32.227,12.207,22.461,14.160,-27.832,0
1510137835.243,38.574,-8.789,34.180,6.836,30.762,0
1510137835.247,41.504,25.879,33.691,12.207,21.484,0
1510137835.251,47.852,48.340,20.508,7.324,14.648,0
1510137835.255,43.945,48.828,26.855,15.137,38.086,0
1510137835.259,52.246,30.762,41.992,34.180,49.805,0
1510137835.262,36.133,23.926,34.668,20.996,62.012,0
1510137835.266,18.066,57.129,28.320,12.207,25.879,0
1510137835.270,37.109,54.688,38.086,24.902,15.137,0
1510137835.274,40.039,11.719,32.227,15.137,56.641,0
1510137835.278,39.062,16.602,29.785,16.113,49.805,0
1510137835.282,44.922,57.129,32.227,26.367,38.574,0
1510137835.286,45.898,29.297,33.691,32.715,33.203,0
1510137835.290,38.574,-9.277,37.598,33.203,30.762,0
1510137835.294,46.387,17.090,41.016,28.320,29.297,0
1510137835.298,48.340,57.129,36.133,26.367,48.340,0
1510137835.301,38.574,65.430,27.832,28.320,59.082,0
1510137835.305,35.156,46.387,28.809,27.832,40.527,0
1510137835.309,39.062,47.852,30.273,18.555,-6.836,0
1510137835.313,50.293,45.410,24.902,5.859,5.371,0
1510137835.317,50.293,8.301,34.180,15.625,68.848,0
1510137835.321,41.504,-15.137,39.551,39.062,39.062,0
1510137835.325,37.109,24.414,35.156,41.504,39.551,0
1510137835.329,41.016,69.824,28.809,25.879,36.133,0
1510137835.333,15.137,62.012,14.160,4.395,15.625,0
1510137835.337,-4.395,65.430,13.184,0.488,35.156,0
1510137835.341,10.254,39.551,16.602,16.113,39.062,0
1510137835.344,35.645,0.488,29.297,18.555,-7.812,0
1510137835.348,51.758,21.973,38.574,11.719,-6.836,0
1510137835.352,42.480,40.527,31.250,14.160,5.859,0
1510137835.356,21.973,46.387,22.461,7.812,-35.156,0
1510137835.360,19.043,52.246,17.090,6.836,-20.020,0
1510137835.364,40.527,43.945,14.160,9.766,-1.953,0
1510137835.368,72.754,40.039,10.254,6.348,11.719,0
1510137835.372,53.223,54.688,5.371,18.555,-19.043,0
1510137835.376,20.508,54.688,3.906,25.391,-33.203,0
1510137835.380,54.199,24.414,14.648,26.367,11.719,0
1510137835.384,60.059,27.832,19.043,20.996,0.000,0
1510137835.387,32.715,25.879,16.113,21.973,-19.531,0
1510137835.391,35.156,20.020,17.090,40.039,-4.883,0
1510137835.395,44.922,38.086,18.555,35.156,15.137,0
1510137835.399,51.758,25.391,15.625,27.832,6.348,0
1510137835.403,63.477,35.156,18.066,30.762,3.418,0
1510137835.407,57.617,41.992,26.367,29.297,1.953,0
1510137835.411,34.668,25.879,21.973,38.086,3.418,0
1510137835.415,41.504,29.297,28.320,41.504,-13.672,0
1510137835.419,47.363,52.246,28.320,32.227,-75.684,0
1510137835.423,40.527,59.082,14.160,34.180,-37.109,0
1510137835.426,42.969,35.156,12.207,26.367,14.648,0
1510137835.430,48.828,21.484,23.438,26.367,2.930,0
1510137835.434,56.641,20.996,27.832,29.785,21.484,0
1510137835.438,44.434,15.137,20.508,15.625,42.480,0
1510137835.442,56.152,-10.254,23.926,25.391,33.203,0
1510137835.446,70.801,14.648,24.902,38.574,13.672,0
1510137835.450,52.246,67.871,16.113,34.668,11.230,0
1510137835.454,35.645,86.914,18.555,43.457,7.812,0
1510137835.458,33.691,89.844,25.391,38.086,10.254,0
1510137835.462,50.781,52.734,18.555,23.438,-18.555,0
1510137835.466,83.008,-11.230,16.602,23.438,2.930,0
1510137835.469,96.191,-40.527,24.414,36.133,38.574,0
1510137835.473,60.059,6.836,26.855,35.645,14.648,0
1510137835.477,31.738,69.336,22.949,30.762,25.391,0
1510137835.481,38.086,70.312,28.809,49.805,46.875,0
1510137835.485,49.316,46.875,25.879,41.504,31.250,0
1510137835.489,48.340,60.547,15.625,24.414,9.766,0
1510137835.493,40.039,61.523,14.160,21.484,16.602,0
1510137835.497,59.570,39.062,16.602,25.391,20.020,0
1510137835.501,76.172,3.418,31.738,44.922,18.555,0
1510137835.505,61.523,13.184,30.762,42.480,-19.043,0
1510137835.509,47.852,62.500,20.020,42.480,-31.250,0
1510137835.512,34.180,66.895,18.555,38.086,41.504,0
1510137835.516,41.992,27.344,17.578,16.602,59.570,0
1510137835.520,62.012,4.395,17.578,19.043,29.297,0
1510137835.524,54.688,40.039,20.996,28.320,11.230,0
1510137835.528,63.477,93.750,29.297,40.039,-5.371,0
1510137835.532,47.363,81.055,22.949,26.367,3.418,0
1510137835.536,25.879,8.301,15.625,8.301,20.508,0
1510137835.540,45.410,-12.207,23.438,18.555,15.625,0
1510137835.544,49.805,0.977,27.344,27.832,8.301,0
1510137835.548,48.828,-3.418,21.973,24.902,28.809,0
1510137835.551,44.922,42.480,18.066,20.508,2.930,0
1510137835.555,35.156,58.105,20.996,22.949,1.953,0
1510137835.559,42.969,9.766,26.855,23.438,25.879,0
1510137835.563,56.641,24.902,26.855,19.531,6.348,0
1510137835.567,50.781,81.543,28.809,22.461,31.250,0
1510137835.571,43.457,72.754,29.297,19.043,58.105,0
1510137835.575,34.668,40.039,20.508,6.836,41.504,0
1510137835.579,20.020,33.691,16.602,5.371,13.672,0
1510137835.583,21.484,26.855,17.090,12.207,6.836,0
1510137835.587,21.973,34.180,14.160,15.137,20.020,0
1510137835.591,44.434,26.855,15.137,21.484,29.785,0
1510137835.594,68.359,4.883,25.391,31.250,-2.441,0
1510137835.598,35.156,36.621,21.484,9.766,-3.906,0
1510137835.602,34.180,54.199,14.648,-4.395,52.734,0
1510137835.606,48.828,58.105,19.531,3.906,54.688,0
1510137835.610,37.598,31.738,22.949,9.766,34.180,0
1510137835.614,47.363,12.207,27.832,18.555,54.688,0
1510137835.618,59.570,67.871,30.273,25.391,60.059,0
1510137835.622,37.598,65.918,20.020,26.367,32.715,0
1510137835.626,24.414,7.812,11.719,13.184,61.035,0
1510137835.630,34.180,6.348,2.441,0.000,49.316,0
1510137835.634,45.410,79.102,11.719,6.348,44.922,0
1510137835.637,21.973,83.496,15.137,3.906,53.711,0
1510137835.641,8.301,27.832,10.254,2.441,-5.371,0
1510137835.645,25.879,25.879,10.254,11.230,12.207,0
1510137835.649,25.879,40.039,7.812,6.348,80.078,0
1510137835.653,37.598,36.133,14.648,12.207,62.500,0
1510137835.657,18.066,40.039,16.113,11.719,57.617,0
1510137835.661,4.883,57.129,16.113,2.441,77.148,0
1510137835.665,43.945,47.852,18.066,14.648,73.730,0
1510137835.669,71.289,26.367,28.809,28.320,65.430,0
1510137835.673,64.453,27.832,35.156,23.926,92.773,0
1510137835.676,29.297,24.414,26.855,20.020,78.613,0
1510137835.680,14.160,40.039,25.879,20.020,68.848,0
1510137835.684,16.602,61.523,27.832,15.625,67.383,0
1510137835.688,36.133,50.293,24.414,5.371,50.781,0
1510137835.692,44.922,14.648,27.344,9.766,72.266,0
1510137835.696,17.578,-2.930,41.992,43.457,76.172,0
1510137835.700,10.254,23.926,34.180,27.832,67.871,0
1510137835.704,17.578,75.684,17.090,0.000,69.336,0
1510137835.708,11.230,87.402,19.043,5.859,64.453,0
1510137835.712,21.973,59.082,21.973,15.137,78.613,0
1510137835.716,31.738,30.762,18.066,16.113,53.223,0
1510137835.719,39.062,4.883,21.973,15.137,71.777,0
1510137835.723,46.387,14.648,28.809,18.555,103.516,0
1510137835.727,31.738,38.086,28.809,17.090,72.754,0
1510137835.731,31.250,44.434,25.879,13.184,88.379,0
1510137835.735,47.363,56.641,21.484,8.789,106.934,0
1510137835.739,44.922,83.496,14.160,4.883,120.117,0
1510137835.743,51.270,43.945,21.484,1.465,133.301,0
1510137835.747,50.293,-33.691,33.691,25.879,78.613,0
1510137835.751,30.273,15.137,35.156,39.062,88.867,0
1510137835.755,12.207,50.781,29.785,14.648,117.676,0
1510137835.759,-3.906,24.902,20.996,8.789,73.730,0
1510137835.762,36.621,38.086,25.391,25.879,95.215,0
1510137835.766,47.363,57.129,25.879,13.184,133.789,0
1510137835.770,13.184,68.848,19.531,-5.371,105.957,0
1510137835.774,25.391,53.223,29.297,18.555,67.871,0
1510137835.778,36.133,11.719,43.457,36.621,80.566,0
1510137835.782,13.184,17.090,30.273,16.602,99.121,0
1510137835.786,28.809,23.438,22.949,18.066,102.539,0
1510137835.790,48.340,23.926,27.344,19.531,53.711,0
1510137835.794,23.438,69.336,22.949,6.836,36.133,0
1510137835.798,13.672,55.176,21.484,1.465,76.172,0
1510137835.801,47.852,21.973,29.785,11.230,58.105,0
1510137835.805,55.176,19.531,42.969,41.992,50.781,0
1510137835.809,24.902,32.715,38.574,37.598,87.891,0
1510137835.813,30.762,68.848,20.996,6.836,75.195,0
1510137835.817,46.387,78.613,19.531,7.324,50.781,0
1510137835.821,37.598,41.992,29.297,20.020,73.730,0
1510137835.825,31.738,-6.348,41.992,34.668,82.520,0
1510137835.829,19.531,-5.371,40.527,41.016,83.008,0
1510137835.833,39.062,55.664,25.391,26.855,74.707,0
1510137835.837,54.688,84.961,17.578,13.184,72.266,0
1510137835.841,22.461,55.664,12.207,3.418,80.566,0
1510137835.844,33.203,46.387,14.648,5.371,55.664,0
1510137835.848,49.805,16.602,31.738,20.996,48.828,0
1510137835.852,46.387,4.883,36.133,24.414,31.738,0
1510137835.856,69.824,-8.789,36.133,23.926,15.625,0
1510137835.860,47.852,-42.969,35.645,16.602,27.832,0
1510137835.864,48.340,24.414,40.039,27.832,65.430,0
1510137835.868,54.199,105.469,37.598,36.621,51.758,1
1510137835.872,19.531,107.910,11.719,-0.488,44.434,0
1510137835.876,16.602,84.961,5.859,-15.137,58.594,0
1510137835.880,-0.488,59.082,12.207,-0.977,12.695,0
1510137835.884,-13.672,34.668,20.020,9.277,-4.395,0
1510137835.887,4.883,29.785,24.902,7.324,55.664,0
1510137835.891,38.574,15.137,27.344,5.859,44.434,0
1510137835.895,52.246,-26.367,34.180,23.438,3.418,0
1510137835.899,16.113,-15.625,34.180,21.973,15.137,0
1510137835.903,8.789,41.992,26.367,10.254,14.648,0
1510137835.907,27.832,62.012,26.855,15.625,12.207,0
1510137835.911,17.578,46.387,28.809,11.230,27.832,0
1510137835.915,-3.418,40.039,25.391,3.418,26.855,0
1510137835.919,-0.488,53.223,23.926,-1.465,18.555,0
1510137835.923,29.297,35.645,29.297,1.953,-0.977,0
1510137835.926,33.203,0.977,32.715,12.207,-61.523,0
1510137835.930,41.016,7.812,37.109,2.441,-42.969,0
1510137835.934,45.410,39.062,26.367,-4.395,7.812,0
1510137835.938,23.438,47.852,15.137,-7.324,-22.461,0
1510137835.942,2.441,62.012,19.531,-9.766,-36.133,0
1510137835.946,0.977,45.410,21.973,-4.395,-13.672,0
1510137835.950,20.020,28.320,26.367,2.930,-10.254,0
1510137835.954,25.879,23.926,33.691,16.602,-35.156,0
1510137835.958,23.438,4.395,30.762,19.531,-32.227,0
1510137835.962,30.273,12.207,43.945,17.578,-13.184,0
1510137835.966,47.363,8.789,56.152,29.297,-35.156,0
1510137835.969,11.230,-8.789,32.715,14.648,-39.062,0
1510137835.973,2.930,30.273,24.414,2.930,-6.348,0
1510137835.977,27.832,73.242,29.785,3.418,-11.230,0
1510137835.981,9.766,34.180,20.996,-18.555,-9.766,0
1510137835.985,22.461,1.465,18.555,-22.461,-34.668,0
1510137835.989,22.949,45.898,20.996,-11.230,-58.105,0
1510137835.993,-8.301,50.293,24.902,10.254,-10.254,0
1510137835.997,2.441,46.387,27.344,13.672,-35.156,0
1510137836.001,5.859,54.688,26.855,-1.953,-46.875,0
1510137836.005,19.531,24.902,33.691,1.953,-18.555,0
1510137836.009,16.113,0.977,27.344,-7.324,-33.691,0
1510137836.012,21.973,25.391,29.297,-4.395,-31.738,0
1510137836.016,51.270,38.574,41.016,18.066,-75.195,0
1510137836.020,25.879,30.273,27.832,4.883,-75.195,0
1510137836.024,10.742,32.715,24.414,-0.488,-40.527,0
1510137836.028,11.230,25.879,32.715,15.137,-52.734,0
1510137836.032,8.301,37.109,25.879,10.254,-33.691,0
1510137836.036,0.977,64.453,13.672,-6.348,-29.785,0
1510137836.040,-2.930,62.500,11.719,-14.648,-41.504,0
1510137836.044,7.324,37.598,12.695,-25.391,-42.969,0
1510137836.048,24.902,33.691,19.531,-7.324,-54.199,0
1510137836.051,31.250,13.184,34.180,27.344,-67.871,0
1510137836.055,24.414,-4.883,36.621,20.020,-74.707,0
1510137836.059,16.602,32.227,29.785,2.930,-103.516,0
1510137836.063,21.484,-0.488,33.203,8.789,-105.957,0
1510137836.067,26.855,-11.719,40.039,18.066,-27.344,0
1510137836.071,43.457,65.430,46.387,28.320,-28.809,0
1510137836.075,23.438,30.762,37.598,23.438,-84.961,0
1510137836.079,26.855,-3.418,28.320,16.113,-73.242,0
1510137836.083,56.152,27.832,35.645,24.902,-61.523,0
1510137836.087,23.926,58.594,26.855,15.137,-82.031,0
1510137836.091,10.742,74.219,14.160,9.766,-83.984,0
1510137836.094,20.996,64.941,17.578,16.602,-77.637,0
1510137836.098,43.457,38.086,25.879,9.766,-79.102,0
1510137836.102,56.641,11.230,32.715,24.902,-47.852,0
1510137836.106,52.734,-8.789,41.016,44.434,-39.062,0
1510137836.110,56.152,-22.461,44.922,43.457,-79.102,0
1510137836.114,25.879,18.555,31.250,19.531,-50.293,0
1510137836.118,19.531,59.570,21.484,9.766,-43.457,0
1510137836.122,43.945,54.688,23.926,19.043,-62.012,0
1510137836.126,40.039,56.641,34.180,32.715,-39.062,0
1510137836.130,43.945,33.203,41.016,29.785,-18.066,0
1510137836.134,44.434,24.902,33.203,8.301,-24.902,0
1510137836.137,23.926,37.598,28.809,21.973,-62.988,0
1510137836.141,-10.742,28.809,20.996,18.066,-23.926,0
1510137836.145,-7.812,24.902,16.113,-1.465,-11.230,0
1510137836.149,29.297,41.992,17.578,11.230,-33.203,0
1510137836.153,34.180,26.367,26.855,18.066,-45.410,0
1510137836.157,28.809,-15.137,42.480,28.809,-37.109,0
1510137836.161,34.668,16.602,38.574,27.832,-13.184,0
1510137836.165,11.719,70.801,27.344,16.602,-28.809,0
1510137836.169,-1.465,69.336,29.785,20.508,-19.043,0
1510137836.173,26.367,46.875,33.691,21.973,9.766,0
1510137836.176,34.180,-22.461,39.551,36.133,-13.672,0
1510137836.180,33.691,-54.688,46.387,38.086,-1.953,0
1510137836.184,28.320,25.879,43.457,23.926,12.695,0
1510137836.188,18.066,70.312,34.180,19.531,2.441,0
1510137836.192,2.930,85.938,20.996,-5.371,-3.418,0
1510137836.196,-20.020,75.684,14.160,-19.531,-20.020,0
1510137836.200,-20.020,52.734,15.137,-1.465,-25.879,0
1510137836.204,19.531,57.617,19.043,14.648,-11.230,0
1510137836.208,49.316,29.297,31.250,31.250,4.883,0
1510137836.212,33.691,-34.668,38.574,20.020,-18.555,0
1510137836.216,28.809,-46.875,37.109,14.648,0.977,0
1510137836.219,38.574,-6.348,34.668,21.484,33.203,0
1510137836.223,20.020,54.199,22.461,1.953,18.555,0
1510137836.227,18.066,105.469,30.762,11.719,47.363,0
1510137836.231,48.828,68.848,27.344,23.926,60.059,0
1510137836.235,74.219,23.926,26.367,32.227,48.828,0
1510137836.239,41.992,28.809,22.949,32.715,15.137,0
1510137836.243,-9.766,33.691,13.672,12.207,24.414,0
1510137836.247,8.789,17.090,22.461,9.277,28.320,0
1510137836.251,44.434,11.719,31.738,9.766,46.875,0
1510137836.255,50.781,-10.254,36.133,14.160,43.457,0
1510137836.259,34.180,1.465,25.391,14.648,10.254,0
1510137836.262,28.320,79.102,24.414,15.625,51.758,0
1510137836.266,26.367,94.727,32.715,18.555,55.176,0
1510137836.270,22.949,57.617,34.668,18.066,8.301,0
1510137836.274,44.434,20.996,34.180,18.066,-9.277,0
1510137836.278,41.992,-47.852,27.832,10.742,40.527,0
1510137836.282,24.902,1.465,20.508,3.906,65.918,0
1510137836.286,12.695,108.887,25.391,9.277,86.426,0
1510137836.290,12.695,113.281,25.391,6.348,35.156,0
1510137836.294,22.949,83.008,10.254,-1.953,-3.906,0
1510137836.298,9.766,49.316,17.578,8.789,25.879,0
1510137836.301,27.832,-39.062,35.645,26.367,1.465,0
1510137836.305,44.434,-64.941,40.527,40.039,8.301,0
1510137836.309,22.461,24.414,37.109,32.715,42.969,0
1510137836.313,24.414,86.426,32.227,18.066,37.598,0
1510137836.317,8.301,74.219,19.043,2.441,43.945,0
1510137836.321,23.926,22.949,31.250,13.184,48.828,0
1510137836.325,36.621,-15.625,40.527,24.414,48.340,0
1510137836.329,16.602,46.875,23.926,0.977,60.059,0
1510137836.333,0.488,79.102,18.066,-6.348,91.309,0
1510137836.337,2.441,47.363,20.508,-3.418,102.051,0
1510137836.341,20.508,9.766,27.344,-0.977,71.777,0
1510137836.344,16.602,5.859,32.227,2.441,19.531,0
1510137836.348,28.809,49.805,36.133,7.324,-14.160,0
1510137836.352,20.508,76.660,27.344,1.465,37.598,0
1510137836.356,11.719,18.555,11.230,-20.996,61.523,0
1510137836.360,18.555,-5.371,12.695,-21.484,29.785,0
1510137836.364,0.977,51.758,13.672,-18.066,49.805,0
1510137836.368,2.441,67.383,13.672,-16.602,64.941,0
1510137836.372,14.160,24.414,19.043,1.953,81.543,0
1510137836.376,16.602,-1.465,25.879,20.020,72.266,0
1510137836.380,34.180,13.184,30.273,16.602,41.504,0
1510137836.384,52.246,2.930,31.738,9.277,69.336,0
1510137836.387,24.414,13.672,26.367,0.488,71.289,0
1510137836.391,12.207,38.574,28.809,1.953,36.133,0
1510137836.395,14.160,68.848,41.992,15.137,34.668,0
1510137836.399,21.484,80.566,38.574,24.414,61.035,0
1510137836.403,26.367,81.543,20.508,12.207,47.363,0
1510137836.407,19.043,43.945,23.438,6.348,-14.648,0
1510137836.411,32.715,-8.301,34.180,24.902,15.625,0
1510137836.415,37.598,-20.508,29.297,26.367,58.594,0
1510137836.419,17.578,19.043,18.555,15.625,21.484,0
1510137836.423,25.391,80.078,10.742,1.953,25.879,0
1510137836.426,21.484,91.309,7.812,-5.859,52.246,0
1510137836.430,18.555,54.199,9.766,-3.906,20.508,0
1510137836.434,32.715,26.367,16.113,-0.977,0.488,0
1510137836.438,25.391,-12.207,25.879,7.812,-1.953,0
1510137836.442,32.227,-5.859,25.391,10.254,12.207,0
1510137836.446,16.113,54.688,7.812,-19.531,6.348,0
1510137836.450,17.578,41.016,10.254,-16.602,22.949,0
1510137836.454,42.480,35.156,27.832,7.812,31.738,0
1510137836.458,18.066,67.383,21.973,-7.812,25.879,0
1510137836.462,6.348,66.406,14.648,-8.789,41.016,0
1510137836.466,19.043,41.016,18.066,-0.488,17.578,0
1510137836.469,17.090,48.828,12.695,-4.395,-1.953,0
1510137836.473,18.555,48.828,25.879,5.859,2.441,0
1510137836.477,46.387,-8.789,34.180,21.484,37.109,0
1510137836.481,58.105,-6.348,30.273,33.691,-24.414,0
1510137836.485,30.273,43.945,20.996,12.695,-64.453,0
1510137836.489,15.137,53.223,14.648,-8.301,16.113,0
1510137836.493,23.438,70.312,14.160,-3.418,6.348,0
1510137836.497,33.203,59.082,14.648,-0.977,-19.043,0
1510137836.501,28.809,29.785,19.043,15.625,47.363,0
1510137836.505,48.828,38.086,26.855,46.387,36.621,0
1510137836.509,77.148,38.086,30.273,61.035,-50.293,0
1510137836.512,53.711,25.879,25.879,35.156,-43.945,0
1510137836.516,33.691,28.809,24.414,21.973,5.859,0
1510137836.520,51.758,18.066,31.738,41.016,20.508,0
1510137836.524,46.875,32.715,33.691,41.504,2.930,0
1510137836.528,33.691,67.871,28.809,30.273,-19.531,0
1510137836.532,37.598,59.082,31.250,27.344,-0.977,0
1510137836.536,48.828,30.762,39.062,41.504,33.691,0
1510137836.540,35.645,18.066,37.598,34.180,15.625,0
1510137836.544,35.156,50.781,32.715,20.996,-4.395,0
1510137836.548,24.414,68.359,29.297,10.254,14.648,0
1510137836.551,25.879,4.883,37.598,18.066,29.785,0
1510137836.555,51.758,-25.391,54.688,37.598,-11.230,0
1510137836.559,41.504,28.320,38.086,15.137,-21.973,0
1510137836.563,31.250,62.500,15.137,2.441,7.812,0
1510137836.567,18.555,35.156,12.695,19.531,5.371,0
1510137836.571,42.480,33.691,19.531,27.832,-3.906,0
1510137836.575,53.711,68.848,28.320,19.043,12.207,0
1510137836.579,6.836,62.988,20.508,8.301,32.715,0
1510137836.583,5.371,39.062,13.672,6.836,41.016,0
1510137836.587,20.508,20.508,15.625,14.648,-3.906,0
1510137836.591,32.227,31.250,14.648,18.555,-19.531,0
1510137836.594,34.180,45.410,8.301,3.418,26.855,0
1510137836.598,35.645,56.641,11.719,-7.324,20.020,0
1510137836.602,45.898,1.465,23.438,12.207,35.156,0
1510137836.606,37.109,-44.434,34.180,30.762,32.227,0
1510137836.610,41.504,27.344,39.062,39.551,22.949,0
1510137836.614,16.602,78.613,27.832,29.297,27.344,0
1510137836.618,-6.348,89.355,12.695,1.465,19.531,0
1510137836.622,21.484,74.219,19.043,17.090,41.016,0
1510137836.626,38.574,30.273,27.832,32.715,62.988,0
1510137836.630,39.062,18.555,31.250,26.855,13.672,0
1510137836.634,35.156,22.949,32.715,28.320,4.883,0
1510137836.637,40.039,16.602,30.762,25.879,40.039,0
1510137836.641,54.199,-2.441,35.645,31.250,17.578,0
1510137836.645,42.969,-24.414,31.250,31.738,33.203,0
1510137836.649,44.434,-6.836,26.855,25.391,31.250,0
1510137836.653,45.410,86.914,30.273,27.832,52.734,0
1510137836.657,37.109,129.883,18.555,18.066,32.715,0
1510137836.661,25.391,97.168,9.277,1.953,13.184,0
1510137836.665,18.555,64.453,14.648,6.836,5.371,0
1510137836.669,23.926,39.551,20.508,14.648,0.000,0
1510137836.673,45.898,0.000,30.273,26.855,11.719,0
1510137836.676,66.895,-13.672,36.133,45.410,8.301,0
1510137836.680,56.641,7.812,29.785,36.133,38.086,0
1510137836.684,46.875,32.715,23.926,10.742,28.320,0
1510137836.688,49.805,46.387,20.996,3.418,-5.859,0
1510137836.692,37.598,38.574,24.902,4.883,-10.254,0
1510137836.696,13.672,34.180,29.785,10.742,48.340,0
1510137836.700,20.508,32.715,31.738,21.484,44.434,0
1510137836.704,34.668,28.320,36.133,21.484,3.418,0
1510137836.708,23.926,22.461,31.738,6.836,35.645,0
1510137836.712,30.273,52.246,31.250,13.672,30.762,0
1510137836.716,41.992,46.875,28.320,24.414,7.812,0
1510137836.719,33.691,28.809,20.508,6.348,-15.625,0
1510137836.723,26.367,47.363,24.902,2.441,-21.484,0
1510137836.727,24.414,34.180,25.391,20.996,22.461,0
1510137836.731,40.039,11.719,19.531,21.973,18.555,0
1510137836.735,61.523,18.066,18.555,14.648,39.062,0
1510137836.739,39.551,51.270,19.043,19.043,48.828,0
1510137836.743,27.832,36.621,14.648,21.973,-5.859,0
1510137836.747,44.922,29.297,21.484,30.762,-2.930,0
1510137836.751,44.434,57.617,24.414,22.461,26.855,0
1510137836.755,40.527,52.246,16.602,13.672,41.504,0
1510137836.759,56.641,11.719,24.902,25.391,18.066,0
1510137836.762,43.945,-0.977,25.391,15.625,22.949,0
1510137836.766,12.207,19.043,18.555,9.766,-10.254,0
1510137836.770,34.180,21.973,26.855,18.555,-13.672,0
1510137836.774,56.641,42.480,31.250,20.020,39.062,0
1510137836.778,55.664,56.641,29.785,26.367,26.855,0
1510137836.782,34.180,36.133,15.137,19.531,41.992,0
1510137836.786,28.809,49.805,3.906,6.836,36.621,0
1510137836.790,47.852,34.668,13.672,20.020,22.461,0
1510137836.794,55.176,5.859,21.484,33.203,42.969,0
1510137836.798,65.430,40.039,19.531,24.902,21.973,0
1510137836.801,52.246,50.781,23.438,28.320,15.137,0
1510137836.805,35.156,45.410,27.344,41.992,32.715,0
1510137836.809,21.484,61.523,22.949,39.062,18.555,0
1510137836.813,6.348,38.086,10.254,17.090,24.902,0
1510137836.817,16.602,3.418,14.160,14.160,28.809,0
1510137836.821,34.668,9.277,22.949,22.949,21.973,0
1510137836.825,50.293,16.113,27.832,33.691,20.508,0
1510137836.829,32.715,-5.859,28.320,25.391,19.043,0
1510137836.833,31.250,24.414,32.715,17.090,38.086,0
1510137836.837,46.875,74.707,32.715,11.719,54.688,0
1510137836.841,25.879,59.570,16.602,-7.812,30.762,0
1510137836.844,15.625,40.527,19.531,-1.953,11.719,0
1510137836.848,22.461,24.414,21.973,5.859,41.016,0
1510137836.852,23.438,14.648,19.043,0.488,50.293,0
1510137836.856,26.855,35.156,31.250,14.648,41.992,0
1510137836.860,20.020,53.711,31.250,15.137,35.645,0
1510137836.864,22.949,18.066,22.461,-4.883,61.035,0
1510137836.868,26.367,25.391,18.555,-7.324,67.383,0
1510137836.872,22.949,53.223,14.648,-1.465,4.395,0
1510137836.876,35.645,30.273,13.672,2.441,9.766,0
1510137836.880,35.156,15.137,22.461,6.836,38.086,0
1510137836.884,32.227,35.156,29.297,8.789,8.301,0
1510137836.887,27.344,23.438,22.949,8.789,36.133,0
1510137836.891,10.742,21.484,18.555,18.555,54.688,0
1510137836.895,22.949,12.207,24.414,28.809,36.133,0
1510137836.899,49.316,7.812,32.227,19.043,15.137,0
1510137836.903,38.086,68.848,29.297,14.160,-7.812,0
1510137836.907,29.785,65.918,25.879,17.090,2.930,0
1510137836.911,43.457,-12.207,37.598,32.715,33.691,0
1510137836.915,41.016,13.184,37.109,36.621,23.438,0
1510137836.919,31.250,82.031,19.043,14.160,9.277,0
1510137836.923,26.855,79.590,19.043,9.766,49.805,0
1510137836.926,27.344,46.875,24.902,23.926,57.129,0
1510137836.930,41.504,23.438,29.297,19.531,23.438,0
1510137836.934,61.523,-10.254,34.180,11.230,2.441,0
1510137836.938,58.594,-29.297,31.738,16.113,9.277,0
1510137836.942,52.734,-9.277,31.250,23.438,18.555,0
1510137836.946,73.730,28.320,36.133,26.367,42.480,0
1510137836.950,60.059,48.340,36.133,17.578,41.504,0
1510137836.954,24.414,5.859,36.621,22.949,52.734,0
1510137836.958,17.090,41.016,29.297,20.996,50.293,0
1510137836.962,10.254,97.168,23.438,7.812,-1.465,0
1510137836.966,6.348,39.062,14.648,-16.602,22.949,0
1510137836.969,12.207,15.137,13.184,-19.531,44.434,0
1510137836.973,21.484,40.039,19.531,0.000,36.621,0
1510137836.977,34.668,33.203,21.973,7.812,32.227,0
1510137836.981,46.387,40.527,21.973,5.371,17.090,0
1510137836.985,40.527,40.039,19.043,-0.977,36.621,0
1510137836.989,50.781,-21.484,39.062,22.949,16.113,0
1510137836.993,52.734,-29.785,47.363,46.387,14.648,0
1510137836.997,29.297,55.176,27.344,26.367,9.277,0
1510137837.001,27.344,80.566,24.414,14.648,2.441,0
1510137837.005,27.832,54.199,24.902,15.625,-7.324,0
1510137837.009,18.066,47.363,25.391,12.207,-24.902,0
1510137837.012,30.273,24.902,27.832,23.438,36.133,0
1510137837.016,52.246,3.418,29.785,33.203,55.176,0
1510137837.020,41.016,5.371,34.180,26.855,2.441,0
1510137837.024,36.133,-1.465,39.062,38.086,5.859,0
1510137837.028,41.016,-1.465,37.598,37.109,48.340,0
1510137837.032,27.344,27.344,28.809,18.555,25.879,0
1510137837.036,27.832,60.059,20.508,9.766,17.090,0
1510137837.040,36.133,50.781,19.531,7.812,11.719,0
1510137837.044,45.898,53.223,25.879,23.926,-21.484,0
1510137837.048,50.293,52.734,29.785,30.273,-18.066,0
1510137837.051,43.945,36.133,26.855,15.137,-37.109,0
1510137837.055,10.254,45.410,24.902,10.254,-14.648,0
1510137837.059,6.836,22.949,20.020,0.488,20.508,0
1510137837.063,30.762,18.066,21.973,-5.371,-15.625,0
1510137837.067,31.250,-4.883,27.344,-5.859,-5.859,0
1510137837.071,38.086,-29.785,35.156,-4.883,19.043,0
1510137837.075,39.551,11.230,41.992,0.488,10.742,0
1510137837.079,32.227,66.406,19.531,-23.438,-5.859,0
1510137837.083,8.301,89.355,8.301,-32.715,-11.719,0
1510137837.087,-0.488,68.848,25.879,-19.043,-4.395,0
1510137837.091,32.715,22.461,30.273,-24.414,-9.766,0
1510137837.094,28.809,22.949,20.996,-28.320,-23.438,0
1510137837.098,1.953,23.926,17.090,-25.391,-25.879,0
1510137837.102,33.203,-28.809,27.344,-10.254,11.230,0
1510137837.106,31.250,-14.160,30.762,0.977,-14.160,0
1510137837.110,-0.977,35.156,25.391,-5.859,-48.828,0
1510137837.114,11.230,87.402,15.625,-26.855,-46.387,0
1510137837.118,21.973,105.957,8.301,-27.832,-36.133,0
1510137837.122,25.391,72.266,14.160,-8.789,-21.973,2
1510137837.126,21.973,27.832,27.832,-1.953,-39.062,0
1510137837.130,69.824,12.207,59.082,36.133,-45.898,0
1510137837.134,71.289,2.441,49.805,42.480,-42.969,0
1510137837.137,20.508,-27.344,15.137,-1.953,-36.133,0
1510137837.141,-12.695,5.859,8.301,-17.090,-72.266,0
1510137837.145,-1.465,59.570,10.742,-13.672,-68.359,0
1510137837.149,45.898,75.195,10.254,-11.230,-26.855,0
1510137837.153,22.949,75.684,10.742,-11.230,-49.805,0
1510137837.157,-3.418,54.199,15.625,-1.465,-59.570,0
1510137837.161,17.578,36.133,19.043,9.766,-63.965,0
1510137837.165,39.551,31.250,21.973,19.531,-39.551,0
1510137837.169,52.734,23.438,32.227,30.273,-32.227,0
1510137837.173,44.434,21.973,32.715,28.320,-33.691,0
1510137837.176,23.438,51.758,19.531,10.742,-37.109,0
1510137837.180,29.785,26.855,11.230,-1.953,-40.039,0
1510137837.184,64.941,7.324,27.832,12.207,-39.551,0
1510137837.188,53.711,5.371,32.227,16.602,-59.570,0
1510137837.192,31.250,10.742,19.531,-2.441,-19.043,0
1510137837.196,37.598,75.195,11.230,-16.113,-26.367,0
1510137837.200,18.555,54.199,15.137,-6.836,-86.914,0
1510137837.204,17.578,0.977,19.531,-6.348,-67.383,0
1510137837.208,40.039,0.977,36.133,11.719,-16.113,0
1510137837.212,24.414,33.691,39.062,10.742,-13.672,0
1510137837.216,-5.371,75.195,14.648,-22.461,-24.902,0
1510137837.219,14.648,43.457,18.555,-7.324,-50.293,0
1510137837.223,38.086,-14.160,36.133,14.648,-56.152,0
1510137837.227,32.715,29.785,28.809,-2.441,-53.223,0
1510137837.231,36.133,81.543,26.367,-7.812,-29.785,0
1510137837.235,34.668,68.848,34.668,21.973,-11.719,0
1510137837.239,33.691,33.691,32.715,31.250,-24.414,0
1510137837.243,59.570,15.625,30.273,21.484,-27.832,0
1510137837.247,65.918,0.000,24.414,14.648,-40.527,0
1510137837.251,23.438,16.602,21.973,9.277,-36.621,0
1510137837.255,25.879,11.719,24.414,17.578,-11.719,0
1510137837.259,53.711,23.438,28.320,21.484,-24.902,0
1510137837.262,47.363,46.875,29.297,23.438,-27.832,0
1510137837.266,28.809,33.691,30.273,32.715,-21.973,0
1510137837.270,14.160,50.293,27.832,18.555,-18.555,0
1510137837.274,25.391,51.270,31.738,16.602,-19.531,0
1510137837.278,43.945,41.016,28.320,12.207,-34.180,0
1510137837.282,73.730,15.137,48.340,34.668,-13.672,0
1510137837.286,73.242,-1.465,64.941,55.176,8.789,0
1510137837.290,31.250,19.531,31.738,9.766,17.578,0
1510137837.294,18.555,6.836,20.508,-3.906,17.578,0
1510137837.298,16.602,-14.160,27.344,2.441,7.812,0
1510137837.301,20.996,-1.953,27.344,3.906,14.648,0
1510137837.305,3.906,42.969,23.438,5.859,-0.488,0
1510137837.309,-19.531,81.055,19.043,-5.371,3.418,0
1510137837.313,6.348,57.129,21.973,-14.160,22.461,0
1510137837.317,43.457,33.203,41.504,6.836,27.832,0
1510137837.321,29.297,19.531,39.551,-0.488,25.391,0
1510137837.325,3.906,7.812,22.949,-20.996,-13.184,0
1510137837.329,7.324,25.879,21.973,-1.465,-1.465,0
1510137837.333,20.508,26.367,27.344,7.812,22.949,0
1510137837.337,26.855,9.277,27.344,-4.883,4.395,0
1510137837.341,25.391,28.809,18.555,-13.672,8.789,0
1510137837.344,23.926,77.148,24.902,-1.465,26.367,0
1510137837.348,28.320,34.668,34.180,20.996,26.855,0
1510137837.352,34.668,-5.371,19.043,10.254,27.344,0
1510137837.356,41.992,2.441,17.578,11.230,19.043,0
1510137837.360,34.668,9.277,32.227,40.527,31.738,0
1510137837.364,20.020,59.570,27.832,23.438,12.207,0
1510137837.368,30.762,53.223,19.531,5.371,23.438,0
1510137837.372,45.410,19.043,23.926,16.602,53.711,0
1510137837.376,41.016,35.645,37.109,29.785,20.996,0
1510137837.380,23.438,55.176,29.785,11.719,-12.695,0
1510137837.384,21.973,40.527,18.066,1.953,13.184,0
1510137837.387,38.086,8.789,21.973,11.230,64.941,0
1510137837.391,23.438,2.930,28.320,13.672,32.715,0
1510137837.395,19.043,44.434,35.156,17.090,41.016,0
1510137837.399,20.996,52.734,28.320,9.766,50.293,0
1510137837.403,19.043,32.715,29.297,21.484,46.875,0
1510137837.407,50.293,-5.371,39.062,38.086,47.852,0
1510137837.411,47.852,-32.227,37.598,28.320,42.480,0
1510137837.415,6.836,40.527,20.508,-0.488,37.598,0
1510137837.419,12.695,61.523,20.996,-2.930,0.488,0
1510137837.423,38.086,43.457,37.598,11.230,2.930,0
1510137837.426,31.250,23.926,25.879,9.766,-16.113,0
1510137837.430,19.531,7.324,26.367,25.391,22.461,0
1510137837.434,18.066,48.340,32.715,28.320,74.707,0
1510137837.438,23.438,46.387,18.066,6.836,14.648,0
1510137837.442,3.906,38.086,14.160,-9.277,3.906,0
1510137837.446,9.277,-9.766,28.809,-6.348,30.762,0
1510137837.450,44.922,-51.270,42.969,20.020,41.992,0
1510137837.454,34.180,27.344,29.785,12.695,16.602,0
1510137837.458,39.551,93.262,28.809,11.230,18.066,0
1510137837.462,58.105,55.176,30.762,10.742,53.711,0
1510137837.466,39.551,48.340,17.090,-3.906,51.270,0
1510137837.469,-3.418,96.191,8.301,-8.301,30.762,0
1510137837.473,4.883,29.297,8.301,5.371,25.391,0
1510137837.477,45.898,-39.551,21.484,25.879,62.988,0
1510137837.481,68.848,47.363,27.832,21.973,44.434,0
1510137837.485,61.523,61.035,13.672,9.277,43.945,0
1510137837.489,40.527,10.742,6.836,12.207,71.777,0
1510137837.493,39.062,22.949,9.766,14.648,64.453,0
1510137837.497,45.898,46.387,19.531,21.484,48.340,0
1510137837.501,36.621,73.242,17.090,18.066,40.039,0
1510137837.505,38.086,85.449,7.324,12.207,64.941,0
1510137837.509,47.363,62.012,11.230,1.465,72.266,0
1510137837.512,69.824,-8.789,26.367,0.977,29.785,0
1510137837.516,86.914,-57.129,52.734,42.969,10.254,0
1510137837.520,49.316,12.695,40.527,28.809,6.836,0
1510137837.524,11.719,108.398,7.812,-16.113,48.828,0
1510137837.528,6.836,63.477,-3.906,-26.367,62.012,0
1510137837.532,41.016,-0.977,18.555,0.000,49.805,0
1510137837.536,51.758,15.625,32.715,19.043,63.477,0
1510137837.540,24.414,36.133,11.719,1.953,57.617,0
1510137837.544,30.273,20.508,9.766,3.906,28.320,0
1510137837.548,38.574,43.945,13.672,4.395,50.293,0
1510137837.551,26.367,87.891,10.254,1.953,59.570,0
1510137837.555,17.578,53.223,5.859,1.465,58.594,0
1510137837.559,39.062,-0.488,11.719,-1.465,51.270,0
1510137837.563,49.805,47.363,30.762,11.230,16.602,0
1510137837.567,22.949,43.945,25.879,7.324,46.387,0
1510137837.571,27.832,51.758,19.043,3.906,20.020,0
1510137837.575,34.180,81.543,25.879,13.184,43.945,0
1510137837.579,20.996,53.223,26.367,14.160,84.473,0
1510137837.583,28.809,20.020,28.320,13.184,52.246,0
1510137837.587,48.340,-9.277,36.621,20.508,31.738,0
1510137837.591,47.363,-7.812,34.668,18.555,7.812,0
1510137837.594,49.805,4.395,34.180,15.137,25.391,0
1510137837.598,47.363,48.340,38.086,21.973,48.340,0
1510137837.602,39.551,52.246,31.250,21.973,50.293,0
1510137837.606,36.621,67.871,19.043,15.137,-4.883,0
1510137837.610,54.199,43.945,13.672,6.836,-38.574,0
1510137837.614,59.082,-28.320,27.832,19.043,25.391,0
1510137837.618,32.715,11.230,35.645,36.621,45.898,0
1510137837.622,40.527,13.184,34.668,38.574,31.250,3
1510137837.626,56.641,37.598,39.062,27.832,35.645,0
1510137837.630,41.992,121.582,25.391,4.883,21.484,0
1510137837.634,22.949,102.051,3.906,-4.395,2.930,0
1510137837.637,39.551,63.477,6.348,5.371,18.555,0
1510137837.641,58.594,-4.883,24.414,18.555,22.949,0
1510137837.645,58.105,-33.691,42.480,42.480,31.250,0
1510137837.649,52.734,-11.230,31.738,41.504,37.598,0
1510137837.653,81.055,-33.203,33.691,41.016,-13.672,0
1510137837.657,77.637,0.977,36.621,36.133,-3.418,0
1510137837.661,27.344,104.980,10.742,-0.977,40.039,0
1510137837.665,27.344,102.539,4.395,-20.996,-8.789,0
1510137837.669,55.664,56.641,21.973,2.930,0.488,0
1510137837.673,58.105,50.293,27.344,29.297,57.129,0
1510137837.676,59.570,2.930,23.926,29.297,26.855,0
1510137837.680,68.359,-32.715,23.926,22.949,30.762,0
1510137837.684,70.801,6.836,22.949,25.391,28.320,0
1510137837.688,66.895,104.004,23.926,34.668,4.883,0
1510137837.692,33.691,144.043,2.441,20.020,13.672,0
1510137837.696,27.344,131.348,-18.066,3.906,12.207,0
1510137837.700,61.035,41.504,-4.883,31.250,11.230,0
1510137837.704,79.102,-73.730,11.230,56.641,1.953,0
1510137837.708,63.477,25.391,1.465,48.340,-9.277,0
1510137837.712,55.664,121.582,-3.906,39.062,-54.688,0
1510137837.716,76.172,102.051,0.488,28.320,-37.598,0
1510137837.719,75.195,72.754,-5.371,19.531,28.809,0
1510137837.723,93.750,-57.617,26.855,62.988,1.465,0
1510137837.727,93.750,25.391,34.668,64.941,17.578,0
1510137837.731,44.434,184.570,-9.277,5.371,41.992,0
1510137837.735,51.758,31.738,-8.301,15.137,27.832,0
1510137837.739,61.523,-18.555,3.906,20.996,4.883,0
1510137837.743,73.242,30.273,1.953,16.602,3.906,0
1510137837.747,89.844,-67.871,31.250,57.617,23.926,0
1510137837.751,66.406,62.500,28.809,44.922,3.418,0
1510137837.755,38.086,171.387,-7.324,4.395,-25.391,0
1510137837.759,48.828,87.891,-5.371,14.648,-6.836,0
1510137837.762,62.012,122.070,4.395,21.973,47.852,0
1510137837.766,56.641,77.148,0.000,17.090,29.785,0
1510137837.770,43.457,20.996,-7.812,16.602,17.090,0
1510137837.774,56.152,87.402,-7.812,16.113,16.113,0
1510137837.778,81.543,11.719,9.766,29.785,3.906,0
1510137837.782,91.309,-28.809,31.250,55.664,18.555,0
1510137837.786,77.148,90.820,30.762,50.781,36.133,0
1510137837.790,55.664,156.738,13.184,21.973,24.902,0
1510137837.794,62.012,79.102,6.836,20.020,7.324,0
1510137837.798,60.547,22.461,16.113,35.156,27.832,0
1510137837.801,62.988,37.598,20.020,37.109,-25.879,0
1510137837.805,75.195,7.812,17.578,36.621,-21.484,0
1510137837.809,85.938,38.574,34.180,44.922,27.344,0
1510137837.813,77.148,76.660,41.504,42.480,30.273,0
1510137837.817,52.734,77.637,21.484,27.832,40.527,0
1510137837.821,26.367,156.250,3.418,10.254,43.457,0
1510137837.825,29.785,68.359,17.090,27.344,34.180,0
1510137837.829,67.871,-92.285,51.758,54.199,-17.578,0
1510137837.833,81.055,-21.973,53.223,55.176,3.418,0
1510137837.837,59.082,89.355,26.367,32.227,32.715,0
1510137837.841,55.176,65.430,22.461,25.391,-2.441,0
1510137837.844,50.781,66.895,28.809,24.414,-1.465,0
1510137837.848,46.387,-8.301,26.367,27.344,15.625,0
1510137837.852,34.668,59.082,28.320,35.156,1.465,0
1510137837.856,22.461,76.172,29.785,27.832,-3.906,0
1510137837.860,38.574,-78.613,27.832,27.832,-26.367,0
1510137837.864,40.039,12.207,21.484,21.973,-16.602,0
1510137837.868,54.199,-5.371,35.645,40.039,60.547,0
1510137837.872,66.406,49.805,36.133,31.738,33.203,0
1510137837.876,17.578,180.176,9.766,-7.324,15.625,0
1510137837.880,3.906,105.957,13.184,-0.977,15.625,0
1510137837.884,52.246,0.488,36.621,28.320,4.883,0
1510137837.887,53.223,-8.301,29.785,16.602,5.859,0
1510137837.891,28.320,-18.555,24.902,1.953,-35.645,0
1510137837.895,50.293,-78.125,51.270,45.410,-6.348,0
1510137837.899,65.430,-5.371,54.688,53.711,46.387,0
1510137837.903,43.945,207.520,36.133,11.230,32.227,0
1510137837.907,29.297,182.129,11.230,-24.414,27.832,0
1510137837.911,21.973,29.785,1.953,-24.902,15.625,0
1510137837.915,-5.371,77.148,2.441,-9.766,16.602,0
1510137837.919,3.418,58.105,8.789,7.812,19.043,0
1510137837.923,35.156,-51.270,33.203,24.414,3.418,0
1510137837.926,37.109,-37.109,40.039,24.902,14.160,0
1510137837.930,40.039,9.766,36.133,31.250,35.156,0
1510137837.934,26.367,44.434,36.133,22.949,6.836,0
1510137837.938,-3.418,87.402,27.344,0.977,6.348,0
1510137837.942,-12.695,131.836,14.160,-8.789,33.203,0
1510137837.946,7.812,22.949,21.484,5.371,35.645,0
1510137837.950,32.227,-16.602,32.715,20.508,2.441,0
1510137837.954,26.855,71.777,24.414,17.090,7.812,0
1510137837.958,27.344,41.016,37.598,38.086,40.527,0
1510137837.962,37.598,-26.855,46.387,41.504,26.367,0
1510137837.966,23.926,-24.902,29.297,12.695,-1.953,0
1510137837.969,0.000,73.242,13.672,2.441,-0.488,0
1510137837.973,19.043,-29.785,29.297,18.066,6.348,0
1510137837.977,37.598,-23.438,56.641,31.250,11.719,0
1510137837.981,10.254,173.340,34.668,-8.301,30.273,0
1510137837.985,5.859,115.234,0.488,-38.086,14.648,0
1510137837.989,18.066,-19.043,17.090,-16.602,19.043,0
1510137837.993,16.113,14.160,37.109,-9.766,19.043,0
1510137837.997,19.043,85.938,35.645,-3.418,1.953,0
1510137838.001,-7.324,14.648,27.344,-6.348,28.320,0
1510137838.005,-31.738,24.902,18.555,-33.691,31.738,0
1510137838.009,-19.043,21.484,23.438,-38.086,10.742,0
1510137838.012,-12.207,-30.762,38.574,-15.137,-28.809,0
1510137838.016,-10.742,83.008,31.738,-24.414,28.320,0
1510137838.020,-24.902,167.969,16.602,-43.945,56.641,0
1510137838.024,1.953,12.207,38.574,-16.113,6.348,0
1510137838.028,19.043,-134.277,44.922,-9.277,-15.625,0
1510137838.032,-19.043,-50.293,25.879,-27.832,3.418,0
1510137838.036,-31.250,141.602,16.602,-42.969,37.109,0
1510137838.040,-23.438,223.145,22.461,-43.945,8.301,0
1510137838.044,0.000,43.945,45.898,-18.066,-7.812,0
1510137838.048,22.949,-169.922,54.688,-18.555,30.273,0
1510137838.051,31.250,-169.922,60.059,-17.090,4.883,0
1510137838.055,3.906,94.238,58.594,-8.789,6.836,0
1510137838.059,-57.129,192.383,15.137,-49.805,1.465,0
1510137838.063,-17.578,-2.930,41.504,-14.160,15.625,0
1510137838.067,-9.766,87.891,41.016,-17.090,31.250,0
1510137838.071,-34.668,131.348,9.277,-50.293,18.555,0
1510137838.075,-12.695,-96.680,18.066,-39.551,18.555,0
1510137838.079,20.996,-69.336,45.898,-12.695,29.297,0
1510137838.083,16.113,109.863,52.734,-0.488,48.828,0
1510137838.087,-45.410,163.086,7.324,-43.457,-42.480,0
1510137838.091,-1.953,114.258,39.062,-14.160,-47.363,0
1510137838.094,32.227,72.754,48.828,0.488,29.785,0
1510137838.098,-2.930,79.590,3.418,-35.645,46.875,0
1510137838.102,20.996,-54.688,6.348,-26.367,63.477,0
1510137838.106,47.363,-193.359,40.039,14.648,25.391,0
1510137838.110,2.441,74.219,35.156,7.324,-1.953,0
1510137838.114,2.930,141.602,26.367,-7.812,8.301,0
1510137838.118,26.367,-6.348,25.391,-10.254,24.902,0
1510137838.122,36.133,-6.348,32.715,0.000,12.695,4
1510137838.126,39.551,-16.113,47.363,15.137,-5.859,0
1510137838.130,18.066,128.418,28.809,3.906,10.254,0
1510137838.134,24.902,106.934,16.602,5.859,22.949,0
1510137838.137,24.414,56.152,4.395,4.395,16.113,0
1510137838.141,31.250,53.223,18.555,25.879,36.133,0
1510137838.145,73.730,-75.684,57.129,62.988,9.766,0
1510137838.149,63.965,59.570,35.156,40.527,19.043,0
1510137838.153,40.039,88.867,20.508,30.273,53.223,0
1510137838.157,41.992,3.418,23.926,29.785,24.902,0
1510137838.161,33.691,75.195,8.301,20.508,7.812,0
1510137838.165,45.898,11.719,22.949,29.785,11.230,0
1510137838.169,67.871,-73.242,39.062,44.922,15.625,0
1510137838.173,72.754,-12.695,36.133,41.504,-21.973,0
1510137838.176,55.176,40.039,41.504,32.715,-58.594,0
1510137838.180,11.230,147.949,9.766,0.977,-41.504,0
1510137838.184,19.531,129.395,13.184,-10.742,20.020,0
1510137838.188,77.637,-77.637,53.223,44.922,21.484,0
1510137838.192,70.312,-123.535,41.992,45.898,1.465,0
1510137838.196,20.508,97.168,5.859,-14.648,22.461,0
1510137838.200,-3.418,181.641,-13.672,-32.227,23.926,0
1510137838.204,18.066,61.035,5.371,6.836,13.672,0
1510137838.208,42.480,-0.977,26.367,25.879,-2.930,0
1510137838.212,40.039,2.441,24.902,1.465,0.488,0
1510137838.216,50.781,55.664,24.414,23.438,17.578,0
1510137838.219,50.293,86.426,26.367,61.035,-12.207,0
1510137838.223,37.598,15.137,18.555,32.715,-21.484,0
1510137838.227,40.527,26.855,10.742,8.789,20.996,0
1510137838.231,36.621,103.516,-5.371,4.883,20.020,0
1510137838.235,41.992,69.824,-3.418,12.207,15.625,0
1510137838.239,62.988,-52.734,33.691,63.965,44.434,0
1510137838.243,63.965,6.348,41.016,62.988,48.828,0
1510137838.247,43.457,2.441,13.672,18.555,29.297,0
1510137838.251,31.738,41.016,12.207,6.836,43.457,0
1510137838.255,20.508,140.137,9.766,2.441,42.969,0
1510137838.259,23.926,114.746,14.648,5.371,-9.766,0
1510137838.262,16.602,98.145,12.207,-0.977,-22.461,0
1510137838.266,14.160,-0.977,22.949,-1.465,-16.113,0
1510137838.270,29.297,-28.809,41.016,12.695,15.625,0
1510137838.274,45.898,-27.832,52.246,25.879,53.711,0
1510137838.278,10.742,48.828,27.832,7.324,29.297,0
1510137838.282,-1.465,95.703,12.207,-14.160,28.809,0
1510137838.286,36.133,47.852,28.809,7.324,52.246,0
1510137838.290,56.641,31.738,22.461,18.066,52.246,0
1510137838.294,42.480,-6.836,27.344,10.254,31.250,0
1510137838.298,12.695,-53.711,19.531,15.625,34.668,0
1510137838.301,15.625,71.777,20.020,11.719,20.996,0
1510137838.305,8.789,83.496,22.461,11.230,47.363,0
1510137838.309,16.113,27.344,22.461,14.160,7.812,0
1510137838.313,17.090,45.410,18.066,3.906,-32.227,0
1510137838.317,26.855,54.199,23.438,12.695,43.457,0
1510137838.321,67.871,9.766,42.480,22.461,46.387,0
1510137838.325,50.781,-16.602,34.180,11.719,33.203,0
1510137838.329,9.277,139.648,16.113,8.789,24.902,0
1510137838.333,-3.906,148.438,9.766,-1.465,26.855,0
1510137838.337,-11.230,63.965,18.066,-6.348,55.176,0
1510137838.341,35.156,-184.570,57.617,33.691,63.965,0
1510137838.344,62.012,-106.445,79.590,60.547,55.664,0
1510137838.348,20.020,152.344,41.016,15.625,47.363,0
1510137838.352,10.742,127.930,32.227,6.348,14.648,0
1510137838.356,2.441,89.355,25.391,-4.883,28.809,0
1510137838.360,-20.508,76.172,-11.230,-45.410,49.805,0
1510137838.364,2.441,65.430,-5.371,-27.832,41.504,0
1510137838.368,3.906,47.363,11.230,-14.160,60.547,0
1510137838.372,30.273,-101.074,39.551,21.484,22.461,0
1510137838.376,67.383,-154.785,59.570,55.664,7.324,0
1510137838.380,66.406,-82.520,61.523,57.129,55.176,0
1510137838.384,35.645,62.012,41.016,34.180,56.641,0
1510137838.387,-1.465,239.746,1.953,-5.859,38.086,0
1510137838.391,33.691,76.172,13.184,20.996,42.969,0
1510137838.395,58.105,-68.359,25.879,24.414,51.270,0
1510137838.399,46.387,53.711,30.273,1.953,34.668,0
1510137838.403,77.637,-84.473,59.082,46.387,46.387,0
1510137838.407,57.617,-29.297,44.922,41.016,46.875,0
1510137838.411,1.465,235.840,5.371,0.000,55.664,0
1510137838.415,-10.254,172.852,-4.883,-9.766,63.965,0
1510137838.419,42.480,-30.762,27.344,19.043,10.742,0
1510137838.423,57.617,-102.051,41.504,38.086,43.945,0
1510137838.426,28.809,-6.836,34.668,22.949,53.223,0
1510137838.430,44.922,21.484,49.316,41.504,-4.883,0
1510137838.434,73.242,41.504,62.012,64.453,39.062,0
1510137838.438,62.988,19.531,43.945,44.922,73.242,0
1510137838.442,47.852,-132.324,38.574,39.551,31.738,0
1510137838.446,24.902,107.422,23.438,23.438,40.039,0
1510137838.450,-3.418,260.742,2.441,7.812,54.199,0
1510137838.454,1.953,69.336,7.812,16.113,30.273,0
1510137838.458,10.742,82.031,22.461,14.648,22.949,0
1510137838.462,24.414,-1.465,32.227,4.395,0.000,0
1510137838.466,37.109,-53.711,24.414,8.301,37.109,0
1510137838.469,36.133,49.316,17.090,9.277,76.660,0
1510137838.473,41.504,64.941,20.996,3.418,40.039,0
1510137838.477,32.715,75.684,21.973,-3.418,-1.465,0
1510137838.481,4.395,72.266,20.020,1.465,28.320,0
1510137838.485,32.227,-106.934,48.340,40.527,71.289,0
1510137838.489,83.984,-96.680,82.520,70.801,56.152,0
1510137838.493,48.828,41.504,42.969,19.531,67.383,0
1510137838.497,4.395,59.082,5.859,-19.531,47.363,0
1510137838.501,-16.602,144.531,1.465,-19.043,30.762,0
1510137838.505,5.859,13.672,13.672,-3.906,38.086,0
1510137838.509,37.109,-68.359,31.250,3.906,46.387,0
1510137838.512,10.254,86.914,24.414,-2.441,67.871,0
1510137838.516,3.418,92.773,19.043,-13.184,43.457,0
1510137838.520,24.902,-13.184,24.902,-8.789,54.688,0
1510137838.524,20.508,56.641,10.254,-13.672,63.477,0
1510137838.528,3.418,70.801,-0.977,-23.438,40.039,0
1510137838.532,17.578,-14.160,18.066,8.789,58.594,0
1510137838.536,27.832,-0.488,20.020,6.348,73.242,0
1510137838.540,35.156,60.547,25.879,6.836,41.504,0
1510137838.544,50.781,-84.961,49.316,38.086,46.387,0
1510137838.548,37.598,-51.758,48.828,46.387,39.062,0
1510137838.551,15.625,195.801,6.836,16.602,55.664,0
1510137838.555,-1.465,172.852,-13.672,-7.812,49.805,0
1510137838.559,-11.719,44.922,15.625,-10.742,16.113,0
1510137838.563,16.113,-37.109,36.133,8.789,26.367,0
1510137838.567,24.414,36.133,15.625,8.789,-30.273,0
1510137838.571,17.578,77.637,21.484,7.812,-14.648,0
1510137838.575,20.996,31.250,31.738,17.090,36.133,0
1510137838.579,60.547,-84.961,60.059,63.965,-8.301,0
1510137838.583,65.430,-74.707,69.336,104.980,10.742,0
1510137838.587,25.879,52.734,26.367,42.480,50.781,0
1510137838.591,-5.371,100.098,5.371,-16.113,28.809,0
1510137838.594,6.836,93.750,25.391,0.000,0.488,0
1510137838.598,62.988,-53.711,43.457,24.414,-0.488,0
1510137838.602,55.664,-52.734,42.480,33.691,59.082,0
1510137838.606,27.344,139.648,30.762,22.949,46.387,0
1510137838.610,15.137,99.121,18.066,1.465,7.812,0
1510137838.614,20.996,-12.207,25.879,9.766,21.973,0
1510137838.618,46.387,-95.215,47.363,47.852,26.855,0
1510137838.622,35.156,-100.586,41.992,46.387,20.508,5
1510137838.626,24.902,35.156,28.320,26.855,14.160,0
1510137838.630,23.926,213.867,5.859,-8.301,8.301,0
1510137838.634,11.230,164.062,-4.395,-19.531,14.160,0
1510137838.637,-5.371,43.945,14.648,14.648,21.973,0
1510137838.641,1.465,-8.301,20.996,29.785,-39.551,0
1510137838.645,21.484,-17.578,26.367,35.645,-20.508,0
1510137838.649,35.156,11.719,39.062,39.062,56.152,0
1510137838.653,36.621,-55.664,45.898,58.594,25.391,0
1510137838.657,29.297,-22.949,37.598,52.246,15.625,0
1510137838.661,31.738,104.980,29.297,41.992,20.508,0
1510137838.665,42.969,5.371,28.809,51.758,18.066,0
1510137838.669,35.156,-17.090,28.320,36.133,35.156,0
1510137838.673,0.000,106.934,16.602,9.766,49.316,0
1510137838.676,2.930,111.816,21.484,18.066,47.363,0
1510137838.680,27.344,-10.742,33.691,43.457,48.340,0
1510137838.684,56.152,-104.980,49.316,60.059,36.621,0
1510137838.688,45.410,47.363,46.875,51.758,32.715,0
1510137838.692,22.949,127.930,41.992,44.434,58.105,0
1510137838.696,18.555,38.086,21.973,36.621,43.945,0
1510137838.700,25.391,-26.855,17.578,39.551,30.762,0
1510137838.704,46.875,-41.016,37.109,56.641,48.828,0
1510137838.708,24.414,56.152,20.996,46.387,81.543,0
1510137838.712,20.996,111.328,15.137,32.227,79.590,0
1510137838.716,33.203,34.180,27.832,22.949,74.707,0
1510137838.719,57.617,-51.270,50.293,62.988,94.238,0
1510137838.723,73.730,16.113,60.059,74.219,81.055,0
1510137838.727,30.762,108.887,24.902,33.691,50.781,0
1510137838.731,23.438,83.008,8.301,23.438,104.492,0
1510137838.735,34.668,-40.039,21.973,25.879,114.746,0
1510137838.739,51.270,-83.008,46.387,54.199,92.285,0
1510137838.743,61.523,-63.965,55.664,77.148,107.422,0
1510137838.747,27.832,44.434,35.645,53.223,142.090,0
1510137838.751,27.344,132.812,20.996,31.250,170.898,0
1510137838.755,46.875,61.035,23.438,49.316,169.434,0
1510137838.759,49.805,66.895,30.762,45.410,136.230,0
1510137838.762,41.016,101.074,20.020,30.762,102.539,0
1510137838.766,31.738,39.062,15.137,25.879,149.414,0
1510137838.770,24.414,23.926,13.672,3.906,160.156,0
1510137838.774,40.039,-65.918,27.344,28.809,133.301,0
1510137838.778,49.805,-69.336,40.039,49.805,137.695,0
1510137838.782,30.762,96.680,37.109,25.879,159.668,0
1510137838.786,16.113,137.207,22.461,0.977,144.043,0
1510137838.790,18.066,41.504,11.719,7.324,109.375,0
1510137838.794,34.668,-66.406,24.902,23.438,136.719,0
1510137838.798,32.715,0.000,29.297,39.551,191.895,0
1510137838.801,49.805,-9.277,44.922,60.059,152.344,0
1510137838.805,44.922,41.504,28.809,30.273,95.215,0
1510137838.809,-3.906,129.395,17.090,15.625,123.535,0
1510137838.813,-11.230,72.266,21.484,13.184,136.719,0
1510137838.817,5.859,59.570,11.719,-5.859,115.234,0
1510137838.821,13.184,61.523,13.184,7.324,150.391,0
1510137838.825,29.785,-31.738,20.020,19.043,113.770,0
1510137838.829,60.059,-60.547,35.645,34.668,113.281,0
1510137838.833,46.875,27.344,32.227,29.785,116.211,0
1510137838.837,38.086,43.457,30.273,33.203,54.199,0
1510137838.841,51.270,29.297,38.574,56.641,63.477,0
1510137838.844,38.574,55.176,21.484,31.250,99.121,0
1510137838.848,31.738,48.340,15.625,17.090,115.723,0
1510137838.852,30.762,38.086,24.414,22.461,123.047,0
1510137838.856,55.664,-50.781,38.574,43.945,101.562,0
1510137838.860,79.102,-47.852,42.969,60.547,95.215,0
1510137838.864,56.641,104.492,30.273,42.480,79.102,0
1510137838.868,29.297,81.543,14.160,14.160,68.359,0
1510137838.872,40.527,9.766,12.207,4.883,72.754,0
1510137838.876,58.105,45.410,27.832,35.156,42.480,0
1510137838.880,51.758,48.340,27.344,39.551,32.227,0
1510137838.884,28.809,54.199,15.137,25.391,58.105,0
1510137838.887,34.668,56.152,13.184,18.555,78.613,0
1510137838.891,64.453,4.883,25.879,20.020,61.035,0
1510137838.895,73.242,-52.246,43.945,53.711,19.043,0
1510137838.899,42.480,-12.695,36.621,42.969,34.180,0
1510137838.903,22.461,66.406,22.461,7.812,68.359,0
1510137838.907,27.344,49.805,24.414,2.441,60.547,0
1510137838.911,21.973,43.945,21.973,1.465,46.875,0
1510137838.915,21.973,50.293,18.066,12.207,28.320,0
1510137838.919,19.531,53.223,26.367,40.039,33.691,0
1510137838.923,31.250,2.930,40.527,58.594,25.879,0
1510137838.926,50.293,-64.453,45.410,37.598,-14.648,0
1510137838.930,63.965,7.324,51.758,38.574,1.953,0
1510137838.934,57.617,82.031,44.922,46.387,43.457,0
1510137838.938,31.738,55.664,23.438,1.465,13.672,0
1510137838.942,14.648,30.762,15.137,4.883,12.695,0
1510137838.946,39.062,45.410,26.367,44.922,20.020,0
1510137838.950,51.758,54.688,35.156,38.086,6.836,0
1510137838.954,41.016,10.742,29.297,30.273,0.000,0
1510137838.958,50.781,10.742,22.461,18.066,3.906,0
1510137838.962,48.340,29.785,20.508,6.348,-0.488,0
1510137838.966,49.805,-5.371,27.344,20.508,-2.441,0
1510137838.969,64.941,8.789,38.574,40.527,-2.441,0
1510137838.973,56.641,59.570,29.297,28.809,-56.641,0
1510137838.977,27.832,5.371,20.020,30.762,-38.086,0
1510137838.981,14.648,-18.555,29.297,41.992,-13.184,0
1510137838.985,8.301,74.219,29.785,23.438,-46.387,0
1510137838.989,8.301,74.707,34.180,21.973,-38.574,0
1510137838.993,38.574,25.879,42.480,34.180,-15.625,0
1510137838.997,53.223,45.898,23.438,22.461,-29.297,0
1510137839.001,19.531,33.691,11.719,14.160,-0.977,0
1510137839.005,9.277,-67.871,25.879,27.832,24.414,0
1510137839.009,42.969,-63.477,43.457,36.133,-8.789,0
1510137839.012,45.410,59.570,35.645,9.277,-40.527,0
1510137839.016,13.672,124.512,13.672,-9.277,-82.031,0
1510137839.020,26.855,99.609,18.555,6.836,-63.965,0
1510137839.024,27.344,59.570,19.043,1.465,-27.832,0
1510137839.028,-0.977,21.973,10.742,2.930,-38.086,0
1510137839.032,42.480,-61.523,30.273,32.227,0.000,0
1510137839.036,75.195,-86.426,50.781,60.059,4.883,0
1510137839.040,43.945,27.832,36.621,36.133,-9.766,0
1510137839.044,20.996,122.070,18.555,1.953,-35.156,0
1510137839.048,39.551,64.453,33.691,22.949,-4.883,0
1510137839.051,62.988,-18.555,41.992,38.086,12.695,0
1510137839.055,73.242,6.348,41.016,29.785,-14.160,0
1510137839.059,65.430,18.555,47.852,43.945,-23.926,0
1510137839.063,42.480,50.293,25.879,34.668,-19.531,0
1510137839.067,29.297,69.824,9.277,12.695,21.484,0
1510137839.071,34.668,44.434,11.719,-0.488,4.395,0
1510137839.075,60.059,26.855,21.484,2.441,-29.297,0
1510137839.079,74.707,-7.812,30.762,32.715,-11.719,0
1510137839.083,79.102,-3.418,47.852,62.012,20.508,0
1510137839.087,59.570,44.434,37.598,48.828,15.137,0
1510137839.091,31.250,90.820,8.789,26.855,12.207,0
1510137839.094,43.945,15.625,13.672,34.668,0.977,0
1510137839.098,59.570,-41.504,40.039,47.852,22.949,0
1510137839.102,41.016,36.621,27.832,32.227,38.086,0
1510137839.106,36.621,95.215,22.461,21.973,-16.602,0
1510137839.110,49.805,-28.320,32.715,18.555,-72.266,0
1510137839.114,55.176,-68.359,37.598,38.086,-32.227,0
1510137839.118,34.668,70.801,32.227,42.480,-1.953,0
1510137839.122,11.230,98.633,21.973,-4.883,-42.480,0
1510137839.126,26.367,67.383,38.574,3.906,-24.414,0
1510137839.130,43.945,47.363,40.527,29.297,11.230,0
1510137839.134,31.250,35.645,28.320,15.625,-4.395,0
1510137839.137,49.805,-15.137,46.875,41.992,31.738,0
1510137839.141,64.941,-6.348,55.664,67.383,42.969,0
1510137839.145,54.199,25.879,35.645,36.133,-0.488,0
1510137839.149,45.898,-46.387,38.574,31.250,-15.137,0
1510137839.153,19.531,-27.832,35.645,36.621,-3.418,0
1510137839.157,18.555,-15.137,27.344,17.578,-18.555,0
1510137839.161,39.062,2.930,45.410,33.203,-33.203,0
1510137839.165,43.945,73.730,45.898,42.969,-14.648,0
1510137839.169,20.996,73.730,25.879,18.066,-3.418,0
1510137839.173,27.344,-31.250,29.297,17.090,33.203,0
1510137839.176,29.297,-13.672,32.715,21.973,25.879,0
1510137839.180,19.531,121.094,18.066,5.859,21.484,0
1510137839.184,28.320,94.727,21.973,7.324,8.789,0
1510137839.188,34.668,-25.879,30.273,22.949,-2.441,0
1510137839.192,41.016,-19.531,24.902,14.648,-10.742,0
1510137839.196,40.527,7.324,19.043,4.883,-16.602,0
1510137839.200,46.387,-25.879,31.738,11.230,2.930,0
1510137839.204,46.875,44.434,29.785,6.348,8.301,0
1510137839.208,34.668,94.238,25.879,12.207,19.531,0
1510137839.212,11.230,93.262,24.414,9.766,-51.758,0
1510137839.216,18.066,29.297,28.320,20.020,-30.273,0
1510137839.219,60.059,-41.992,45.410,50.781,38.086,0
1510137839.223,70.312,-6.836,43.457,50.781,51.758,0
1510137839.227,43.945,68.359,17.090,27.832,68.848,0
1510137839.231,42.480,31.250,0.000,1.465,79.102,0
1510137839.235,58.105,-69.336,21.484,11.719,83.496,0
1510137839.239,25.391,16.602,25.879,33.691,56.641,0
1510137839.243,9.766,134.277,9.277,23.438,83.984,0
1510137839.247,43.457,120.117,20.996,17.578,83.984,0
1510137839.251,33.203,69.824,24.902,12.207,59.570,0
1510137839.255,24.902,8.789,20.020,8.301,35.156,0
1510137839.259,49.805,19.531,32.227,25.879,31.738,0
1510137839.262,39.062,32.715,28.320,28.320,97.168,0
1510137839.266,25.391,13.184,12.207,-0.977,96.680,0
1510137839.270,42.480,25.879,20.508,6.836,64.453,0
1510137839.274,35.156,33.203,21.484,8.789,67.383,0
1510137839.278,53.223,-4.395,29.785,19.531,84.473,0
1510137839.282,84.473,-101.074,59.570,64.941,74.707,0
1510137839.286,66.406,-105.957,52.734,63.965,56.641,0
1510137839.290,32.715,39.062,29.785,31.250,55.176,0
1510137839.294,6.836,137.207,9.277,-0.977,50.293,0
1510137839.298,22.461,120.117,6.836,-0.488,39.551,0
1510137839.301,37.598,84.961,13.184,19.531,30.273,0
1510137839.305,7.324,61.035,10.742,5.859,-8.789,0
1510137839.309,22.949,58.594,25.879,2.930,-3.418,0
1510137839.313,43.457,-10.254,39.062,36.621,-5.371,0
1510137839.317,30.762,-43.945,33.203,42.480,-5.859,0
1510137839.321,42.969,34.180,24.414,22.949,46.875,0
1510137839.325,50.781,41.504,17.578,0.977,32.715,0
1510137839.329,42.480,60.059,23.438,13.184,16.602,0
1510137839.333,32.715,91.797,26.367,29.785,14.648,0
1510137839.337,32.227,46.387,22.949,25.391,-5.859,0
1510137839.341,62.988,-33.203,36.621,55.176,2.930,0
1510137839.344,71.777,-14.648,35.645,51.758,-4.883,0
1510137839.348,45.410,50.293,18.555,17.090,-3.906,0
1510137839.352,39.062,-0.977,19.043,27.344,29.785,0
1510137839.356,52.246,-38.086,31.250,43.457,0.000,0
1510137839.360,48.340,25.391,34.180,41.504,14.160,0
1510137839.364,47.852,114.258,14.160,12.695,6.348,0
1510137839.368,49.316,87.891,9.277,9.277,-7.324,0
1510137839.372,38.574,-1.953,21.973,29.297,5.859,0
1510137839.376,58.594,7.812,45.898,45.410,14.648,0
1510137839.380,52.246,7.812,48.828,48.828,29.785,0
1510137839.384,20.508,57.129,26.367,29.785,16.602,0
1510137839.387,10.254,112.793,2.441,-1.465,13.184,0
1510137839.391,21.973,29.297,2.441,-0.488,-42.480,0
1510137839.395,33.203,-51.270,21.484,26.855,-44.434,0
1510137839.399,28.809,-9.277,20.996,12.207,15.137,0
1510137839.403,20.996,68.359,14.648,-17.578,20.020,0
1510137839.407,1.465,81.055,16.602,-8.301,0.488,0
1510137839.411,7.812,38.574,22.461,10.254,-15.137,0
1510137839.415,43.457,17.578,30.762,20.508,4.395,0
1510137839.419,47.363,-0.977,28.320,21.484,17.090,0
1510137839.423,27.832,0.977,35.156,26.367,12.207,0
1510137839.426,-2.441,41.992,31.738,19.043,-22.949,0
1510137839.430,-16.113,57.617,8.301,7.324,-28.809,0
1510137839.434,22.949,9.277,19.531,15.625,-36.621,0
1510137839.438,44.434,-84.961,39.551,24.414,-42.969,0
1510137839.442,45.898,-68.359,49.316,25.879,2.441,0
1510137839.446,27.344,47.363,38.574,12.207,4.395,0
1510137839.450,-23.926,120.117,7.812,-13.184,-29.297,0
1510137839.454,-21.973,100.098,5.371,-16.113,-44.922,0
1510137839.458,17.090,40.527,13.672,-10.742,-7.812,0
1510137839.462,33.203,32.715,27.832,14.648,6.348,0
1510137839.466,21.484,15.137,35.156,33.203,0.000,0
1510137839.469,33.203,-20.508,35.645,35.645,20.996,0
1510137839.473,46.875,27.344,25.879,14.160,10.742,0
1510137839.477,32.715,25.879,10.742,-8.789,-15.137,0
1510137839.481,49.805,-56.641,23.438,14.648,-12.207,0
1510137839.485,61.523,-31.250,32.715,34.180,-9.277,0
1510137839.489,41.016,74.707,28.320,31.250,-7.812,0
1510137839.493,33.203,103.516,25.879,32.227,2.930,0
1510137839.497,32.715,56.641,23.438,30.273,-52.734,0
1510137839.501,44.434,29.297,21.973,21.484,-29.297,0
1510137839.505,39.062,35.645,23.438,21.484,20.020,0
1510137839.509,38.574,57.129,30.273,24.902,-30.273,0
1510137839.512,45.410,62.988,22.949,19.531,-8.789,0
1510137839.516,38.574,-18.555,20.020,17.578,20.508,0
1510137839.520,65.430,-90.332,39.062,26.367,-17.578,0
1510137839.524,77.637,-36.133,42.480,35.645,-25.391,0
1510137839.528,37.598,-8.301,24.902,24.414,-44.922,0
1510137839.532,25.391,57.129,10.254,-2.441,-50.293,0
1510137839.536,64.453,130.859,30.273,22.461,18.066,0
1510137839.540,40.527,93.750,31.250,45.410,-16.113,0
1510137839.544,9.766,37.109,11.230,12.695,-51.270,0
1510137839.548,39.551,26.855,12.207,0.488,12.695,0
1510137839.551,59.570,-21.973,20.996,20.020,9.766,0
1510137839.555,54.199,-32.227,29.297,30.273,-45.898,0
1510137839.559,46.387,44.434,28.320,31.250,-52.246,0
1510137839.563,46.387,47.363,35.156,48.340,-30.273,0
1510137839.567,40.527,0.977,33.203,33.691,-12.207,0
1510137839.571,53.223,29.297,39.062,23.926,24.902,0
1510137839.575,54.688,43.945,36.621,34.668,-17.578,0
1510137839.579,40.039,-5.371,23.926,31.738,-40.039,0
1510137839.583,28.320,21.973,24.414,28.809,-41.504,0
1510137839.587,15.625,91.797,8.789,9.766,-26.367,0
1510137839.591,19.531,90.332,4.883,-7.324,-18.555,0
1510137839.594,33.691,45.898,9.766,-14.648,-38.086,0
1510137839.598,51.270,27.344,27.344,17.578,-11.230,0
1510137839.602,29.297,22.949,41.016,39.551,-56.641,0
1510137839.606,25.391,-71.289,36.621,20.508,-49.316,0
1510137839.610,62.988,-130.859,52.734,37.598,-25.879,0
1510137839.614,38.574,19.531,44.434,40.039,-52.246,0
1510137839.618,-4.395,130.859,14.160,11.719,-6.836,0
1510137839.622,-6.348,121.582,5.859,5.859,-12.207,0
1510137839.626,17.090,74.219,9.766,5.859,-54.688,0
1510137839.630,26.855,4.883,11.230,9.277,-74.707,0
1510137839.634,55.664,-21.484,30.762,31.250,-68.359,0
1510137839.637,66.406,-26.367,59.082,56.641,0.977,0
1510137839.641,30.273,-23.438,41.992,25.879,-13.184,0
1510137839.645,15.625,76.172,17.578,-0.977,-36.621,0
1510137839.649,-15.137,96.191,3.906,-16.602,-23.926,0
1510137839.653,1.465,5.371,10.742,-8.301,-27.344,0
1510137839.657,75.195,-30.273,49.805,38.574,-33.203,0
1510137839.661,77.148,16.113,43.457,34.180,-54.688,0
1510137839.665,38.086,24.902,19.043,16.113,-62.012,0
1510137839.669,31.738,0.977,25.879,12.695,-38.574,0
1510137839.673,13.672,12.207,21.484,-0.488,-29.297,0
1510137839.676,21.973,14.648,32.227,22.949,-57.617,0
1510137839.680,28.809,65.918,40.039,30.762,-49.805,0
1510137839.684,43.945,104.980,22.461,-8.789,5.371,0
1510137839.688,77.148,-8.789,25.391,-2.441,-10.742,0
1510137839.692,23.926,-61.035,32.715,11.719,-40.527,0
1510137839.696,-6.348,-8.301,30.762,0.977,-23.438,0
1510137839.700,23.438,40.039,41.504,19.043,-3.906,0
1510137839.704,26.855,86.914,38.086,17.090,11.719,0
1510137839.708,10.742,50.781,17.090,2.441,-13.672,0
1510137839.712,14.160,40.527,11.719,0.977,-25.879,0
1510137839.716,34.180,43.945,16.113,-12.207,-23.926,0
1510137839.719,39.062,-22.461,33.691,20.508,-20.996,0
1510137839.723,29.785,0.488,34.668,32.227,-16.113,0
1510137839.727,25.391,50.293,27.344,7.812,-15.137,0
1510137839.731,24.902,20.508,24.902,8.789,-3.906,0
1510137839.735,23.438,-8.301,30.762,21.973,-29.785,0
1510137839.739,14.160,36.621,37.109,27.344,-42.480,0
1510137839.743,8.789,41.504,21.973,17.090,-20.508,0
1510137839.747,2.930,9.277,12.695,9.277,-34.180,0
1510137839.751,19.531,26.855,18.555,18.555,-32.715,0
1510137839.755,20.996,24.414,15.625,21.973,-23.926,0
1510137839.759,30.762,50.293,21.973,29.297,-29.785,0
1510137839.762,32.715,73.730,36.133,23.438,-31.250,0
1510137839.766,24.414,51.270,25.391,7.324,-75.195,0
1510137839.770,49.805,-2.930,21.973,19.531,-73.242,0
1510137839.774,9.766,-5.371,15.625,21.484,-18.066,0
1510137839.778,-9.766,-14.160,15.625,19.531,-10.254,0
1510137839.782,52.246,-53.711,26.855,41.504,-18.555,0
1510137839.786,78.613,14.648,27.832,47.363,-16.113,0
1510137839.790,33.691,42.969,20.020,29.297,-22.949,0
1510137839.794,47.363,40.039,23.926,34.180,-57.129,0
1510137839.798,68.848,55.176,26.855,55.664,-44.434,0
1510137839.801,25.391,96.191,9.766,29.297,-22.461,0
1510137839.805,7.324,70.801,5.859,8.301,-12.207,0
1510137839.809,39.062,3.418,26.367,36.621,-44.434,0
1510137839.813,37.109,-22.461,30.273,40.527,-59.570,0
1510137839.817,34.180,-41.992,28.320,41.992,-22.461,0
1510137839.821,77.637,57.617,35.156,58.105,-15.625,0
1510137839.825,58.105,83.496,16.113,38.086,-36.621,0
1510137839.829,11.719,10.254,0.977,18.555,-41.992,0
1510137839.833,7.324,49.316,1.953,12.695,-6.348,0
1510137839.837,43.457,46.387,15.137,40.527,-3.418,0
1510137839.841,69.336,22.949,31.738,63.477,-23.438,0
1510137839.844,51.758,50.781,38.574,52.246,-26.855,0
1510137839.848,-10.254,41.504,18.066,6.348,-0.977,0
1510137839.852,12.207,17.578,7.812,-9.277,-4.883,0
1510137839.856,47.363,56.152,14.648,6.836,-29.785,0
1510137839.860,31.250,5.859,24.902,19.531,-45.410,0
1510137839.864,93.750,-101.562,47.852,56.641,-20.508,0
1510137839.868,94.727,-26.855,47.363,69.336,-9.277,0
1510137839.872,0.000,98.633,27.344,33.203,-26.855,0
1510137839.876,-15.137,118.652,9.766,8.789,-18.066,0
1510137839.880,39.551,88.867,4.883,25.391,-18.555,0
1510137839.884,34.668,46.387,4.883,27.832,-32.715,0
1510137839.887,38.086,-11.230,20.020,46.387,-18.066,0
1510137839.891,58.594,-20.020,31.250,48.828,-3.906,0
1510137839.895,60.547,-6.348,30.273,39.551,-20.020,0
1510137839.899,59.570,21.973,22.949,33.691,-8.301,0
1510137839.903,59.570,1.953,20.996,27.344,-59.082,0
1510137839.907,33.691,18.555,27.832,33.691,-51.758,0
1510137839.911,49.316,72.754,28.320,44.922,10.254,0
1510137839.915,65.918,19.531,22.949,49.805,-22.949,0
1510137839.919,33.691,28.320,25.391,37.598,-14.160,0
1510137839.923,35.645,42.969,26.855,22.949,28.809,0
1510137839.926,25.879,37.598,15.137,7.812,-0.488,0
1510137839.930,47.363,25.391,15.137,8.789,10.742,0
1510137839.934,78.613,-18.555,33.203,42.480,37.109,0
1510137839.938,55.664,-35.156,43.945,63.965,9.766,0
1510137839.942,27.832,-14.160,32.715,49.805,-5.371,0
1510137839.946,22.949,26.367,23.438,26.855,13.672,0
1510137839.950,19.043,91.797,12.695,10.254,15.625,0
1510137839.954,11.719,125.977,6.836,3.906,7.324,0
1510137839.958,0.488,83.496,2.441,-7.812,9.766,0
1510137839.962,15.625,54.199,4.395,3.906,-10.742,0
1510137839.966,26.367,48.828,15.137,11.230,-9.277,0
1510137839.969,28.320,-8.301,26.367,19.531,8.301,0
1510137839.973,57.129,-65.918,42.969,48.828,-2.441,0
1510137839.977,69.824,-19.043,47.852,53.223,10.742,0
1510137839.981,54.199,14.160,40.039,52.246,0.000,0
1510137839.985,43.457,15.137,28.320,47.363,-19.043,0
1510137839.989,46.875,49.805,13.184,21.973,-24.414,0
1510137839.993,34.180,37.109,11.230,18.555,-15.625,0
1510137839.997,37.598,2.930,31.738,49.316,7.324,0
1510137840.001,34.668,30.762,39.062,49.316,-2.441,0
1510137840.005,29.785,55.176,22.949,34.180,-4.883,0
1510137840.009,19.531,70.801,17.090,31.738,6.836,0
1510137840.012,34.180,65.430,22.461,18.066,-16.113,0
1510137840.016,60.547,24.902,41.504,31.250,-4.883,0
1510137840.020,14.160,10.742,28.320,24.414,-8.301,0
1510137840.024,-8.789,19.531,17.578,20.508,-17.578,0
1510137840.028,9.277,13.184,32.715,47.363,36.133,0
1510137840.032,26.855,-9.766,30.762,42.969,32.715,0
1510137840.036,20.020,16.602,18.555,15.625,1.953,0
1510137840.040,24.414,31.250,22.949,20.508,1.465,0
1510137840.044,49.805,5.859,28.809,26.367,1.465,0
1510137840.048,27.832,12.207,15.137,4.395,20.996,0
1510137840.051,22.949,43.457,17.090,3.418,-12.207,0
1510137840.055,64.453,-11.719,43.945,47.852,-22.461,0
1510137840.059,77.637,-52.246,42.480,51.270,32.227,0
1510137840.063,45.898,60.059,25.391,29.297,4.883,0
1510137840.067,2.441,72.754,29.785,37.109,20.020,0
1510137840.071,-22.949,51.270,21.484,24.902,39.062,0
1510137840.075,-6.348,60.547,19.531,26.367,-4.883,0
1510137840.079,24.902,43.457,26.855,39.062,-3.906,0
1510137840.083,30.273,35.645,25.391,33.691,24.414,0
1510137840.087,22.949,23.438,25.391,21.973,10.254,0
1510137840.091,44.434,14.648,38.086,31.250,7.812,0
1510137840.094,46.387,12.207,41.016,36.133,-13.672,0
1510137840.098,61.035,-53.223,45.410,45.410,8.789,0
1510137840.102,67.871,-73.730,46.387,45.410,34.180,0
1510137840.106,22.461,41.504,29.785,25.391,0.488,0
1510137840.110,5.859,115.234,20.996,18.555,-6.348,0
1510137840.114,19.531,86.426,6.836,-2.930,-16.602,0
1510137840.118,21.484,51.758,2.441,-2.930,17.090,0
1510137840.122,8.789,34.180,5.859,2.930,11.719,0
1510137840.126,27.344,37.109,10.742,-4.883,-5.859,0
1510137840.130,33.203,49.805,14.160,-6.348,21.973,0
1510137840.134,34.180,14.160,21.973,6.836,18.555,0
1510137840.137,59.082,-106.934,41.504,37.598,-10.254,0
1510137840.141,72.754,-118.652,63.477,67.383,9.766,0
1510137840.145,57.617,24.902,54.199,57.617,28.809,0
1510137840.149,25.879,125.488,23.926,9.766,28.320,0
1510137840.153,4.883,100.586,3.906,-18.555,23.926,0
1510137840.157,12.695,37.598,5.371,-7.324,-38.086,0
1510137840.161,17.578,17.578,20.020,3.906,-17.578,0
1510137840.165,19.043,29.297,19.043,7.324,29.785,0
1510137840.169,16.113,45.898,15.625,6.348,13.184,0
1510137840.173,42.480,41.992,24.414,0.977,32.715,0
1510137840.176,74.707,47.363,42.480,32.227,34.180,0
1510137840.180,63.965,0.488,53.223,57.617,13.672,0
1510137840.184,49.316,-22.461,40.527,30.273,-0.488,0
1510137840.188,40.039,-45.898,27.344,14.648,6.348,0
1510137840.192,59.570,-71.289,38.086,34.180,23.926,0
1510137840.196,41.504,19.531,34.668,32.227,14.648,0
1510137840.200,17.090,122.559,14.648,17.578,-6.348,0
1510137840.204,20.996,150.879,5.859,5.371,-11.230,0
1510137840.208,22.461,118.164,1.465,0.977,17.578,0
1510137840.212,41.016,82.031,4.395,-5.371,4.883,0
1510137840.216,48.828,36.133,12.695,-0.488,-11.230,0
1510137840.219,55.176,-7.812,16.602,13.672,8.789,0
1510137840.223,52.246,20.996,25.391,11.719,20.996,0
1510137840.227,44.922,44.922,31.738,22.949,20.996,0
1510137840.231,33.203,8.789,21.484,19.531,20.508,0
1510137840.235,34.180,6.836,19.531,15.137,29.785,0
1510137840.239,51.758,7.812,23.926,19.531,40.039,0
1510137840.243,49.316,-17.090,23.926,9.766,13.672,0
1510137840.247,54.199,-9.766,41.016,23.926,10.742,0
1510137840.251,65.918,37.598,34.180,22.461,14.160,0
1510137840.255,56.152,85.938,1.953,-12.207,9.277,0
1510137840.259,29.297,86.426,0.000,-11.719,2.930,0
1510137840.262,12.695,49.316,12.207,10.742,29.785,0
1510137840.266,45.898,18.066,30.762,33.691,69.336,0
1510137840.270,60.059,9.766,33.691,38.574,53.223,0
1510137840.274,26.855,13.672,17.578,7.324,20.996,0
1510137840.278,23.438,19.531,17.090,-6.836,9.277,0
1510137840.282,54.199,31.738,34.668,7.812,28.809,0
1510137840.286,46.875,31.738,28.809,1.465,53.711,0
1510137840.290,23.438,44.922,24.902,-4.395,21.973,0
1510137840.294,25.879,76.172,27.832,-8.301,-10.742,0
1510137840.298,24.902,52.734,16.602,-17.578,16.113,0
1510137840.301,7.324,18.066,19.043,-15.625,35.156,0
1510137840.305,-2.441,8.789,30.762,-3.418,50.781,0
1510137840.309,7.324,4.883,39.551,8.301,39.551,0
1510137840.313,10.254,26.855,28.320,-10.254,-7.812,0
1510137840.317,22.461,19.043,23.438,-20.996,20.020,0
1510137840.321,36.133,-9.277,29.785,-10.254,32.227,0
1510137840.325,42.480,-11.230,37.109,14.648,10.742,0
1510137840.329,61.035,-8.301,34.180,20.508,29.297,0
1510137840.333,59.570,25.879,20.020,0.000,39.551,0
1510137840.337,31.738,32.227,19.531,-8.301,-37.109,0
1510137840.341,19.531,27.832,25.391,-3.906,-25.391,0
1510137840.344,16.113,22.949,15.137,-7.812,16.113,0
1510137840.348,3.418,1.953,8.789,-10.742,10.742,0
1510137840.352,2.930,8.301,3.906,-15.137,69.336,0
1510137840.356,25.879,3.906,11.719,0.000,61.035,0
1510137840.360,37.598,19.043,19.531,14.160,34.668,0
1510137840.364,38.086,85.938,17.578,8.301,38.086,0
1510137840.368,66.406,88.867,25.391,13.184,34.180,0
1510137840.372,71.777,24.414,18.066,1.465,2.930,0
1510137840.376,40.527,10.254,20.020,5.371,7.812,0
1510137840.380,14.160,22.461,14.160,7.812,14.160,0
1510137840.384,9.766,4.395,6.348,5.859,16.602,0
1510137840.387,14.160,21.973,10.254,5.859,35.645,0
1510137840.391,18.066,63.477,5.859,-13.672,18.066,0
1510137840.395,38.086,67.871,21.484,-0.977,-16.602,0
1510137840.399,39.062,37.109,26.855,17.090,-19.043,0
1510137840.403,36.133,34.180,24.414,15.625,25.879,0
1510137840.407,41.992,-1.465,28.320,10.742,31.738,0
1510137840.411,47.363,-73.730,38.086,25.879,36.621,0
1510137840.415,29.297,-29.297,40.039,32.227,19.043,0
1510137840.419,-2.441,61.035,3.906,-6.836,-0.488,0
1510137840.423,16.602,92.285,0.488,-5.859,21.973,0
1510137840.426,27.832,27.832,18.555,8.789,32.715,0
1510137840.430,28.320,19.531,11.719,-2.441,7.812,0
1510137840.434,14.648,80.566,11.230,-4.395,6.836,0
1510137840.438,10.254,67.871,23.926,6.836,10.254,0
1510137840.442,28.809,65.918,25.879,11.230,17.090,0
1510137840.446,36.621,23.438,20.508,-1.953,25.879,0
1510137840.450,49.805,-29.297,36.621,12.207,17.578,0
1510137840.454,34.180,-5.859,42.969,26.367,40.527,0
1510137840.458,7.812,18.066,21.484,9.277,7.812,0
1510137840.462,27.344,37.598,26.855,9.766,40.039,0
1510137840.466,34.180,57.129,31.738,9.277,47.852,0
1510137840.469,9.277,47.363,16.602,-2.930,10.254,0
1510137840.473,-15.137,32.227,15.137,-17.578,22.949,0
1510137840.477,-16.602,0.000,28.809,-12.695,72.754,0
1510137840.481,26.367,8.789,38.086,0.000,63.965,0
1510137840.485,27.832,3.418,36.133,-0.977,7.812,0
1510137840.489,16.113,-42.480,39.551,11.719,-4.395,0
1510137840.493,37.109,4.883,49.316,24.414,17.090,0
1510137840.497,18.555,85.449,28.809,-0.488,23.926,0
1510137840.501,-4.395,99.121,5.859,-23.926,54.199,0
1510137840.505,-13.184,57.129,4.883,-20.508,76.172,0
1510137840.509,17.090,22.949,24.414,2.930,40.039,0
1510137840.512,39.551,45.410,37.598,17.578,18.066,0
1510137840.516,26.855,-15.137,28.320,7.324,9.277,0
1510137840.520,39.062,-66.406,37.109,22.461,23.438,0
1510137840.524,22.949,4.395,30.762,20.508,45.898,0
1510137840.528,14.648,64.453,23.438,9.766,46.875,0
1510137840.532,16.602,85.938,23.438,9.766,35.645,0
1510137840.536,7.812,76.660,23.438,12.695,30.273,0
1510137840.540,10.742,57.617,27.344,8.301,18.555,0
1510137840.544,25.879,7.324,33.691,-1.953,6.836,0
1510137840.548,33.691,-36.133,34.180,5.859,27.344,0
1510137840.551,27.832,-35.156,31.738,16.113,41.504,0
1510137840.555,35.156,-15.137,29.785,5.859,50.781,0
1510137840.559,40.527,30.762,18.066,-12.695,20.508,0
1510137840.563,19.531,96.191,9.277,-17.578,18.066,0
1510137840.567,-10.254,96.680,7.812,-11.230,57.617,0
1510137840.571,-1.953,34.180,12.695,0.000,43.945,0
1510137840.575,26.367,14.648,33.203,12.207,14.160,0
1510137840.579,43.457,-1.465,52.734,28.320,2.930,0
1510137840.583,33.691,7.324,34.668,20.996,60.547,0
1510137840.587,17.578,64.941,15.625,1.953,60.059,0
1510137840.591,15.137,67.383,12.695,-10.742,7.324,0
1510137840.594,24.414,36.133,16.113,-12.207,10.254,0
1510137840.598,28.809,-9.277,26.367,4.883,0.000,0
1510137840.602,20.996,-41.992,38.574,27.832,17.578,0
1510137840.606,41.016,31.250,48.828,26.855,33.691,0
1510137840.610,29.297,76.172,30.762,-1.953,5.859,0
1510137840.614,14.648,38.574,30.273,7.324,19.531,0
1510137840.618,32.227,11.719,40.039,19.531,42.969,0
1510137840.622,29.785,-7.812,29.785,2.930,-3.906,0
1510137840.626,19.043,-9.766,28.320,7.324,-17.090,0
1510137840.630,20.996,12.695,27.832,10.254,21.973,0
1510137840.634,29.297,42.480,33.203,14.648,-5.371,0
1510137840.637,39.551,76.172,37.109,22.949,3.418,0
1510137840.641,40.527,34.668,31.250,20.508,49.805,0
1510137840.645,36.621,-0.977,21.484,21.973,44.434,0
1510137840.649,31.738,64.453,14.160,15.625,36.621,0
1510137840.653,18.066,81.543,11.230,-5.371,27.344,0
1510137840.657,36.621,21.484,26.855,3.418,17.090,0
1510137840.661,54.688,-42.969,42.969,28.809,25.391,0
1510137840.665,51.758,4.395,51.758,44.922,-7.324,0
1510137840.669,42.480,66.406,33.203,25.391,7.812,0
1510137840.673,31.738,68.359,15.137,6.836,43.457,0
1510137840.676,31.738,65.918,19.531,24.902,32.715,0
1510137840.680,42.480,32.227,28.320,30.273,37.109,0
1510137840.684,67.871,-8.301,40.039,28.320,32.715,0
1510137840.688,86.426,-5.859,44.434,38.574,36.621,0
1510137840.692,49.316,10.254,25.391,23.438,52.246,0
1510137840.696,35.645,33.203,25.391,30.273,29.785,0
1510137840.700,46.387,28.320,32.715,32.227,41.016,0
1510137840.704,36.621,44.922,20.020,10.742,26.855,0
1510137840.708,42.480,80.566,29.297,23.438,-0.977,0
1510137840.712,45.898,11.230,36.133,36.133,-26.367,0
1510137840.716,57.617,-13.672,36.621,38.574,-5.859,0
1510137840.719,59.082,59.570,32.715,28.809,67.383,0
1510137840.723,54.688,30.273,37.109,21.484,48.828,0
1510137840.727,31.738,-15.137,27.344,11.719,50.293,0
1510137840.731,5.859,64.941,7.812,2.441,42.969,0
1510137840.735,34.180,0.488,20.508,14.160,22.949,0
1510137840.739,68.359,-29.785,30.273,21.484,46.387,0
1510137840.743,37.109,78.613,8.301,0.000,52.734,0
1510137840.747,18.066,12.207,20.020,19.043,30.273,0
1510137840.751,59.570,-20.996,54.199,60.059,30.273,0
1510137840.755,36.621,91.797,29.785,22.461,16.602,0
1510137840.759,2.441,108.398,5.371,-7.812,20.996,0
1510137840.762,36.621,36.621,28.320,27.344,62.012,0
1510137840.766,40.039,-30.273,26.855,17.578,36.133,0
1510137840.770,25.879,0.488,7.324,-11.719,20.020,0
1510137840.774,44.434,69.824,17.090,6.348,37.109,0
1510137840.778,37.598,21.973,15.137,16.113,24.902,0
1510137840.782,20.020,56.641,8.789,11.719,11.719,0
1510137840.786,32.227,91.309,19.531,2.441,17.090,0
1510137840.790,52.246,-76.660,30.762,8.789,17.578,0
1510137840.794,46.387,-43.945,28.320,8.789,-2.930,0
1510137840.798,44.922,113.770,19.043,3.418,20.996,0
1510137840.801,62.012,49.316,17.578,7.324,-16.113,0
1510137840.805,68.359,17.578,20.020,16.113,-42.480,0
1510137840.809,46.387,103.516,2.930,0.000,27.832,0
1510137840.813,41.504,89.844,-3.906,3.906,20.996,0
1510137840.817,39.062,-25.391,5.859,22.949,38.086,0
1510137840.821,41.992,42.969,16.602,22.949,50.293,0
1510137840.825,56.152,100.098,24.414,21.973,24.902,0
1510137840.829,53.223,12.207,14.648,15.625,20.996,0
1510137840.833,51.270,43.945,11.230,20.508,-1.953,0
1510137840.837,62.012,71.289,16.113,20.020,15.625,0
1510137840.841,69.336,30.762,27.832,20.508,27.344,0
1510137840.844,55.664,46.875,24.902,17.090,-19.043,0
1510137840.848,61.523,55.664,23.926,25.879,-16.602,0
1510137840.852,73.730,-22.949,26.367,27.832,14.160,0
1510137840.856,67.383,-14.160,30.762,26.855,-7.812,0
1510137840.860,23.926,115.723,15.137,13.184,-22.461,0
1510137840.864,-1.953,96.191,-19.043,-25.391,-19.043,0
1510137840.868,27.832,-0.977,1.465,7.812,15.625,0
1510137840.872,43.457,-2.930,19.531,41.504,14.160,0
1510137840.876,59.082,9.766,6.836,7.812,10.254,0
1510137840.880,52.246,49.316,2.441,-20.020,-1.465,0
1510137840.884,29.785,108.398,14.160,3.906,1.465,0
1510137840.887,11.230,150.879,7.812,2.930,19.043,0
1510137840.891,19.043,92.773,10.254,-8.301,-52.246,0
1510137840.895,65.918,-61.035,42.480,33.203,-33.691,0
1510137840.899,63.477,-7.324,41.016,35.156,56.641,0
1510137840.903,34.668,57.129,21.484,8.789,19.043,0
1510137840.907,43.457,8.301,26.367,23.438,27.344,0
1510137840.911,41.504,77.637,14.648,0.000,23.926,0
1510137840.915,47.363,-0.488,11.230,-4.395,1.465,0
1510137840.919,80.078,-76.172,37.109,34.180,24.902,0
1510137840.923,80.078,64.941,28.809,17.578,42.480,0
1510137840.926,35.156,175.781,-0.977,2.930,63.477,0
1510137840.930,29.297,154.785,4.883,15.625,31.250,0
1510137840.934,75.684,-64.453,40.527,47.363,3.418,0
1510137840.938,102.051,-161.133,59.082,63.477,7.812,0
1510137840.942,54.199,111.816,24.414,10.254,14.160,0
1510137840.946,25.391,227.539,-4.883,-23.926,-5.371,0
1510137840.950,54.199,71.777,8.301,-8.301,5.859,0
1510137840.954,79.102,-36.133,30.762,17.090,25.391,0
1510137840.958,66.895,19.043,27.832,21.973,16.602,0
1510137840.962,34.180,34.668,20.020,15.625,11.230,0
1510137840.966,17.578,62.500,20.020,-0.488,15.625,0
1510137840.969,16.602,97.656,5.859,-26.367,45.898,0
1510137840.973,25.879,65.918,5.371,-15.137,30.273,0
1510137840.977,63.965,-26.367,42.480,35.156,6.836,0
1510137840.981,77.637,-55.176,54.688,43.945,24.902,0
1510137840.985,39.062,20.996,36.133,14.160,19.043,0
1510137840.989,28.809,-17.090,24.414,6.348,18.555,0
1510137840.993,29.297,5.859,21.484,-7.324,9.766,0
1510137840.997,14.160,148.438,18.555,-30.273,0.977,0
1510137841.001,4.395,117.676,5.371,-31.738,51.758,0
1510137841.005,54.688,-50.781,42.969,23.438,57.617,0
1510137841.009,70.312,-37.109,53.711,28.320,22.949,0
1510137841.012,22.949,68.848,7.812,-21.973,16.113,0
1510137841.016,33.203,99.121,13.184,-15.137,32.715,0
1510137841.020,38.574,96.191,20.996,-12.695,13.672,0
1510137841.024,9.277,51.758,15.625,-18.066,-5.859,0
1510137841.028,10.254,21.973,32.227,-10.742,26.855,0
1510137841.032,24.414,2.930,36.621,1.953,28.320,0
1510137841.036,39.062,-56.641,46.387,29.297,45.898,0
1510137841.040,75.684,-93.750,69.336,45.410,26.855,0
1510137841.044,73.242,31.738,49.316,18.066,-3.418,0
1510137841.048,12.695,138.184,12.207,-20.996,27.344,0
1510137841.051,-8.789,111.328,13.184,-7.324,18.066,0
1510137841.055,19.043,34.668,29.297,15.625,43.945,0
1510137841.059,25.879,-11.230,27.344,0.488,38.086,0
1510137841.063,36.133,-3.906,21.973,-3.418,23.926,0
1510137841.067,50.781,22.461,36.133,13.184,14.648,0
1510137841.071,35.645,90.820,25.879,9.277,32.715,0
1510137841.075,44.434,63.477,26.855,11.719,53.711,0
1510137841.079,76.660,20.508,58.105,38.574,31.738,0
1510137841.083,62.500,33.691,41.504,35.645,48.828,0
1510137841.087,36.133,42.969,10.742,13.672,-2.930,0
1510137841.091,38.574,61.523,4.395,-4.883,-12.207,0
1510137841.094,45.898,27.344,18.066,8.789,52.246,0
1510137841.098,34.180,15.625,24.414,24.414,39.062,0
1510137841.102,44.434,53.223,30.762,18.066,44.922,0
1510137841.106,60.547,41.016,37.598,21.484,63.965,0
1510137841.110,39.062,46.387,19.531,16.602,65.430,0
1510137841.114,59.082,56.641,16.113,10.254,45.410,0
1510137841.118,80.566,-33.691,35.156,27.344,60.547,0
1510137841.122,61.523,-47.363,51.270,55.176,62.500,0
1510137841.126,47.852,87.891,48.340,43.945,40.527,0
1510137841.130,45.410,95.703,32.227,31.250,21.484,0
1510137841.134,47.363,5.371,30.273,40.039,28.320,0
1510137841.137,45.898,-2.441,28.809,35.645,61.523,0
1510137841.141,46.387,33.203,22.949,22.949,26.367,0
1510137841.145,30.273,90.820,11.719,2.441,-8.789,0
1510137841.149,27.832,88.379,7.812,-8.789,14.160,0
1510137841.153,41.016,34.180,15.625,-7.324,49.316,0
1510137841.157,47.852,24.902,21.973,-3.906,29.297,0
1510137841.161,51.270,53.711,32.227,17.090,35.645,0
1510137841.165,52.246,54.688,28.809,30.762,36.133,0
1510137841.169,37.598,-2.441,22.949,28.320,17.578,0
1510137841.173,43.457,-75.684,40.527,42.480,49.805,0
1510137841.176,73.730,-76.172,60.547,72.754,1.953,0
1510137841.180,64.941,25.879,48.828,55.176,-19.531,0
1510137841.184,25.879,100.586,17.578,7.812,30.762,0
1510137841.188,34.668,3.906,35.156,25.879,53.711,0
1510137841.192,56.152,-57.617,55.664,58.594,56.641,0
1510137841.196,25.879,64.941,32.715,19.531,41.016,0
1510137841.200,13.184,104.004,25.391,0.488,56.152,0
1510137841.204,18.555,38.574,31.738,8.301,58.105,0
1510137841.208,30.762,44.922,38.574,10.742,59.570,0
1510137841.212,31.250,28.320,40.527,8.301,51.758,0
1510137841.216,26.855,2.441,50.293,22.949,33.203,0
1510137841.219,49.316,24.414,60.059,36.133,17.090,0
1510137841.223,54.688,21.484,56.641,21.973,-1.465,0
1510137841.227,21.973,9.766,43.457,8.301,38.086,0
1510137841.231,10.254,3.906,39.551,16.602,50.781,0
1510137841.235,33.691,-20.020,41.504,24.902,50.293,0
1510137841.239,43.457,8.301,46.875,21.484,49.805,0
1510137841.243,31.250,84.961,53.223,13.184,20.020,0
1510137841.247,26.855,70.312,45.898,-2.441,29.297,0
1510137841.251,46.387,-36.621,54.688,15.137,37.109,0
1510137841.255,42.969,-27.344,51.758,17.090,37.109,0
1510137841.259,10.254,54.688,36.621,2.930,35.645,0
1510137841.262,-0.488,70.801,35.156,7.812,40.039,0
1510137841.266,38.574,13.672,46.387,10.742,12.695,0
1510137841.270,45.898,-6.836,61.523,18.066,21.484,0
1510137841.274,6.348,56.641,50.781,14.648,57.129,0
1510137841.278,-0.488,15.137,30.762,-1.465,20.508,0
1510137841.282,27.832,-0.488,31.250,-6.836,25.391,0
1510137841.286,40.527,26.855,44.434,14.160,70.801,0
1510137841.290,39.551,20.996,47.363,21.973,56.152,0
1510137841.294,26.855,45.410,32.715,-3.906,52.246,0
1510137841.298,-15.625,53.711,24.414,-6.348,60.547,0
1510137841.301,-1.953,14.648,36.621,7.812,64.453,0
1510137841.305,25.879,-40.527,42.969,11.230,58.105,0
1510137841.309,8.789,-16.602,43.945,11.230,37.109,0
1510137841.313,11.230,67.871,43.945,6.836,11.230,0
1510137841.317,18.555,-17.090,30.273,-4.395,15.625,0
1510137841.321,6.836,-18.066,15.137,-16.113,43.457,0
1510137841.325,8.789,60.547,21.484,-5.371,53.223,0
1510137841.329,27.832,24.902,31.738,9.766,73.242,0
1510137841.333,36.133,31.738,42.969,15.625,67.871,0
1510137841.337,6.348,81.543,26.367,0.488,47.363,0
1510137841.341,-14.648,74.707,2.441,-22.461,18.066,0
1510137841.344,6.836,33.691,9.766,-8.301,29.297,0
1510137841.348,51.758,-58.594,41.016,35.645,80.566,0
1510137841.352,51.270,-56.641,46.387,41.016,61.523,0
1510137841.356,8.301,94.238,0.977,1.465,22.461,0
1510137841.360,15.625,140.625,0.977,-4.395,22.461,0
1510137841.364,56.641,23.926,24.414,18.555,38.086,0
1510137841.368,49.805,-55.664,19.043,33.691,73.730,0
1510137841.372,33.691,6.836,24.414,36.621,29.785,0
1510137841.376,56.152,47.852,31.738,33.203,0.488,0
1510137841.380,32.715,32.715,9.277,20.508,63.965,0
1510137841.384,20.020,25.879,13.184,26.367,59.570,0
1510137841.387,59.082,-1.465,35.156,44.922,55.664,0
1510137841.391,54.199,44.922,17.578,36.133,87.402,0
1510137841.395,34.668,89.844,6.348,23.926,73.730,0
1510137841.399,41.992,92.773,14.648,11.719,49.316,0
1510137841.403,56.641,24.414,20.020,8.789,59.082,0
1510137841.407,57.129,-30.762,29.785,31.250,68.848,0
1510137841.411,62.988,6.836,39.062,47.363,61.523,0
1510137841.415,56.152,37.598,27.344,40.039,18.555,0
1510137841.419,48.340,64.453,14.160,32.715,10.742,0
1510137841.423,44.922,69.824,7.812,18.555,63.477,0
1510137841.426,49.316,5.371,18.555,19.043,59.082,0
1510137841.430,60.547,-53.711,30.273,37.109,89.355,0
1510137841.434,38.574,15.137,19.531,26.855,95.215,0
1510137841.438,14.648,83.984,3.906,-4.395,50.781,0
1510137841.442,28.809,42.480,4.395,-10.742,49.805,0
1510137841.446,41.016,8.301,9.766,4.395,58.105,0
1510137841.450,25.879,25.879,17.090,10.742,59.082,0
1510137841.454,22.461,22.461,21.484,19.531,35.156,0
1510137841.458,45.898,-33.203,27.344,32.227,33.691,0
1510137841.462,62.988,-35.156,36.133,26.855,0.000,0
1510137841.466,27.344,79.590,15.137,-1.465,-8.789,0
1510137841.469,-2.930,120.117,5.371,-1.953,53.711,0
1510137841.473,-5.859,73.242,10.254,-0.488,53.223,0
1510137841.477,19.043,25.391,20.508,-3.906,39.062,0
1510137841.481,55.176,-75.195,35.156,24.414,37.109,0
1510137841.485,61.035,-100.098,43.945,44.434,54.199,0
1510137841.489,44.434,63.477,43.945,48.828,42.969,0
1510137841.493,25.879,48.340,24.414,40.527,-5.859,0
1510137841.497,15.137,13.672,10.254,22.949,-0.488,0
1510137841.501,16.113,85.449,4.395,-1.465,51.758,0
1510137841.505,18.066,70.312,3.418,-4.395,19.043,0
1510137841.509,15.137,66.406,15.625,17.578,-14.648,0
1510137841.512,29.297,20.996,26.855,38.086,41.016,0
1510137841.516,75.684,-88.867,39.062,46.387,56.152,0
1510137841.520,48.828,-43.945,20.996,8.789,27.832,0
1510137841.524,13.672,36.133,14.160,13.672,31.738,0
1510137841.528,5.371,18.066,19.531,27.344,40.039,0
1510137841.532,20.996,50.293,24.902,22.949,18.555,0
1510137841.536,44.922,81.055,30.762,32.715,34.180,0
1510137841.540,22.461,56.641,13.672,16.602,50.293,0
1510137841.544,0.000,11.719,8.301,-3.418,39.062,0
1510137841.548,18.066,-9.277,23.438,-2.441,22.949,0
1510137841.551,34.180,-1.953,36.133,11.719,-5.371,0
1510137841.555,10.254,51.758,18.066,-10.254,7.812,0
1510137841.559,28.320,-3.418,33.203,-0.977,40.527,0
1510137841.563,31.250,-62.988,42.480,9.766,28.809,0
1510137841.567,8.301,25.391,31.250,0.488,-6.348,0
1510137841.571,8.789,38.086,38.574,1.465,15.625,0
1510137841.575,5.859,45.898,24.902,-25.879,55.664,0
1510137841.579,-10.742,107.422,8.301,-41.992,26.367,0
1510137841.583,-27.832,103.516,6.348,-31.250,25.879,0
1510137841.587,-2.930,56.152,22.461,-4.883,37.109,0
1510137841.591,3.906,7.812,20.996,-12.695,52.246,0
1510137841.594,-6.348,18.555,2.441,-38.086,41.504,0
1510137841.598,3.418,87.891,7.812,-20.508,11.230,0
1510137841.602,28.320,61.523,31.250,6.836,36.621,0
1510137841.606,32.715,-6.348,30.762,17.090,26.367,0
1510137841.610,25.879,16.602,28.809,19.043,24.414,0
1510137841.614,15.137,-25.879,32.715,20.996,21.484,0
1510137841.618,20.508,-73.242,35.645,35.156,44.434,0
1510137841.622,10.742,81.543,20.020,4.883,35.645,0
1510137841.626,-18.555,152.832,0.000,-22.949,21.484,0
1510137841.630,-11.719,98.145,6.348,-5.859,48.828,0
1510137841.634,10.254,5.371,29.785,8.301,32.715,0
1510137841.637,22.949,-38.574,42.969,16.113,20.996,0
1510137841.641,28.320,58.594,43.457,22.461,-6.348,0
1510137841.645,6.836,113.281,28.320,16.113,-8.789,0
1510137841.649,-2.930,44.922,7.324,0.977,23.926,0
1510137841.653,12.207,-18.555,14.160,2.930,28.809,0
1510137841.657,10.254,-8.301,11.230,-0.977,27.344,0
1510137841.661,10.254,2.930,11.230,-1.465,28.809,0
1510137841.665,13.672,42.969,20.020,13.672,56.152,0
1510137841.669,14.160,79.590,28.809,23.438,41.992,0
1510137841.673,16.113,56.641,30.762,7.324,16.602,0
1510137841.676,47.852,-14.648,44.434,29.297,21.484,0
1510137841.680,52.734,-23.926,44.434,44.434,41.016,0
1510137841.684,32.715,49.805,18.555,4.883,29.785,0
1510137841.688,52.246,73.730,17.090,1.953,26.855,0
1510137841.692,41.992,41.504,19.531,14.160,44.434,0
1510137841.696,33.203,-15.625,20.020,10.254,36.621,0
1510137841.700,51.758,18.066,27.832,15.625,45.410,0
1510137841.704,36.133,44.922,22.461,11.719,29.785,0
1510137841.708,39.062,21.973,20.020,3.418,17.090,0
1510137841.712,40.039,27.832,18.066,9.277,17.578,0
1510137841.716,40.039,88.379,25.879,28.320,19.043,0
1510137841.719,48.340,97.656,20.020,17.090,42.480,0
1510137841.723,29.297,24.902,-3.906,-8.301,51.758,0
1510137841.727,23.438,25.391,10.742,17.578,10.742,0
1510137841.731,42.969,-24.414,31.738,34.180,-2.930,0
1510137841.735,59.082,-68.359,41.992,33.203,-0.488,0
1510137841.739,37.598,41.016,31.250,19.531,1.953,0
1510137841.743,18.555,117.188,19.531,7.324,9.277,0
1510137841.747,7.812,87.402,12.207,-4.395,-45.898,0
1510137841.751,14.160,34.180,18.066,1.953,-36.133,0
1510137841.755,30.762,19.531,37.598,23.438,6.836,0
1510137841.759,14.160,30.762,36.621,6.348,-26.367,0
1510137841.762,4.395,29.785,27.344,-2.441,0.488,0
1510137841.766,7.324,55.664,37.598,8.301,18.555,0
1510137841.770,-8.301,58.594,25.879,-6.836,15.625,0
1510137841.774,6.836,-5.859,24.414,-0.977,-0.488,0
1510137841.778,31.250,-27.344,35.156,22.949,-14.160,0
1510137841.782,22.949,-0.977,29.785,23.926,-13.184,0
1510137841.786,7.324,-3.418,23.438,15.625,-11.230,0
1510137841.790,27.344,-37.109,34.180,34.668,-27.832,0
1510137841.794,44.922,31.250,37.109,21.484,-24.414,0
1510137841.798,23.438,118.164,6.348,-9.277,5.371,0
1510137841.801,20.996,98.633,13.672,9.766,0.977,0
1510137841.805,4.883,59.082,22.949,12.695,-7.324,0
1510137841.809,9.277,52.734,23.438,18.555,1.465,0
1510137841.813,22.949,31.250,30.762,26.367,30.273,0
1510137841.817,39.062,-11.719,32.715,44.434,2.441,0
1510137841.821,50.781,-8.789,29.785,32.715,3.906,0
1510137841.825,45.410,43.945,31.738,2.930,30.273,0
1510137841.829,54.688,16.602,34.180,17.090,13.184,0
1510137841.833,47.363,-25.391,29.785,32.715,22.461,0
1510137841.837,54.688,48.828,43.457,49.316,-18.066,0
1510137841.841,59.082,49.805,41.016,43.945,-22.949,0
1510137841.844,35.156,37.598,8.789,4.395,32.715,0
1510137841.848,33.203,61.523,7.324,7.812,0.000,0
1510137841.852,33.691,54.688,19.043,9.766,-2.930,0
1510137841.856,28.320,54.199,17.090,-1.465,13.184,0
1510137841.860,27.344,33.691,19.531,12.695,11.230,0
1510137841.864,37.109,-0.977,31.738,29.785,1.465,0
1510137841.868,57.617,-30.762,33.691,28.809,-1.465,0
1510137841.872,48.828,-3.906,36.621,17.090,-4.883,0
1510137841.876,28.809,73.242,40.527,12.207,-14.648,0
1510137841.880,25.879,72.266,26.367,2.930,7.324,0
1510137841.884,33.203,20.996,18.555,0.488,31.250,0
1510137841.887,36.621,0.488,20.508,7.812,20.508,0
1510137841.891,42.480,-34.180,37.109,35.156,1.953,0
1510137841.895,40.039,-62.012,41.504,25.391,-35.645,0
1510137841.899,24.414,50.293,24.414,7.324,-24.414,0
1510137841.903,24.902,112.793,16.602,16.113,33.203,0
1510137841.907,26.367,83.984,13.184,15.137,25.879,0
1510137841.911,19.531,68.848,11.719,9.277,-1.953,0
1510137841.915,23.926,64.941,6.836,-3.906,36.133,0
1510137841.919,41.992,19.531,23.438,20.020,52.734,0
1510137841.923,49.805,-44.434,49.805,50.781,38.086,0
1510137841.926,43.457,-32.715,48.828,44.434,0.000,0
1510137841.930,18.555,30.762,24.414,11.719,6.836,0
1510137841.934,11.719,62.500,12.207,-8.301,46.875,0
1510137841.938,16.602,67.871,14.160,-1.953,6.836,0
1510137841.942,6.348,53.711,17.578,11.230,1.465,0
1510137841.946,12.207,21.973,20.996,9.766,29.297,0
1510137841.950,24.414,20.020,25.879,-7.324,20.996,0
1510137841.954,27.344,44.922,27.832,-4.395,25.391,0
1510137841.958,5.371,37.109,22.949,3.906,48.828,0
1510137841.962,14.160,-5.371,29.785,9.277,26.367,0
1510137841.966,37.109,-3.418,39.062,15.625,40.039,0
1510137841.969,19.043,-0.488,35.156,20.996,25.391,0
1510137841.973,12.695,17.578,24.414,5.371,-19.043,0
1510137841.977,21.484,56.152,26.855,-9.766,16.113,0
1510137841.981,25.879,34.180,26.367,-17.578,45.410,0
1510137841.985,9.766,4.883,13.184,-22.949,0.488,0
1510137841.989,-15.137,44.922,10.742,-7.324,-2.930,0
1510137841.993,-1.953,70.312,16.602,-2.930,39.062,0
1510137841.997,32.715,36.621,23.926,0.488,15.137,0
1510137842.001,34.180,12.695,22.949,14.648,10.254,0
1510137842.005,24.902,-27.832,24.414,16.602,6.836,0
1510137842.009,54.199,-0.488,44.434,30.762,3.906,0
1510137842.012,47.852,46.387,42.480,26.855,25.879,0
1510137842.016,13.672,32.227,20.996,-6.348,-2.930,0
1510137842.020,13.184,40.039,19.043,-5.371,-2.930,0
1510137842.024,35.156,-7.324,27.344,25.391,20.996,0
1510137842.028,45.410,0.000,32.227,27.832,-3.418,0
1510137842.032,36.621,72.754,24.414,0.488,1.953,0
1510137842.036,26.855,58.594,17.090,-10.742,24.902,0
1510137842.040,24.902,32.227,14.160,-12.695,26.855,0
1510137842.044,39.062,25.879,23.438,4.395,5.371,0
1510137842.048,45.898,29.297,41.504,32.227,4.395,0
1510137842.051,50.781,29.785,35.645,20.996,-0.488,0
1510137842.055,50.781,47.852,19.043,3.418,-14.160,0
1510137842.059,51.270,3.418,23.438,21.973,-14.160,0
1510137842.063,75.684,-55.176,41.504,37.598,-18.555,0
1510137842.067,67.871,34.668,28.809,28.320,32.715,0
1510137842.071,28.809,115.723,2.930,-4.395,10.254,0
1510137842.075,14.648,97.168,3.906,-2.441,-14.648,0
1510137842.079,26.367,72.266,9.766,22.949,12.207,0
1510137842.083,50.293,50.293,24.902,19.043,24.902,0
1510137842.087,53.223,2.441,35.645,25.879,19.043,0
1510137842.091,52.246,-5.371,33.691,31.738,1.465,0
1510137842.094,44.434,12.695,27.344,18.066,14.160,0
1510137842.098,48.340,11.719,18.066,9.277,36.621,0
1510137842.102,41.992,21.973,20.996,14.160,39.062,0
1510137842.106,38.086,32.227,32.715,32.227,6.836,0
1510137842.110,46.875,-2.441,30.762,18.555,1.465,0
1510137842.114,45.410,-2.930,32.227,12.207,25.879,0
1510137842.118,51.758,62.500,36.621,26.367,29.297,0
1510137842.122,40.527,79.590,15.137,6.348,1.465,0
1510137842.126,26.367,37.109,9.277,5.859,12.695,0
1510137842.130,25.391,22.949,27.344,26.367,55.176,0
1510137842.134,31.250,19.043,34.180,35.645,43.945,0
1510137842.137,33.203,11.719,24.414,31.250,56.152,0
1510137842.141,40.039,26.367,21.973,12.207,47.852,0
1510137842.145,31.738,-2.930,18.066,0.488,24.414,0
1510137842.149,33.203,34.180,22.949,25.391,20.996,0
1510137842.153,40.527,53.223,27.832,27.344,20.020,0
1510137842.157,24.902,10.742,13.672,-3.418,41.504,0
1510137842.161,22.461,47.363,15.137,2.441,62.988,0
1510137842.165,31.250,52.246,20.996,13.184,38.086,0
1510137842.169,39.551,30.273,15.137,1.953,35.156,0
1510137842.173,35.645,36.133,22.461,17.578,71.777,0
1510137842.176,48.340,43.457,28.809,39.551,51.758,0
1510137842.180,61.523,37.109,22.461,33.691,9.766,0
1510137842.184,52.246,29.297,18.066,22.461,13.184,0
1510137842.188,48.340,24.902,12.695,25.391,33.203,0
1510137842.192,52.734,-12.695,26.367,25.879,15.625,0
1510137842.196,57.129,-20.508,39.551,19.531,14.160,0
1510137842.200,59.570,11.230,35.645,13.184,21.973,0
1510137842.204,49.316,48.828,25.391,3.418,16.113,0
1510137842.208,26.855,74.219,14.648,-5.371,27.344,0
1510137842.212,12.207,69.824,14.648,0.977,1.465,0
1510137842.216,11.230,55.176,21.973,16.113,11.230,0
1510137842.219,11.230,43.457,28.320,32.715,73.730,0
1510137842.223,12.695,25.879,28.320,20.020,54.688,0
1510137842.227,20.020,11.230,21.484,11.719,14.160,0
1510137842.231,33.691,-1.465,17.578,25.391,32.227,0
1510137842.235,67.871,-1.465,29.785,37.598,14.160,0
1510137842.239,97.168,25.391,43.945,36.133,13.672,0
1510137842.243,50.781,58.105,34.668,28.809,50.293,0
1510137842.247,6.836,46.387,20.020,18.066,30.273,0
1510137842.251,28.809,68.848,11.230,-2.930,36.621,0
1510137842.255,29.785,54.199,8.789,-4.883,28.320,0
1510137842.259,42.480,-16.602,18.555,8.789,8.789,0
1510137842.262,59.570,-5.859,32.227,35.156,26.367,0
1510137842.266,44.922,7.324,36.133,40.039,28.809,0
1510137842.270,43.457,29.297,26.855,19.043,15.625,0
1510137842.274,48.340,53.223,23.926,16.113,20.996,0
1510137842.278,52.246,47.852,32.715,23.926,43.457,0
1510137842.282,55.664,42.969,33.691,19.043,39.551,0
1510137842.286,40.527,40.527,25.879,17.090,60.547,0
1510137842.290,15.137,44.922,19.043,20.020,41.016,0
1510137842.294,12.695,53.223,17.578,18.066,19.043,0
1510137842.298,47.852,30.762,38.086,42.969,67.383,0
1510137842.301,72.754,1.465,38.574,40.039,21.484,0
1510137842.305,54.199,9.766,26.367,15.137,-3.418,0
1510137842.309,27.344,33.691,17.578,13.672,41.016,0
1510137842.313,51.758,79.102,18.555,0.000,25.879,0
1510137842.317,58.594,69.336,34.668,10.742,41.016,0
1510137842.321,36.133,18.555,30.762,37.109,54.688,0
1510137842.325,34.668,-4.883,24.414,28.320,57.129,0
1510137842.329,44.434,18.066,26.367,19.531,45.898,0
1510137842.333,61.523,39.551,29.785,11.719,34.180,0
1510137842.337,57.129,45.898,34.668,11.719,46.875,0
1510137842.341,36.621,43.945,38.574,22.461,41.992,0
1510137842.344,21.973,28.809,31.250,19.043,-3.418,0
1510137842.348,13.672,36.133,26.367,6.836,-0.977,0
1510137842.352,35.645,41.504,27.832,0.488,49.316,0
1510137842.356,40.039,11.719,33.691,20.020,33.691,0
1510137842.360,18.066,-11.230,33.691,28.320,23.438,0
1510137842.364,27.344,14.160,31.738,26.855,26.367,0
1510137842.368,48.340,54.199,42.969,31.738,22.949,0
1510137842.372,62.012,62.012,35.645,26.367,22.461,0
1510137842.376,23.926,40.527,23.926,22.949,22.461,0
1510137842.380,21.973,25.391,30.273,23.438,27.344,0
1510137842.384,56.152,24.902,26.855,24.902,16.113,0
1510137842.387,24.902,20.508,22.461,34.668,28.320,0
1510137842.391,30.273,-5.371,39.551,59.570,-31.250,0
1510137842.395,63.477,-11.230,53.223,61.035,-23.926,0
1510137842.399,54.199,-23.926,53.711,41.992,34.668,0
1510137842.403,35.645,4.883,41.992,21.484,15.137,0
1510137842.407,17.090,64.941,26.367,-1.953,36.133,0
1510137842.411,20.508,62.012,27.832,-11.719,53.711,0
1510137842.415,25.879,50.293,28.809,10.742,42.480,0
1510137842.419,23.926,43.945,30.762,25.879,15.137,0
1510137842.423,35.645,36.621,27.832,17.090,13.184,0
1510137842.426,37.598,34.668,28.320,14.648,2.441,0
1510137842.430,52.246,25.391,34.668,19.043,11.719,0
1510137842.434,50.781,21.484,31.738,14.160,23.438,0
1510137842.438,39.062,36.621,28.809,5.371,-30.273,0
1510137842.442,57.129,45.410,41.016,19.531,-17.090,0
1510137842.446,59.570,26.367,30.762,27.832,16.602,0
1510137842.450,43.945,4.395,22.461,28.809,-19.531,0
1510137842.454,40.039,4.395,23.438,22.949,2.930,0
1510137842.458,41.016,30.762,28.809,9.766,34.180,0
1510137842.462,49.805,48.340,31.738,14.648,-0.977,0
1510137842.466,49.805,49.316,11.719,16.113,18.555,0
1510137842.469,50.781,26.367,7.324,22.461,41.992,0
1510137842.473,62.500,-21.973,17.578,47.852,29.297,0
1510137842.477,66.406,-20.508,30.273,54.688,15.137,0
1510137842.481,52.734,52.734,13.184,21.973,20.020,0
1510137842.485,33.203,85.449,-15.625,0.000,33.691,0
1510137842.489,22.949,61.035,-16.602,-7.324,27.832,0
1510137842.493,31.738,27.344,-10.742,-7.324,4.883,0
1510137842.497,44.922,38.574,1.953,15.137,-19.043,0
1510137842.501,56.152,19.531,4.395,14.648,-2.441,0
1510137842.505,79.590,-39.551,29.297,40.039,25.391,0
1510137842.509,77.148,-13.672,40.039,64.453,-4.395,0
1510137842.512,42.480,30.762,16.113,46.875,22.949,0
1510137842.516,44.922,63.965,14.160,29.785,55.664,0
1510137842.520,51.270,66.406,14.160,13.184,19.043,0
1510137842.524,43.945,62.012,11.719,6.348,20.020,0
1510137842.528,32.715,37.109,11.719,17.090,39.062,0
1510137842.532,36.621,26.855,15.625,15.625,13.672,0
1510137842.536,72.754,28.809,33.691,15.625,15.137,0
1510137842.540,54.688,12.207,21.973,16.113,0.977,0
1510137842.544,28.320,-15.625,13.184,21.484,-14.648,0
1510137842.548,46.387,-16.113,25.391,30.273,6.348,0
1510137842.551,37.598,40.039,21.484,23.438,2.441,0
1510137842.555,15.625,90.820,20.020,11.719,3.418,0
1510137842.559,36.133,86.426,29.297,17.090,7.812,0
1510137842.563,53.711,35.645,34.180,27.344,12.695,0
1510137842.567,34.668,-1.465,20.020,14.160,20.996,0
1510137842.571,32.227,11.719,7.812,6.836,56.152,0
1510137842.575,52.734,24.902,14.160,18.555,42.969,0
1510137842.579,40.527,4.883,22.461,22.949,-7.324,0
1510137842.583,41.016,2.441,18.066,23.438,24.414,0
1510137842.587,58.105,43.457,18.555,18.555,-4.395,0
1510137842.591,46.387,42.480,27.344,23.438,-13.184,0
1510137842.594,19.043,53.711,21.484,30.762,3.906,0
1510137842.598,43.945,95.703,24.902,34.668,-11.719,0
1510137842.602,58.594,68.359,26.367,19.531,43.457,0
1510137842.606,34.668,14.648,18.555,-0.977,48.340,0
1510137842.610,38.574,28.809,23.438,8.301,8.301,0
1510137842.614,35.645,21.973,26.855,17.578,-20.996,0
1510137842.618,34.668,-15.137,28.809,19.531,-4.395,0
1510137842.622,41.992,-6.836,29.297,16.602,4.883,0
1510137842.626,57.129,36.621,28.809,20.020,-21.484,0
1510137842.630,42.969,68.848,19.531,8.789,-1.465,0
1510137842.634,21.484,74.219,20.020,1.465,58.594,0
1510137842.637,25.391,42.969,17.090,6.348,57.617,0
1510137842.641,52.246,8.789,27.344,41.016,20.508,0
1510137842.645,48.340,20.996,37.109,49.316,-25.879,0
1510137842.649,33.691,42.480,26.367,17.090,-6.836,0
1510137842.653,48.828,34.180,22.461,20.996,44.434,0
1510137842.657,45.410,35.645,22.461,34.668,0.000,0
1510137842.661,49.805,42.969,22.949,27.832,-30.762,0
1510137842.665,56.152,30.273,20.996,12.695,13.672,0
1510137842.669,42.969,49.805,15.137,13.672,52.246,0
1510137842.673,58.594,42.480,15.137,24.414,25.879,0
1510137842.676,80.078,48.340,31.738,42.969,-37.109,0
1510137842.680,62.012,51.270,25.879,42.969,-15.625,0
1510137842.684,67.871,44.922,18.555,40.527,51.758,0
1510137842.688,81.543,59.082,29.785,42.480,23.926,0
1510137842.692,43.945,49.805,24.902,35.156,21.484,0
1510137842.696,44.922,-12.207,25.391,44.922,35.156,0
1510137842.700,77.148,-49.805,30.273,57.617,16.113,0
1510137842.704,73.242,6.836,25.879,44.434,7.324,0
1510137842.708,73.730,53.223,20.996,43.945,8.789,0
1510137842.712,80.078,54.199,21.973,52.246,31.738,0
1510137842.716,80.078,60.059,28.320,48.828,50.293,0
1510137842.719,98.633,75.684,31.250,47.852,21.973,0
1510137842.723,67.383,10.254,33.203,40.039,-0.977,0
1510137842.727,40.527,-19.531,47.363,43.945,9.766,0
1510137842.731,57.617,83.496,41.992,46.875,10.742,0
1510137842.735,33.203,95.215,14.648,23.438,25.391,0
1510137842.739,37.598,41.016,14.648,20.508,33.691,0
1510137842.743,47.852,22.461,23.926,43.457,15.137,0
1510137842.747,45.898,32.227,24.414,46.875,33.203,0
1510137842.751,58.594,38.574,26.367,22.461,22.461,0
1510137842.755,48.828,43.457,27.832,9.766,4.883,0
1510137842.759,48.828,48.828,30.762,18.555,-18.066,0
1510137842.762,51.758,22.949,46.875,33.203,8.301,0
1510137842.766,57.617,30.273,50.781,41.992,-36.133,0
1510137842.770,70.801,47.363,25.879,19.531,-47.852,0
1510137842.774,56.152,37.598,17.090,13.184,24.902,0
1510137842.778,46.387,31.738,34.668,35.645,0.977,0
1510137842.782,37.109,35.645,39.062,34.180,3.418,0
1510137842.786,52.734,60.547,33.691,22.949,-12.695,0
1510137842.790,75.195,62.012,37.109,23.926,0.000,0
1510137842.794,67.871,54.199,34.668,21.973,8.789,0
1510137842.798,44.922,43.945,41.016,40.527,-15.625,0
1510137842.801,55.664,-3.418,52.734,61.035,35.156,0
1510137842.805,67.383,-12.695,33.203,37.598,54.199,0
1510137842.809,61.035,53.223,17.090,41.504,6.836,0
1510137842.813,68.359,77.148,13.672,49.316,-18.555,0
1510137842.817,57.129,57.129,-1.953,29.785,10.742,0
1510137842.821,41.992,51.758,-3.906,25.391,-2.441,0
1510137842.825,56.152,14.160,5.859,21.973,-1.953,0
1510137842.829,73.242,45.898,13.184,31.250,30.762,0
1510137842.833,81.055,29.785,24.414,51.270,18.555,0
1510137842.837,71.289,-20.020,18.066,50.781,-4.883,0
1510137842.841,32.715,62.500,-5.859,20.996,-7.812,0
1510137842.844,12.695,104.004,-8.789,1.465,-17.578,0
1510137842.848,39.551,62.500,-1.953,-1.465,5.371,0
1510137842.852,58.594,8.789,13.184,17.578,27.832,0
1510137842.856,54.199,29.785,26.855,37.109,-37.109,0
1510137842.860,58.594,36.133,19.531,18.066,-41.992,0
1510137842.864,75.195,18.066,22.461,10.254,24.902,0
1510137842.868,49.316,52.246,22.461,22.461,18.555,0
1510137842.872,10.254,90.332,9.277,16.113,1.465,0
1510137842.876,25.879,50.293,12.695,21.484,-1.465,0
1510137842.880,49.805,13.672,25.879,24.902,0.977,0
1510137842.884,43.457,34.668,30.273,30.273,13.672,0
1510137842.887,50.293,58.594,21.484,44.922,15.137,0
1510137842.891,62.988,52.246,21.973,29.785,6.348,0
1510137842.895,61.035,20.996,33.691,24.902,18.555,0
1510137842.899,39.062,20.996,33.691,34.668,7.812,0
1510137842.903,42.480,44.922,29.297,20.020,-2.441,0
1510137842.907,55.176,48.828,32.715,14.160,1.465,0
1510137842.911,61.523,22.949,32.715,25.391,-23.438,0
1510137842.915,62.988,15.625,21.973,21.973,-26.367,0
1510137842.919,44.922,50.293,30.762,26.367,-35.156,0
1510137842.923,48.340,61.035,44.434,41.016,-3.418,0
1510137842.926,43.945,24.414,31.738,24.414,12.207,0
1510137842.930,41.504,-1.465,16.113,5.371,1.953,0
1510137842.934,50.781,32.715,13.672,5.371,10.742,0
1510137842.938,50.293,62.500,18.555,16.602,-1.465,0
1510137842.942,23.926,52.734,23.438,6.836,-2.930,0
1510137842.946,32.715,48.340,16.113,9.277,22.461,0
1510137842.950,60.547,45.898,15.137,30.273,22.949,0
1510137842.954,60.547,43.945,20.508,37.109,-4.883,0
1510137842.958,54.688,18.066,20.996,20.996,-6.836,0
1510137842.962,62.500,26.855,36.621,14.160,-19.043,0
1510137842.966,89.355,39.062,43.945,37.109,-24.902,0
1510137842.969,79.590,49.805,29.297,44.434,21.973,0
1510137842.973,30.762,49.316,20.020,30.762,3.418,0
1510137842.977,41.504,-1.953,33.203,33.203,-20.020,0
1510137842.981,75.684,21.484,43.457,28.320,14.648,0
1510137842.985,83.496,41.016,26.855,23.926,25.391,0
1510137842.989,52.734,35.645,20.508,21.484,33.691,0
1510137842.993,32.227,11.719,31.738,11.719,7.812,0
1510137842.997,47.852,-31.250,40.527,21.484,-4.883,0
1510137843.001,48.340,48.340,24.414,24.414,28.320,0
1510137843.005,45.898,102.051,20.996,20.996,6.836,0
1510137843.009,43.945,68.359,36.133,26.367,-3.418,0
1510137843.012,38.574,37.109,53.223,31.250,36.621,0
1510137843.016,49.316,6.348,48.828,32.227,15.137,0
1510137843.020,53.223,-3.418,24.902,17.578,4.883,0
1510137843.024,36.133,-9.277,18.066,-0.977,23.438,0
1510137843.028,33.203,36.133,24.414,5.371,11.719,0
1510137843.032,34.668,75.195,24.414,9.277,14.160,0
1510137843.036,11.719,67.383,18.555,-3.418,30.762,0
1510137843.040,3.418,61.035,22.949,-9.277,25.879,0
1510137843.044,41.016,28.320,24.414,1.465,-1.953,0
1510137843.048,60.547,19.043,25.391,11.230,0.000,0
1510137843.051,31.738,22.949,21.973,3.418,26.367,0
1510137843.055,40.039,2.930,32.715,18.555,29.785,0
1510137843.059,59.570,-32.227,44.922,31.738,35.645,0
1510137843.063,61.035,-55.176,43.945,38.574,32.715,0
1510137843.067,67.383,0.977,44.922,36.133,-5.371,0
1510137843.071,6.348,93.750,20.020,-13.672,0.488,0
1510137843.075,-14.160,116.211,0.000,-33.203,14.160,0
1510137843.079,28.320,65.430,18.555,-0.488,8.301,0
1510137843.083,45.410,54.688,23.926,12.695,14.648,0
1510137843.087,41.504,51.270,18.066,23.438,-0.977,0
1510137843.091,44.434,-0.488,28.809,28.320,-18.066,0
1510137843.094,41.992,11.719,33.691,14.160,-34.668,0
1510137843.098,46.875,15.137,41.992,12.207,-18.555,0
1510137843.102,68.848,-30.273,55.664,37.109,-2.930,0
1510137843.106,30.762,47.852,45.410,35.156,11.719,0
1510137843.110,9.277,79.102,24.902,-7.812,10.254,0
1510137843.114,38.574,42.480,26.367,-8.301,0.977,0
1510137843.118,11.719,66.895,17.578,-1.465,24.902,0
1510137843.122,10.742,68.848,21.973,-10.254,12.695,0
1510137843.126,24.902,45.410,29.297,6.836,-4.883,0
1510137843.130,30.273,24.414,30.762,20.996,-13.672,0
1510137843.134,47.852,29.297,35.156,8.789,-7.324,0
1510137843.137,27.832,19.531,38.574,11.719,-12.207,0
1510137843.141,23.438,9.277,33.691,37.109,-44.922,0
1510137843.145,33.691,2.441,24.902,16.113,-37.109,0
1510137843.149,39.062,-46.875,25.879,19.531,0.977,0
1510137843.153,57.617,0.977,35.156,20.020,3.906,0
1510137843.157,45.898,78.613,37.109,9.277,0.488,0
1510137843.161,20.020,58.105,8.301,9.277,-1.465,0
1510137843.165,-2.930,60.059,7.812,-13.672,31.250,0
1510137843.169,7.324,64.453,37.109,7.324,24.414,0
1510137843.173,42.480,17.090,34.668,27.344,-4.395,0
1510137843.176,54.199,9.277,27.832,6.348,20.020,0
1510137843.180,35.156,35.645,17.578,-22.949,18.555,0
1510137843.184,-1.465,53.223,13.184,-10.254,3.418,0
1510137843.188,1.953,41.016,22.949,-12.207,-23.438,0
1510137843.192,30.273,20.508,36.133,-20.996,-4.883,0
1510137843.196,21.484,26.855,27.344,-18.555,26.855,0
1510137843.200,5.859,5.859,20.996,-22.461,19.531,0
1510137843.204,-4.883,27.344,14.160,-48.828,40.527,0
1510137843.208,-23.438,66.406,2.441,-47.852,11.230,0
1510137843.212,-3.906,48.340,10.254,-19.531,-14.648,0
1510137843.216,-0.977,18.066,15.625,-39.551,6.836,0
1510137843.219,19.531,28.320,25.391,-21.484,45.410,0
1510137843.223,60.059,19.043,45.410,18.066,40.527,0
1510137843.227,37.109,-18.555,43.945,27.344,15.625,0
1510137843.231,17.090,12.695,36.133,34.180,-5.859,0
1510137843.235,-2.441,35.156,24.414,6.348,-1.953,0
1510137843.239,-18.555,41.504,15.137,-28.320,-0.488,0
1510137843.243,-5.859,30.273,22.461,-19.043,6.836,0
1510137843.247,-4.395,20.020,25.391,11.230,26.855,0
1510137843.251,-0.488,25.391,26.367,14.160,33.691,0
1510137843.255,5.859,29.785,21.484,-2.930,33.203,0
1510137843.259,-8.301,29.785,30.273,-27.832,22.949,0
1510137843.262,17.578,25.879,29.297,2.930,11.719,0
1510137843.266,-4.883,-20.020,26.855,21.973,23.438,0
1510137843.270,20.996,-53.223,61.523,29.297,34.668,0
1510137843.274,61.035,13.184,53.711,25.879,0.977,0
1510137843.278,17.578,61.523,18.066,-4.395,4.883,0
1510137843.282,-1.465,71.289,9.766,-8.301,10.254,0
1510137843.286,4.395,40.527,2.930,-0.977,22.949,0
1510137843.290,33.691,18.555,6.836,2.930,12.207,0
1510137843.294,53.223,-12.207,27.832,22.461,-23.438,0
1510137843.298,44.922,9.277,23.438,28.320,40.527,0
1510137843.301,57.617,40.039,23.926,31.738,42.969,0
1510137843.305,43.457,52.734,31.738,23.438,15.625,0
1510137843.309,19.531,33.203,24.902,3.418,22.949,0
1510137843.313,58.105,-7.812,28.320,26.367,20.508,0
1510137843.317,42.480,18.066,33.203,23.926,3.906,0
1510137843.321,4.395,29.785,29.297,25.391,19.043,0
1510137843.325,2.441,57.617,14.160,34.668,-6.836,0
1510137843.329,39.551,8.301,30.762,46.875,-25.391,0
1510137843.333,43.945,-12.207,36.133,46.387,0.000,0
1510137843.337,23.438,27.344,29.297,28.809,-23.438,0
1510137843.341,33.691,40.039,29.297,30.762,-1.953,0
1510137843.344,39.062,53.711,20.996,21.484,26.367,0
1510137843.348,43.945,36.621,32.227,25.391,16.602,0
1510137843.352,57.129,1.465,39.062,36.133,-2.930,0
1510137843.356,48.340,-8.301,37.598,28.320,-5.859,0
1510137843.360,67.871,1.953,53.711,47.852,-7.812,0
1510137843.364,77.148,-11.230,42.480,25.879,-15.137,0
1510137843.368,39.062,18.555,14.160,0.977,-14.160,0
1510137843.372,23.438,77.148,0.000,-0.977,-5.859,0
1510137843.376,12.207,81.543,8.789,-17.090,8.301,0
1510137843.380,6.348,51.758,9.277,-1.465,0.000,0
1510137843.384,-7.812,47.852,5.371,-23.438,-28.320,0
1510137843.387,6.836,-1.465,18.555,-7.324,-23.438,0
1510137843.391,38.086,-2.441,32.227,34.180,16.113,0
1510137843.395,20.508,31.250,24.414,5.859,11.719,0
1510137843.399,41.016,34.180,22.461,9.766,21.484,0
1510137843.403,39.551,22.949,20.996,25.391,38.574,0
1510137843.407,28.809,6.348,17.578,19.531,42.480,0
1510137843.411,38.574,15.625,17.090,24.414,24.414,0
1510137843.415,24.414,25.391,7.812,-13.672,36.621,0
1510137843.419,24.414,41.992,14.648,-3.906,35.645,0
1510137843.423,31.250,20.996,22.949,28.809,-14.160,0
1510137843.426,47.363,-13.672,33.203,21.973,16.602,0
1510137843.430,53.223,-12.207,40.039,23.438,49.805,0
1510137843.434,41.016,29.297,31.738,32.227,21.973,0
1510137843.438,37.109,82.520,28.809,25.391,44.434,0
1510137843.442,21.973,76.660,19.043,-11.230,-7.812,0
1510137843.446,16.113,28.809,9.766,-27.344,-12.207,0
1510137843.450,41.504,15.137,14.648,10.742,84.473,0
1510137843.454,36.133,46.875,14.160,25.391,55.176,0
1510137843.458,35.645,2.930,36.133,16.602,17.090,0
1510137843.462,45.898,-20.996,33.203,27.344,33.691,0
1510137843.466,47.852,39.551,13.184,20.020,73.242,0
1510137843.469,28.320,43.945,20.996,-3.418,32.227,0
1510137843.473,39.551,-1.465,17.578,7.324,12.207,0
1510137843.477,82.520,-5.371,34.180,35.645,75.684,0
1510137843.481,87.891,52.734,48.340,48.828,68.359,0
1510137843.485,59.082,53.711,23.438,21.484,8.301,0
1510137843.489,47.363,20.508,13.672,14.648,27.832,0
1510137843.493,31.738,32.715,26.367,40.039,77.148,0
1510137843.497,7.812,54.199,36.133,19.531,61.523,0
1510137843.501,19.043,57.617,40.039,19.531,36.621,0
1510137843.505,29.785,43.457,32.227,29.297,38.086,0
1510137843.509,46.875,32.227,26.367,21.973,56.641,0
1510137843.512,63.477,22.461,19.531,27.832,34.180,0
1510137843.516,69.824,14.648,27.344,35.156,-0.977,0
1510137843.520,74.707,-3.906,43.457,51.270,20.508,0
1510137843.524,53.223,-22.949,39.062,34.180,50.781,0
1510137843.528,41.016,27.832,26.855,15.137,34.668,0
1510137843.532,35.156,55.176,22.461,18.555,78.125,0
1510137843.536,4.395,51.758,21.484,2.441,73.242,0
1510137843.540,20.996,48.340,25.391,10.254,29.785,0
1510137843.544,59.082,31.738,43.945,1.953,33.691,0
