timestamps,TP9,AF7,AF8,TP10,Right AUX,Marker0
1510223878.703,5.371,2.930,42.969,-35.156,-1000.000,0
1510223878.707,25.879,-3.418,2.441,-8.789,-373.535,0
1510223878.711,10.742,-14.160,40.527,-33.203,-385.742,0
1510223878.715,-8.789,-23.438,61.035,-55.664,-1000.000,0
1510223878.719,1.465,-4.883,-5.859,-22.461,-1000.000,0
1510223878.723,3.418,10.254,-4.883,-32.227,-18.066,0
1510223878.726,-3.906,14.648,-1.465,-31.738,479.004,0
1510223878.730,14.160,6.836,-7.324,0.488,-241.211,0
1510223878.734,5.371,22.461,16.602,-32.715,-694.824,0
1510223878.738,-10.254,12.695,8.789,-41.992,358.887,0
1510223878.742,11.230,-7.324,-18.066,-13.672,390.625,0
1510223878.746,12.695,-23.926,44.434,-44.922,-1000.000,0
1510223878.750,21.484,-35.645,30.762,-29.297,-580.566,0
1510223878.754,31.250,12.207,-39.062,-8.301,36.133,0
1510223878.758,20.020,13.672,-6.836,-21.484,-759.766,0
1510223878.762,45.410,0.000,-23.438,17.090,-1000.000,0
1510223878.766,41.504,6.348,5.371,22.949,-350.098,0
1510223878.769,21.973,2.930,38.086,-2.930,618.652,0
1510223878.773,38.086,14.160,18.555,2.930,260.254,0
1510223878.777,60.547,-1.953,3.418,25.879,-708.496,0
1510223878.781,61.523,8.301,7.324,16.602,-242.188,0
1510223878.785,41.016,-1.465,63.477,-8.301,787.598,0
1510223878.789,15.625,-20.996,56.152,-6.836,144.531,0
1510223878.793,30.273,-7.812,9.766,26.367,-827.148,0
1510223878.797,45.410,0.000,37.109,26.855,-97.168,0
1510223878.801,20.020,7.812,31.738,1.953,252.441,0
1510223878.805,11.230,-7.324,36.621,-9.766,-1000.000,0
1510223878.809,21.973,-14.160,29.297,1.465,-996.094,0
1510223878.812,15.625,-7.324,22.461,-4.883,-564.453,0
1510223878.816,14.160,-13.184,42.969,-11.719,-82.031,0
1510223878.820,14.648,-11.230,45.898,-6.348,40.527,0
1510223878.824,8.789,10.254,30.762,-19.531,-506.348,0
1510223878.828,21.484,8.789,-2.441,-11.719,403.320,0
1510223878.832,25.879,5.371,13.672,0.488,368.164,0
1510223878.836,29.297,22.461,44.922,-3.906,-1000.000,0
1510223878.840,40.039,24.902,47.852,-0.977,-645.508,0
1510223878.844,57.617,13.672,28.809,31.738,-1.465,0
1510223878.848,48.828,3.906,41.504,26.855,-431.641,0
1510223878.851,21.484,6.348,73.730,-12.695,-974.121,0
1510223878.855,31.738,16.602,59.082,-0.977,-396.484,0
1510223878.859,40.527,29.785,5.859,24.902,249.023,0
1510223878.863,35.156,20.508,8.301,30.762,56.152,0
1510223878.867,33.691,17.578,24.902,23.926,159.668,0
1510223878.871,12.207,41.504,38.086,-0.488,242.188,0
1510223878.875,10.254,7.812,97.656,-17.578,667.969,0
1510223878.879,27.344,-2.930,63.965,5.371,-520.996,0
1510223878.883,33.691,11.230,15.625,36.621,-1000.000,0
1510223878.887,29.785,7.324,37.109,26.855,-233.887,0
1510223878.891,33.203,19.531,15.137,26.855,-286.133,0
1510223878.894,28.809,1.953,31.250,25.391,-1000.000,0
1510223878.898,26.855,-1.953,36.621,15.137,-973.145,0
1510223878.902,36.133,10.254,26.855,9.277,-515.625,0
1510223878.906,50.293,5.371,22.949,37.109,-183.105,0
1510223878.910,25.391,2.441,33.691,27.344,48.340,0
1510223878.914,37.598,-13.672,40.527,23.438,-123.047,0
1510223878.918,43.945,7.324,16.113,36.133,455.078,0
1510223878.922,13.184,20.020,54.199,9.766,513.672,0
1510223878.926,30.762,-4.395,41.504,18.555,-977.539,0
1510223878.930,58.105,-21.973,33.203,39.551,-839.844,0
1510223878.934,56.152,-20.508,36.621,31.250,225.098,0
1510223878.937,42.480,15.625,12.207,16.602,-379.395,0
1510223878.941,23.438,19.043,56.641,-21.484,-1000.000,0
1510223878.945,45.898,-13.184,37.598,17.578,-448.242,0
1510223878.949,39.551,-8.789,25.391,20.996,-110.840,0
1510223878.953,15.625,-0.488,35.156,-19.043,-944.824,0
1510223878.957,22.949,11.719,19.043,0.000,-641.113,0
1510223878.961,31.250,11.719,31.738,-1.465,313.477,0
1510223878.965,16.602,17.090,31.250,-17.090,-965.332,0
1510223878.969,8.301,9.277,5.859,-11.719,-77.637,0
1510223878.973,29.785,-5.859,-1.465,-16.602,-1000.000,0
1510223878.976,38.086,5.859,4.883,-20.020,-180.664,0
1510223878.980,17.090,-17.090,52.246,-25.391,-94.727,0
1510223878.984,20.020,-20.020,51.758,-20.996,-1000.000,0
1510223878.988,41.016,0.977,0.000,-1.953,-1000.000,0
1510223878.992,31.250,4.395,19.531,-9.766,-28.809,0
1510223878.996,26.855,1.953,45.410,-11.230,104.980,0
1510223879.000,43.945,2.930,20.996,-3.418,-953.125,0
1510223879.004,24.902,5.371,64.453,-37.109,11.719,0
1510223879.008,12.695,4.395,72.754,-6.348,419.434,0
1510223879.012,47.363,13.672,-12.207,62.012,-550.781,0
1510223879.016,35.645,4.883,38.086,25.391,-1000.000,0
1510223879.019,39.551,-5.859,58.594,15.137,-880.371,0
1510223879.023,62.012,-5.371,27.832,50.781,328.125,0
1510223879.027,60.059,-12.207,23.438,62.012,208.008,0
1510223879.031,51.758,2.930,25.879,48.340,-1000.000,0
1510223879.035,50.781,-2.441,61.523,40.039,-687.500,0
1510223879.039,59.082,-4.883,29.297,34.668,819.824,0
1510223879.043,49.805,0.488,22.949,20.020,134.766,0
1510223879.047,41.504,13.672,39.551,24.902,-1000.000,0
1510223879.051,54.688,5.859,18.066,25.879,-205.078,0
1510223879.055,48.340,-14.648,48.340,9.277,918.945,0
1510223879.059,30.273,8.301,43.457,17.578,-285.645,0
1510223879.062,50.781,24.902,11.719,27.832,-1000.000,0
1510223879.066,47.852,2.930,49.316,4.395,-63.477,0
1510223879.070,44.434,10.742,41.992,0.977,279.785,0
1510223879.074,55.664,9.766,10.742,18.066,-974.121,0
1510223879.078,38.574,14.648,26.367,18.066,-1000.000,0
1510223879.082,50.781,15.137,27.832,17.090,-229.980,0
1510223879.086,48.828,-8.789,62.012,-13.184,33.691,0
1510223879.090,3.418,-8.301,57.129,-39.551,-938.477,0
1510223879.094,51.270,-7.812,8.301,23.438,-1000.000,0
1510223879.098,60.547,12.207,22.461,20.508,85.449,0
1510223879.101,19.043,8.789,56.152,-14.648,590.820,0
1510223879.105,34.180,-1.953,33.203,9.277,-880.859,0
1510223879.109,27.832,-9.277,51.270,2.441,-1000.000,0
1510223879.113,8.789,-15.625,91.797,-21.484,91.797,0
1510223879.117,37.598,-4.395,43.945,6.836,-256.348,0
1510223879.121,39.062,0.488,24.414,9.277,-1000.000,0
1510223879.125,18.555,-2.441,26.855,-9.766,-602.051,0
1510223879.129,45.898,-2.441,13.672,15.137,-238.281,0
1510223879.133,60.547,-7.324,11.719,26.855,-852.051,0
1510223879.137,37.598,9.277,32.715,12.207,-1000.000,0
1510223879.141,58.105,24.902,38.574,18.066,-359.375,0
1510223879.144,73.730,18.555,14.160,26.855,577.637,0
1510223879.148,40.527,9.277,46.875,15.625,186.523,0
1510223879.152,33.203,20.020,47.363,21.973,-110.840,0
1510223879.156,43.457,40.039,23.438,20.020,251.465,0
1510223879.160,63.477,17.090,20.508,38.574,851.074,0
1510223879.164,34.180,16.113,53.711,15.137,-282.227,0
1510223879.168,9.766,11.230,61.035,-13.184,-1000.000,0
1510223879.172,39.062,-7.812,25.391,28.320,-20.508,0
1510223879.176,36.621,0.488,26.367,33.203,254.395,0
1510223879.180,20.508,22.949,32.715,0.977,-997.070,0
1510223879.184,23.438,25.879,19.531,4.883,-1000.000,0
1510223879.187,9.277,17.578,29.785,-0.488,-582.031,0
1510223879.191,4.395,12.207,27.344,-11.719,-100.098,0
1510223879.195,8.789,28.809,22.949,-12.207,17.578,0
1510223879.199,8.789,14.160,57.617,-13.672,-494.141,0
1510223879.203,22.461,3.906,33.691,-9.277,426.270,0
1510223879.207,30.273,17.578,-10.254,-9.766,461.426,0
1510223879.211,25.879,16.602,15.137,-12.207,-1000.000,0
1510223879.215,23.438,4.395,32.715,-9.766,-676.270,0
1510223879.219,28.809,1.953,20.996,4.883,331.055,0
1510223879.223,22.461,10.254,27.832,5.371,-355.469,0
1510223879.226,20.508,29.297,37.109,-10.742,-1000.000,0
1510223879.230,50.781,20.020,25.879,7.324,-427.734,0
1510223879.234,51.270,2.441,38.574,16.113,-149.414,0
1510223879.238,50.293,17.090,42.480,34.180,-247.070,0
1510223879.242,57.129,14.160,44.434,51.758,-44.434,0
1510223879.246,59.570,10.254,52.246,42.969,139.160,0
1510223879.250,60.059,23.438,44.922,43.945,681.152,0
1510223879.254,56.641,12.207,47.363,41.992,-502.930,0
1510223879.258,57.617,16.602,35.645,38.086,-1000.000,0
1510223879.262,57.129,14.648,41.016,35.645,-228.516,0
1510223879.266,55.664,12.207,54.688,34.668,-258.301,0
1510223879.269,54.688,24.902,38.574,32.227,-1000.000,0
1510223879.273,55.176,8.789,35.645,26.855,-1000.000,0
1510223879.277,56.641,0.488,31.250,30.762,-143.066,0
1510223879.281,60.547,8.301,31.738,26.855,-53.223,0
1510223879.285,70.801,25.879,33.203,26.367,-510.254,0
1510223879.289,60.547,31.738,26.855,29.785,-2.441,0
1510223879.293,56.152,32.715,32.715,40.527,681.641,0
1510223879.297,65.430,27.344,35.156,48.828,374.023,0
1510223879.301,61.035,17.090,34.668,39.551,-1000.000,0
1510223879.305,60.059,22.461,34.180,43.457,-789.062,0
1510223879.309,59.570,25.879,34.668,41.504,-165.039,0
1510223879.312,64.941,19.043,40.039,39.062,-713.379,0
1510223879.316,62.012,20.996,36.621,49.805,-1000.000,0
1510223879.320,64.453,29.297,39.551,57.617,-395.020,0
1510223879.324,68.359,35.156,43.945,71.289,290.039,0
1510223879.328,62.500,27.344,45.410,70.801,-762.207,0
1510223879.332,43.457,29.785,37.109,43.457,-629.883,0
1510223879.336,58.105,29.297,34.180,54.199,384.766,0
1510223879.340,70.312,26.367,34.668,71.289,-913.086,0
1510223879.344,52.734,28.809,30.762,59.082,41.016,0
1510223879.348,66.895,16.113,38.574,58.105,-1000.000,0
1510223879.351,54.199,32.715,35.156,45.898,-235.840,0
1510223879.355,29.297,38.574,34.180,42.969,-182.617,0
1510223879.359,38.086,11.230,50.293,53.223,-1000.000,0
1510223879.363,53.223,10.742,50.781,51.270,-1000.000,0
1510223879.367,36.621,17.578,42.480,53.711,-543.457,0
1510223879.371,21.973,17.090,39.551,59.082,-593.750,0
1510223879.375,36.621,12.695,42.969,56.152,-1000.000,0
1510223879.379,33.203,21.484,43.945,49.316,-461.426,0
1510223879.383,26.855,15.625,44.922,48.340,715.820,0
1510223879.387,32.227,7.812,38.574,56.641,466.797,0
1510223879.391,30.762,20.020,28.320,55.664,-954.102,0
1510223879.394,29.297,10.254,34.180,51.758,-956.543,0
1510223879.398,28.320,12.695,37.109,50.293,370.605,0
1510223879.402,20.508,32.227,35.156,47.852,-42.969,0
1510223879.406,48.340,28.809,47.363,56.641,-1000.000,0
1510223879.410,60.059,28.320,54.688,55.176,-555.176,0
1510223879.414,58.594,27.344,54.688,51.758,-95.703,0
1510223879.418,63.477,28.809,51.270,43.945,-851.562,0
1510223879.422,48.340,20.996,44.922,30.762,-988.281,0
1510223879.426,52.246,15.625,51.758,42.969,88.867,0
1510223879.430,66.406,29.785,57.617,51.270,879.395,0
1510223879.434,57.129,28.809,53.711,40.527,-385.254,0
1510223879.437,41.992,20.020,52.246,25.879,-1000.000,0
1510223879.441,37.109,14.160,51.758,15.137,332.031,0
1510223879.445,34.180,25.391,49.316,1.953,336.914,0
1510223879.449,21.484,33.203,47.363,-6.348,-983.398,0
1510223879.453,30.762,13.672,52.734,5.859,-1000.000,0
1510223879.457,26.855,8.301,51.758,6.348,-392.578,0
1510223879.461,24.902,7.812,51.758,8.789,-457.031,0
1510223879.465,43.457,8.301,56.152,8.789,-1000.000,0
1510223879.469,37.598,10.742,51.270,-1.465,-1000.000,0
1510223879.473,22.461,12.695,47.852,-8.301,-159.668,0
1510223879.476,29.297,16.113,51.270,3.418,268.066,0
1510223879.480,44.434,17.578,56.152,15.625,-754.395,0
1510223879.484,51.758,15.137,56.152,15.625,-1000.000,0
1510223879.488,45.410,19.531,51.758,25.879,391.602,0
1510223879.492,47.363,20.020,51.270,34.180,378.906,0
1510223879.496,51.270,7.812,48.828,31.250,-837.402,0
1510223879.500,64.453,5.859,51.270,36.621,-36.621,0
1510223879.504,77.637,11.719,48.828,43.457,475.586,0
1510223879.508,64.941,15.625,38.086,28.320,-489.258,0
1510223879.512,60.059,19.531,27.832,8.301,-1000.000,0
1510223879.516,64.453,8.301,22.949,10.254,-320.312,0
1510223879.519,62.012,17.090,20.020,18.066,578.613,0
1510223879.523,65.430,25.391,24.902,26.367,145.020,0
1510223879.527,55.176,22.949,38.086,15.625,-809.082,0
1510223879.531,62.012,20.020,37.109,18.555,-253.418,0
1510223879.535,83.496,35.156,38.086,24.414,842.773,0
1510223879.539,71.289,40.039,48.828,12.695,-465.332,0
1510223879.543,64.453,6.836,50.781,15.137,-1000.000,0
1510223879.547,56.152,5.859,41.504,8.789,-235.840,0
1510223879.551,43.457,22.949,44.434,8.789,-255.859,0
1510223879.555,31.250,27.344,53.223,-6.348,-996.094,0
1510223879.559,32.715,27.344,36.621,-3.906,-740.234,0
1510223879.562,15.625,24.902,46.875,-7.812,9.766,0
1510223879.566,6.348,21.484,49.316,-25.879,400.879,0
1510223879.570,6.836,22.461,36.621,-17.090,225.586,0
1510223879.574,7.324,7.324,55.664,-33.691,-257.324,0
1510223879.578,17.090,30.762,20.996,-39.551,415.527,0
1510223879.582,10.254,34.180,5.859,-26.367,368.652,0
1510223879.586,14.160,6.348,33.691,-23.438,-1000.000,0
1510223879.590,16.113,23.438,30.762,-28.809,-696.777,0
1510223879.594,17.578,30.762,28.320,-22.949,36.133,0
1510223879.598,29.297,23.438,35.645,-7.324,-635.742,0
1510223879.601,30.273,35.645,41.016,2.930,-1000.000,0
1510223879.605,44.434,31.250,46.387,7.812,-441.895,0
1510223879.609,48.340,32.715,46.875,19.043,-76.660,0
1510223879.613,37.598,56.152,46.875,19.531,-71.289,0
1510223879.617,50.293,44.922,36.621,21.484,86.426,0
1510223879.621,58.594,16.113,40.527,16.602,246.094,0
1510223879.625,61.523,30.762,52.246,21.484,572.266,0
1510223879.629,66.406,38.086,45.410,35.645,-613.281,0
1510223879.633,66.895,30.762,43.457,45.410,-1000.000,0
1510223879.637,61.035,39.551,39.062,38.574,190.430,0
1510223879.641,59.082,33.203,52.734,33.203,595.215,0
1510223879.644,36.133,18.066,81.055,21.973,-751.953,0
1510223879.648,43.457,22.461,61.035,17.090,-1000.000,0
1510223879.652,51.758,10.742,80.078,17.578,-279.297,0
1510223879.656,35.645,5.859,88.379,0.488,-380.859,0
1510223879.660,59.082,30.273,23.926,44.434,-632.812,0
1510223879.664,43.945,19.531,66.895,31.250,-77.148,0
1510223879.668,34.668,8.301,74.219,8.789,639.648,0
1510223879.672,42.969,7.812,50.781,30.273,364.258,0
1510223879.676,31.250,3.418,68.848,26.855,-702.637,0
1510223879.680,30.762,11.719,51.758,20.996,-668.945,0
1510223879.684,33.691,37.109,28.320,28.809,106.445,0
1510223879.687,2.930,4.395,110.840,-20.020,-382.812,0
1510223879.691,23.438,0.000,62.500,-9.277,-1000.000,0
1510223879.695,48.340,20.020,-3.906,34.668,-491.699,0
1510223879.699,25.879,17.090,22.461,13.672,-194.824,0
1510223879.703,25.391,20.508,35.156,16.602,-961.426,0
1510223879.707,22.949,10.742,52.246,14.648,-677.246,0
1510223879.711,28.320,12.695,33.691,11.230,374.512,0
1510223879.715,41.016,4.883,59.082,4.395,788.574,0
1510223879.719,36.133,4.883,66.895,-2.441,-458.008,0
1510223879.723,30.762,19.043,46.875,-0.977,-1000.000,0
1510223879.726,22.949,18.066,41.992,-7.812,-194.336,0
1510223879.730,19.531,8.301,60.547,-20.020,-131.836,0
1510223879.734,50.293,17.578,39.551,5.371,-729.980,0
1510223879.738,68.848,33.691,1.953,32.715,-867.188,0
1510223879.742,44.922,18.555,35.645,18.555,-187.500,0
1510223879.746,30.273,21.484,30.762,33.691,-73.242,0
1510223879.750,26.855,12.207,36.621,21.484,-1000.000,0
1510223879.754,19.531,-3.418,52.734,8.789,-379.883,0
1510223879.758,27.344,14.648,17.578,34.180,814.453,0
1510223879.762,28.320,6.348,43.457,9.766,343.262,0
1510223879.766,33.691,-0.488,29.297,8.789,-1000.000,0
1510223879.769,41.016,2.441,8.301,24.414,-846.191,0
1510223879.773,37.598,8.789,42.480,7.812,-160.645,0
1510223879.777,49.316,22.461,17.578,22.949,-647.949,0
1510223879.781,45.410,12.695,20.996,21.973,-1000.000,0
1510223879.785,38.574,6.348,52.734,13.184,-545.898,0
1510223879.789,43.457,21.973,23.926,25.879,-59.570,0
1510223879.793,28.809,26.855,28.809,2.930,-419.434,0
1510223879.797,40.527,30.273,21.484,0.977,-702.637,0
1510223879.801,41.504,26.367,30.762,2.441,-57.617,0
1510223879.805,43.945,15.625,40.039,13.184,984.375,0
1510223879.809,49.805,21.973,33.203,10.254,-105.469,0
1510223879.812,35.156,40.527,36.621,-8.789,-1000.000,0
1510223879.816,47.852,34.668,17.578,11.719,-95.703,0
1510223879.820,45.410,12.695,17.578,20.508,391.113,0
1510223879.824,34.180,17.578,28.320,6.836,-927.246,0
1510223879.828,30.762,22.949,38.086,-18.066,-1000.000,0
1510223879.832,29.785,21.484,6.348,-5.859,-357.422,0
1510223879.836,17.090,26.855,47.363,-2.441,-396.973,0
1510223879.840,22.461,36.621,64.453,3.906,-1000.000,0
1510223879.844,59.570,40.527,19.531,29.297,-827.148,0
1510223879.848,55.176,28.320,39.062,21.973,54.199,0
1510223879.851,52.734,28.320,20.020,32.227,736.328,0
1510223879.855,46.875,32.227,21.484,30.273,109.375,0
1510223879.859,24.902,18.066,37.109,0.000,-895.020,0
1510223879.863,42.969,16.113,21.973,16.602,318.848,0
1510223879.867,61.035,20.020,15.137,45.898,558.594,0
1510223879.871,56.152,21.973,23.926,30.273,-1000.000,0
1510223879.875,54.199,22.461,52.734,5.859,-709.473,0
1510223879.879,61.035,16.602,24.902,11.719,315.918,0
1510223879.883,40.527,4.395,29.297,-11.719,-451.660,0
1510223879.887,41.504,9.766,5.859,-6.348,-1000.000,0
1510223879.891,66.895,12.207,-17.090,34.180,-374.512,0
1510223879.894,43.457,-2.441,47.852,11.230,455.566,0
1510223879.898,41.016,-0.977,35.156,1.465,93.750,0
1510223879.902,39.062,20.508,-27.344,10.254,-751.953,0
1510223879.906,51.758,22.461,-21.973,22.949,-264.648,0
1510223879.910,67.383,5.859,15.625,20.508,246.094,0
1510223879.914,61.035,7.324,15.625,22.949,-215.820,0
1510223879.918,42.480,13.184,14.648,17.578,-752.441,0
1510223879.922,47.363,12.695,38.574,16.602,-159.668,0
1510223879.926,63.965,19.531,41.504,30.762,763.672,0
1510223879.930,47.363,21.484,28.809,27.344,-529.785,0
1510223879.934,49.316,25.391,32.227,37.109,-1000.000,0
1510223879.937,46.387,16.113,35.156,22.461,-20.508,0
1510223879.941,37.598,9.277,38.086,-0.977,625.977,0
1510223879.945,49.805,35.156,34.668,15.137,83.008,0
1510223879.949,38.574,27.344,51.758,1.465,-474.609,0
1510223879.953,32.715,15.137,36.133,-4.395,253.418,0
1510223879.957,42.480,20.020,20.020,20.508,323.242,0
1510223879.961,44.434,17.090,41.992,22.949,-1000.000,0
1510223879.965,35.156,33.691,61.035,-8.301,-716.309,0
1510223879.969,47.363,37.109,48.828,8.301,-35.156,0
1510223879.973,58.594,28.809,46.875,39.551,-418.945,0
1510223879.976,40.039,23.438,77.148,8.301,-1000.000,0
1510223879.980,37.109,32.715,49.805,5.371,-450.684,0
1510223879.984,60.059,55.176,34.668,30.762,290.527,0
1510223879.988,71.777,54.199,48.828,51.758,-50.781,0
1510223879.992,46.875,40.527,36.133,29.785,-276.367,0
1510223879.996,47.363,34.180,48.828,19.531,27.344,0
1510223880.000,40.039,14.160,95.215,-6.348,696.777,0
1510223880.004,40.039,24.414,63.477,18.555,-507.324,0
1510223880.008,59.082,38.086,19.043,45.410,-1000.000,0
1510223880.012,63.477,35.645,37.598,31.250,-231.445,0
1510223880.016,65.430,27.344,37.109,30.762,-267.090,0
1510223880.019,67.871,24.902,38.574,22.949,-1000.000,0
1510223880.023,82.520,31.738,33.691,27.344,-1000.000,0
1510223880.027,69.336,25.391,29.297,23.926,-458.008,0
1510223880.031,54.199,18.555,45.410,33.691,-29.297,0
1510223880.035,74.707,15.137,50.293,58.105,-171.875,0
1510223880.039,65.430,11.719,50.293,31.738,-3.906,0
1510223880.043,59.082,14.648,50.781,13.672,738.281,0
1510223880.047,68.848,25.879,61.523,43.945,503.418,0
1510223880.051,40.527,20.508,120.117,12.695,-909.180,0
1510223880.055,73.242,21.484,55.176,32.715,-805.176,0
1510223880.059,86.426,23.926,7.812,45.898,457.031,0
1510223880.062,55.176,18.555,38.574,32.227,-131.836,0
1510223880.066,46.875,11.719,41.016,54.199,-1000.000,0
1510223880.070,27.832,-1.953,30.273,12.695,-514.160,0
1510223880.074,27.344,4.883,19.531,-14.160,-212.402,0
1510223880.078,24.414,24.414,36.133,2.930,-968.262,0
1510223880.082,24.414,10.742,36.621,4.883,-644.531,0
1510223880.086,43.945,4.395,36.621,15.137,393.066,0
1510223880.090,41.992,29.785,62.988,24.414,876.953,0
1510223880.094,56.641,39.551,62.500,41.992,-315.430,0
1510223880.098,62.012,37.109,52.246,36.621,-1000.000,0
1510223880.101,57.617,38.086,59.570,38.086,-58.594,0
1510223880.105,79.590,35.645,57.129,58.594,342.773,0
1510223880.109,71.289,27.344,79.102,49.805,-957.031,0
1510223880.113,63.477,28.320,59.570,46.875,-1000.000,0
1510223880.117,62.988,23.438,32.227,31.250,-548.340,0
1510223880.121,54.688,22.461,43.457,26.367,-653.320,0
1510223880.125,45.410,32.227,39.062,31.738,-1000.000,0
1510223880.129,34.180,21.973,27.344,9.277,-366.699,0
1510223880.133,50.781,1.953,14.160,17.578,743.652,0
1510223880.137,44.922,-7.324,10.742,20.020,354.980,0
1510223880.141,24.414,-21.973,1.465,1.953,-1000.000,0
1510223880.144,10.254,-31.250,-6.836,-12.695,-909.180,0
1510223880.148,5.859,-31.250,-5.859,-8.789,196.289,0
1510223880.152,13.672,-33.691,-8.789,-7.812,-235.840,0
1510223880.156,16.602,-34.668,1.465,-15.137,-1000.000,0
1510223880.160,10.254,-29.297,15.137,-14.160,-545.410,0
1510223880.164,16.602,-25.391,12.695,-5.859,295.898,0
1510223880.168,25.391,-24.414,11.719,0.977,-546.875,0
1510223880.172,5.371,-18.066,17.578,-10.254,-1000.000,0
1510223880.176,-4.395,-10.742,29.297,-31.738,-117.188,0
1510223880.180,31.250,-22.949,42.969,-14.648,914.062,0
1510223880.184,39.062,-22.949,32.227,2.930,-274.414,0
1510223880.187,33.203,-3.418,24.414,-3.906,-1000.000,0
1510223880.191,36.621,-7.812,32.227,-0.488,-210.938,0
1510223880.195,28.320,-8.789,20.996,6.836,-101.562,0
1510223880.199,18.066,7.812,20.996,7.324,-1000.000,0
1510223880.203,31.250,11.719,37.109,7.324,-1000.000,0
1510223880.207,46.875,10.254,43.457,6.836,-295.898,0
1510223880.211,36.133,5.371,32.715,-1.465,11.230,0
1510223880.215,21.973,3.906,27.832,-4.883,-859.375,0
1510223880.219,25.391,-1.953,30.273,4.395,-1000.000,0
1510223880.223,28.320,4.395,25.391,3.906,150.879,0
1510223880.226,19.531,9.766,30.273,8.789,639.648,0
1510223880.230,17.578,-3.418,33.203,14.648,-840.332,0
1510223880.234,20.020,-17.090,23.438,-1.953,-980.957,0
1510223880.238,0.977,-33.691,11.230,-19.043,-171.875,0
1510223880.242,-5.859,-20.508,18.066,-12.207,-422.363,0
1510223880.246,14.648,7.324,29.785,1.953,-1000.000,0
1510223880.250,14.648,4.883,24.414,-3.906,-675.781,0
1510223880.254,-1.465,-6.836,31.738,-20.508,344.727,0
1510223880.258,-10.742,-19.043,18.555,-23.438,-340.820,0
1510223880.262,11.230,-12.695,5.371,3.418,-1000.000,0
1510223880.266,31.250,9.766,35.156,20.020,-338.379,0
1510223880.269,29.297,-1.465,42.480,25.879,624.023,0
1510223880.273,27.344,-1.465,33.691,25.879,413.086,0
1510223880.277,16.602,-7.324,28.320,7.812,-545.410,0
1510223880.281,22.949,-10.254,33.203,20.020,-229.980,0
1510223880.285,47.852,-0.488,42.969,37.598,894.531,0
1510223880.289,49.316,0.977,51.758,28.320,-382.812,0
1510223880.293,35.645,13.184,45.410,17.090,-1000.000,0
1510223880.297,28.809,-0.488,35.156,10.254,-94.727,0
1510223880.301,30.762,-11.719,42.480,20.508,53.223,0
1510223880.305,39.551,2.930,37.598,18.555,-1000.000,0
1510223880.309,54.688,1.465,39.551,14.648,-998.535,0
1510223880.312,56.152,6.348,45.410,29.297,-560.059,0
1510223880.316,56.152,16.113,39.551,30.762,-30.762,0
1510223880.320,57.617,20.020,40.527,20.996,146.973,0
1510223880.324,43.945,19.531,34.668,5.859,-487.793,0
1510223880.328,18.555,30.273,31.738,-5.371,270.996,0
1510223880.332,22.461,25.879,34.668,3.906,517.578,0
1510223880.336,36.133,10.742,39.062,0.977,-1000.000,0
1510223880.340,36.133,18.066,39.062,-9.766,-745.605,0
1510223880.344,27.344,27.832,42.969,0.000,119.629,0
1510223880.348,27.832,18.555,44.922,8.789,-562.500,0
1510223880.351,27.344,9.766,33.203,-4.883,-1000.000,0
1510223880.355,33.691,15.625,36.621,1.465,-455.566,0
1510223880.359,21.973,20.508,40.527,-4.395,619.141,0
1510223880.363,22.461,8.301,42.969,-5.371,471.680,0
1510223880.367,51.758,0.488,50.781,25.879,35.645,0
1510223880.371,56.152,10.254,57.617,40.527,235.352,0
1510223880.375,46.875,15.137,50.293,42.480,694.336,0
1510223880.379,31.738,7.324,35.645,23.926,-512.695,0
1510223880.383,30.273,2.930,34.180,13.672,-1000.000,0
1510223880.387,45.898,17.090,51.270,33.203,-156.738,0
1510223880.391,41.504,0.488,54.199,20.508,-243.164,0
1510223880.394,23.926,-1.465,38.086,2.441,-1000.000,0
1510223880.398,48.340,21.973,44.922,24.414,-1000.000,0
1510223880.402,62.012,16.113,50.781,28.320,-159.180,0
1510223880.406,48.340,18.066,55.176,28.320,-180.664,0
1510223880.410,30.762,18.555,51.758,25.879,-477.539,0
1510223880.414,29.297,0.488,46.387,19.531,-369.629,0
1510223880.418,47.852,6.348,54.688,30.273,240.723,0
1510223880.422,45.898,16.113,55.176,24.902,457.031,0
1510223880.426,29.297,11.230,39.551,4.395,-1000.000,0
1510223880.430,28.320,21.484,36.621,-11.719,-844.238,0
1510223880.434,29.785,11.230,36.621,2.441,-199.219,0
1510223880.437,31.738,3.418,27.832,-1.465,-714.355,0
1510223880.441,31.250,7.324,24.414,-29.297,-1000.000,0
1510223880.445,32.715,1.953,24.414,-3.906,-254.395,0
1510223880.449,30.762,13.672,30.273,-4.395,319.336,0
1510223880.453,41.504,8.789,37.109,-9.766,-783.691,0
1510223880.457,36.621,11.230,19.531,-10.254,-624.512,0
1510223880.461,41.016,31.738,17.578,-9.277,430.664,0
1510223880.465,64.941,29.297,41.504,21.484,976.562,0
1510223880.469,67.871,25.391,44.922,39.551,-178.223,0
1510223880.473,55.176,25.391,40.039,31.738,-1000.000,0
1510223880.476,43.945,9.766,36.133,13.184,-208.008,0
1510223880.480,36.621,7.812,32.715,16.602,-112.305,0
1510223880.484,40.527,19.531,37.598,23.926,-1000.000,0
1510223880.488,43.457,14.648,41.992,14.160,-1000.000,0
1510223880.492,48.340,6.348,46.875,16.113,-531.738,0
1510223880.496,40.527,3.906,51.758,32.715,-555.664,0
1510223880.500,32.227,10.742,48.340,25.391,-1000.000,0
1510223880.504,38.574,8.301,40.527,16.113,-388.184,0
1510223880.508,15.137,-10.254,56.152,-5.371,297.852,0
1510223880.512,2.930,-10.254,41.016,-13.184,-407.227,0
1510223880.516,23.438,-4.883,6.836,14.160,-1000.000,0
1510223880.519,17.578,-12.695,20.020,4.883,-843.262,0
1510223880.523,16.602,-6.348,44.434,0.977,597.168,0
1510223880.527,26.855,-6.836,42.480,6.836,588.867,0
1510223880.531,13.672,-9.277,58.105,-26.367,-1000.000,0
1510223880.535,5.371,4.883,61.523,-37.598,-632.812,0
1510223880.539,30.762,22.949,19.531,12.207,481.934,0
1510223880.543,32.715,20.020,39.062,11.719,-382.812,0
1510223880.547,14.160,-10.254,41.992,-3.906,-1000.000,0
1510223880.551,29.297,0.000,13.672,12.695,-141.113,0
1510223880.555,49.805,17.578,23.438,14.648,884.766,0
1510223880.559,43.457,8.789,28.320,9.766,-289.551,0
1510223880.562,40.527,14.648,24.414,8.789,-1000.000,0
1510223880.566,48.340,14.648,21.973,11.719,1.465,0
1510223880.570,52.734,19.531,26.367,18.066,304.199,0
1510223880.574,60.059,27.344,38.086,22.949,-958.984,0
1510223880.578,58.105,31.738,32.227,18.555,-1000.000,0
1510223880.582,64.453,30.762,43.457,20.020,-486.816,0
1510223880.586,67.383,32.227,64.453,23.926,-560.547,0
1510223880.590,70.312,35.645,49.316,37.109,-997.070,0
1510223880.594,59.570,19.043,43.457,22.461,-1000.000,0
1510223880.598,61.035,16.602,42.480,20.020,125.488,0
1510223880.601,62.012,14.160,37.109,34.668,487.793,0
1510223880.605,59.570,17.090,41.016,33.203,-967.773,0
1510223880.609,56.152,31.250,39.551,28.320,-955.078,0
1510223880.613,30.273,18.066,53.711,13.184,-234.375,0
1510223880.617,34.668,4.395,61.035,18.066,-526.855,0
1510223880.621,54.688,16.602,34.180,47.852,-778.809,0
1510223880.625,31.250,24.902,49.805,13.672,-291.504,0
1510223880.629,27.344,19.531,39.551,1.465,157.715,0
1510223880.633,41.992,7.324,29.785,32.715,-514.648,0
1510223880.637,25.879,3.418,46.875,20.996,-1000.000,0
1510223880.641,27.344,4.395,43.457,13.184,-364.746,0
1510223880.644,28.809,3.906,36.621,5.371,607.910,1
1510223880.648,31.738,0.488,26.855,9.766,323.242,0
1510223880.652,28.809,15.137,36.621,1.953,-633.789,0
1510223880.656,33.203,16.113,49.316,-4.395,-166.016,0
1510223880.660,40.527,-5.371,50.293,17.578,827.148,0
1510223880.664,31.250,-1.465,32.227,8.301,-471.191,0
1510223880.668,27.344,-0.488,34.180,-12.695,-1000.000,0
1510223880.672,7.324,11.230,39.551,-28.809,-204.102,0
1510223880.676,20.020,10.254,32.227,-19.531,-185.059,0
1510223880.680,36.133,-1.465,33.691,-6.836,-610.352,0
1510223880.684,29.785,3.906,45.410,-15.137,-657.227,0
1510223880.687,23.438,0.977,95.703,-19.043,-171.875,0
1510223880.691,56.152,17.090,30.762,36.621,563.965,0
1510223880.695,73.730,23.926,4.395,61.523,317.871,0
1510223880.699,58.105,20.020,36.621,42.969,-72.266,0
1510223880.703,63.965,20.020,31.250,32.715,446.777,0
1510223880.707,62.012,7.324,34.180,24.414,351.562,0
1510223880.711,48.828,-0.977,51.270,22.949,-1000.000,0
1510223880.715,52.734,-0.977,56.641,26.367,-727.051,0
1510223880.719,51.270,-0.488,47.852,26.855,-16.113,0
1510223880.723,52.734,13.672,41.016,31.250,-686.035,0
1510223880.726,37.598,5.371,44.434,14.648,-1000.000,0
1510223880.730,23.926,2.441,55.176,-2.441,-443.359,0
1510223880.734,53.711,15.625,39.062,17.090,37.109,0
1510223880.738,32.715,6.348,69.336,7.324,-53.711,0
1510223880.742,13.672,-8.301,91.797,0.977,225.098,0
1510223880.746,49.316,5.371,52.246,40.039,532.227,0
1510223880.750,48.828,12.695,66.406,28.809,858.398,0
1510223880.754,51.270,9.277,53.711,23.926,-288.086,0
1510223880.758,41.992,31.250,30.762,20.996,-1000.000,0
1510223880.762,20.020,32.227,34.668,1.465,-36.133,0
1510223880.766,24.414,13.184,22.949,11.719,301.758,0
1510223880.769,11.719,-3.418,43.945,-7.324,-1000.000,0
1510223880.773,17.090,-0.488,43.945,-24.902,-1000.000,0
1510223880.777,48.828,8.301,12.695,5.371,-392.578,0
1510223880.781,39.551,2.930,16.602,13.672,-501.465,0
1510223880.785,32.227,11.719,6.348,10.254,-655.762,0
1510223880.789,30.762,-0.977,21.973,5.371,-58.105,0
1510223880.793,39.551,7.324,23.438,10.742,690.918,0
1510223880.797,53.223,22.949,24.902,12.207,474.609,0
1510223880.801,49.316,12.207,39.551,2.930,-768.066,0
1510223880.805,39.062,3.906,42.969,6.836,-812.500,0
1510223880.809,49.316,13.672,38.086,21.973,-200.684,0
1510223880.812,43.457,3.418,59.082,28.320,-654.297,0
1510223880.816,24.902,5.371,62.988,27.832,-1000.000,0
1510223880.820,33.203,26.367,19.531,34.180,-513.184,0
1510223880.824,36.133,11.719,27.832,44.434,394.531,0
1510223880.828,29.785,4.883,62.012,31.250,-609.863,0
1510223880.832,35.645,7.324,56.641,21.973,-650.391,0
1510223880.836,28.320,0.000,42.969,13.184,557.129,0
1510223880.840,29.785,9.277,39.551,13.672,811.523,0
1510223880.844,41.016,18.066,20.020,25.391,-437.500,0
1510223880.848,29.297,0.488,31.250,9.277,-1000.000,0
1510223880.851,37.598,6.348,24.414,19.043,-208.008,0
1510223880.855,41.016,21.973,15.625,19.531,-96.680,0
1510223880.859,38.574,10.254,31.738,12.695,-823.242,0
1510223880.863,18.555,-12.695,24.902,-3.418,-1000.000,0
1510223880.867,11.230,0.977,-0.977,-5.371,-175.293,0
1510223880.871,18.555,17.090,19.043,-5.371,-39.062,0
1510223880.875,33.203,9.766,36.621,3.906,-1000.000,0
1510223880.879,38.574,10.254,30.273,12.207,-583.008,0
1510223880.883,44.922,24.902,40.039,14.648,645.508,0
1510223880.887,46.387,34.180,39.551,28.320,372.070,0
1510223880.891,43.945,28.809,43.945,18.555,-1000.000,0
1510223880.894,69.824,26.367,34.668,22.461,-835.938,0
1510223880.898,65.430,20.508,29.785,38.574,-64.941,0
1510223880.902,56.641,22.949,40.039,41.016,-598.633,0
1510223880.906,54.199,19.043,37.598,38.574,-1000.000,0
1510223880.910,48.340,16.113,50.293,25.879,-588.379,0
1510223880.914,53.711,10.254,53.711,24.414,8.301,0
1510223880.918,52.734,8.301,38.086,40.039,-263.672,0
1510223880.922,47.363,18.066,47.363,34.180,-853.516,0
1510223880.926,51.758,13.184,47.363,21.973,-213.379,0
1510223880.930,54.688,5.371,35.645,36.133,-995.117,0
1510223880.934,52.246,20.020,28.320,42.480,-37.598,0
1510223880.937,45.898,15.137,52.246,16.602,-1000.000,0
1510223880.941,41.016,5.859,59.570,0.488,-121.094,0
1510223880.945,34.180,17.578,24.414,19.531,386.719,0
1510223880.949,24.902,5.371,40.527,13.672,-925.293,0
1510223880.953,32.715,-1.465,42.969,15.137,-1000.000,0
1510223880.957,41.504,9.277,20.020,34.668,-470.703,0
1510223880.961,39.062,8.789,30.273,14.160,-522.949,0
1510223880.965,38.574,10.742,28.809,6.836,-996.582,0
1510223880.969,37.598,19.531,24.414,10.742,-1000.000,0
1510223880.973,23.438,17.090,23.926,1.953,81.055,0
1510223880.976,-2.441,-20.996,24.414,-28.320,901.367,0
1510223880.980,-3.906,-24.414,13.184,-18.066,-496.094,0
1510223880.984,13.184,11.719,19.531,7.812,-1000.000,0
1510223880.988,26.367,21.484,27.344,5.859,121.094,0
1510223880.992,20.996,13.672,43.945,10.254,-62.500,0
1510223880.996,13.672,14.648,39.551,4.883,-1000.000,0
1510223881.000,32.715,13.184,13.672,18.066,-662.109,0
1510223881.004,34.180,8.301,35.156,26.367,-179.199,0
1510223881.008,31.250,9.277,32.715,17.090,-780.273,0
1510223881.012,44.922,15.625,29.297,3.906,-1000.000,0
1510223881.016,50.781,27.344,39.551,8.301,-400.879,0
1510223881.019,42.969,25.879,37.109,22.461,530.762,0
1510223881.023,35.156,23.438,34.668,32.227,277.832,0
1510223881.027,40.039,20.508,40.527,41.504,-619.629,0
1510223881.031,45.410,17.090,45.410,27.832,-173.828,0
1510223881.035,50.781,23.926,44.922,26.855,938.965,0
1510223881.039,55.664,22.949,43.945,40.039,-275.879,0
1510223881.043,53.223,28.809,48.340,28.320,-1000.000,0
1510223881.047,62.012,32.227,57.617,35.645,-33.691,0
1510223881.051,59.082,23.438,56.152,41.016,396.973,0
1510223881.055,60.059,25.391,50.781,32.715,-856.934,0
1510223881.059,57.129,32.227,46.387,24.414,-1000.000,0
1510223881.062,50.293,22.461,45.410,25.879,-518.066,0
1510223881.066,60.547,17.578,50.293,37.109,15.137,0
1510223881.070,53.711,22.949,52.246,28.320,265.625,0
1510223881.074,41.016,21.973,41.504,21.973,-132.324,0
1510223881.078,42.969,21.973,44.922,25.879,-198.730,0
1510223881.082,41.504,8.789,58.594,27.832,-430.664,0
1510223881.086,44.922,16.602,38.086,23.926,-1000.000,0
1510223881.090,37.598,22.949,28.320,5.859,-836.914,0
1510223881.094,33.203,13.672,43.457,-3.418,629.395,0
1510223881.098,43.457,13.184,32.227,16.602,354.004,0
1510223881.101,45.410,18.066,29.785,23.926,-1000.000,0
1510223881.105,41.016,20.996,39.062,13.184,-504.395,0
1510223881.109,28.320,27.344,41.016,7.324,498.047,0
1510223881.113,26.367,26.855,42.480,9.766,207.031,0
1510223881.117,22.461,18.066,41.992,13.672,-133.789,0
1510223881.121,18.555,29.297,37.109,2.930,277.832,0
1510223881.125,26.367,21.973,39.062,-2.930,745.605,0
1510223881.129,35.645,5.371,46.387,1.465,-488.770,0
1510223881.133,32.227,3.418,37.109,9.277,-1000.000,0
1510223881.137,27.344,18.066,34.668,12.695,-229.980,0
1510223881.141,23.438,20.020,39.062,0.000,-240.723,0
1510223881.144,24.414,20.996,36.133,-9.766,-1000.000,0
1510223881.148,30.762,16.113,46.875,-2.441,-1000.000,0
1510223881.152,34.180,9.277,51.758,0.977,-216.309,0
1510223881.156,59.570,23.438,46.875,8.789,-219.727,0
1510223881.160,59.082,28.809,44.922,22.949,-436.035,0
1510223881.164,61.035,27.832,42.969,37.109,-324.219,0
1510223881.168,66.895,30.762,44.922,18.066,277.832,0
1510223881.172,49.805,39.551,39.062,11.230,552.246,0
1510223881.176,39.551,34.180,40.039,19.043,-949.219,0
1510223881.180,41.016,28.320,46.387,6.836,-939.941,0
1510223881.184,45.410,32.227,49.805,1.465,150.391,0
1510223881.187,45.410,30.273,53.223,17.090,-315.430,0
1510223881.191,41.992,28.809,49.316,13.184,-1000.000,0
1510223881.195,36.621,30.273,54.199,11.230,-528.809,0
1510223881.199,41.504,29.785,55.176,23.926,-157.227,0
1510223881.203,50.293,17.090,44.922,20.996,-939.941,0
1510223881.207,40.527,20.020,45.410,21.484,-575.195,0
1510223881.211,40.527,18.555,45.898,1.465,497.559,0
1510223881.215,42.969,26.367,41.016,0.000,922.363,0
1510223881.219,26.367,27.344,27.832,17.090,-247.070,0
1510223881.223,24.902,-0.488,28.809,8.301,-1000.000,0
1510223881.226,31.250,0.488,33.203,6.348,-68.848,0
1510223881.230,27.344,12.207,32.227,18.555,425.293,0
1510223881.234,30.762,16.602,55.664,28.320,-904.297,0
1510223881.238,26.367,6.348,65.430,21.973,-1000.000,0
1510223881.242,31.250,3.418,62.012,11.719,-513.672,0
1510223881.246,39.062,6.348,62.988,15.137,-582.031,0
1510223881.250,22.461,1.953,60.547,16.602,-1000.000,0
1510223881.254,41.992,7.812,64.453,24.414,-539.551,0
1510223881.258,62.012,21.973,68.848,41.992,656.738,0
1510223881.262,60.059,21.484,68.359,42.969,411.621,0
1510223881.266,60.059,20.020,74.707,29.297,-1000.000,0
1510223881.269,48.828,15.625,73.730,16.113,-848.633,0
1510223881.273,38.574,15.137,66.406,16.113,-166.992,0
1510223881.277,37.109,17.578,66.895,23.926,-633.301,0
1510223881.281,40.039,21.973,68.848,20.020,-1000.000,0
1510223881.285,49.805,21.484,74.707,22.949,-608.887,0
1510223881.289,51.270,7.324,63.477,16.602,290.527,0
1510223881.293,44.434,4.883,61.523,16.113,-472.168,0
1510223881.297,45.410,12.207,66.895,16.113,-1000.000,0
1510223881.301,43.457,15.137,62.500,10.742,-134.277,0
1510223881.305,41.504,19.531,58.594,13.672,918.457,0
1510223881.309,39.551,19.043,65.430,14.648,-173.340,0
1510223881.312,41.016,17.090,60.547,12.695,-1000.000,0
1510223881.316,37.109,18.066,45.410,8.789,-270.508,0
1510223881.320,26.855,11.230,48.828,12.695,228.027,0
1510223881.324,28.320,14.648,49.805,10.254,-746.094,0
1510223881.328,33.691,20.996,42.480,7.324,-1000.000,0
1510223881.332,40.527,12.207,38.574,8.301,4.395,0
1510223881.336,47.363,20.996,43.457,18.555,58.105,0
1510223881.340,42.480,21.484,48.828,27.832,-1000.000,0
1510223881.344,33.691,15.137,40.527,20.508,-1000.000,0
1510223881.348,50.781,10.254,42.480,38.574,160.156,0
1510223881.351,55.176,16.602,46.875,52.246,492.188,0
1510223881.355,55.664,19.531,46.387,49.805,-939.941,0
1510223881.359,45.410,15.625,69.824,21.484,-1000.000,0
1510223881.363,41.992,12.695,62.012,4.395,-76.172,0
1510223881.367,57.617,16.602,24.414,46.387,-221.680,0
1510223881.371,49.316,14.160,41.016,38.086,-1000.000,0
1510223881.375,33.203,1.465,42.969,18.555,-686.035,0
1510223881.379,25.391,1.465,27.344,18.066,-126.465,0
1510223881.383,38.086,3.418,44.434,26.367,-676.758,0
1510223881.387,42.969,-2.441,48.340,28.809,-1000.000,0
1510223881.391,39.551,6.836,33.691,21.484,-217.773,0
1510223881.394,48.340,12.207,41.992,31.250,758.301,0
1510223881.398,41.016,5.371,51.758,26.367,423.340,0
1510223881.402,41.992,9.277,37.109,23.926,-603.516,0
1510223881.406,51.758,16.113,24.902,16.602,-114.258,0
1510223881.410,31.250,6.836,25.879,-6.836,313.965,0
1510223881.414,24.902,-1.953,20.020,-2.441,-794.434,0
1510223881.418,32.715,-1.465,13.184,-1.953,-1000.000,0
1510223881.422,20.996,-6.348,6.348,-21.973,-70.801,0
1510223881.426,24.414,1.953,27.832,-10.254,640.137,0
1510223881.430,42.480,24.902,36.621,1.953,-597.656,0
1510223881.434,37.109,22.461,59.570,-10.254,-1000.000,0
1510223881.437,26.855,8.301,63.965,-9.277,-469.727,0
1510223881.441,33.691,8.789,39.551,6.348,160.645,0
1510223881.445,27.344,11.719,54.199,-8.789,367.676,0
1510223881.449,30.762,11.230,49.805,-4.883,222.168,0
1510223881.453,45.898,12.695,28.809,23.438,725.586,0
1510223881.457,27.344,7.812,35.156,25.391,469.727,0
1510223881.461,20.996,0.488,36.133,7.812,-1000.000,0
1510223881.465,23.926,4.395,38.086,-0.488,-819.336,0
1510223881.469,27.344,8.789,43.945,11.719,263.184,0
1510223881.473,30.273,11.230,43.945,15.625,-371.582,0
1510223881.476,33.691,11.230,37.598,16.602,-1000.000,0
1510223881.480,23.926,14.160,52.246,13.184,-478.027,0
1510223881.484,24.902,16.602,55.176,20.996,-30.273,0
1510223881.488,37.598,13.184,29.785,34.180,-91.797,0
1510223881.492,36.133,16.113,34.180,30.762,1.953,0
1510223881.496,47.852,15.137,37.109,27.344,308.594,0
1510223881.500,47.363,17.578,38.574,30.762,807.617,0
1510223881.504,25.391,16.113,50.781,23.926,-429.199,0
1510223881.508,15.625,18.555,57.617,7.324,-1000.000,0
1510223881.512,2.930,7.812,109.863,-20.996,273.926,0
1510223881.516,20.508,0.000,72.754,0.000,195.312,0
1510223881.519,51.270,19.043,-6.836,42.480,-1000.000,0
1510223881.523,32.715,15.625,25.391,25.879,-1000.000,0
1510223881.527,37.109,16.113,26.367,14.648,-179.199,0
1510223881.531,47.852,25.391,20.996,14.648,117.676,0
1510223881.535,33.691,30.762,31.738,9.766,-340.820,0
1510223881.539,35.156,19.531,59.082,6.348,-171.387,0
1510223881.543,50.293,14.648,42.480,16.113,628.906,0
1510223881.547,56.641,31.738,21.973,24.902,370.117,0
1510223881.551,54.199,19.043,30.273,26.367,-1000.000,0
1510223881.555,49.805,9.766,24.414,20.020,-863.770,0
1510223881.559,40.527,13.672,16.113,15.625,-281.250,0
1510223881.562,15.625,12.207,33.691,-11.719,-768.555,0
1510223881.566,20.020,11.719,58.105,-22.949,-951.172,0
1510223881.570,34.180,23.438,30.762,-9.277,-291.016,0
1510223881.574,23.926,28.320,32.715,-16.113,207.031,0
1510223881.578,31.250,8.301,39.062,3.418,-680.664,0
1510223881.582,42.969,7.812,29.785,12.695,-619.629,0
1510223881.586,33.691,29.297,22.949,2.930,437.012,0
1510223881.590,23.438,24.902,44.922,-4.395,-960.449,0
1510223881.594,41.016,19.043,42.480,8.301,-7.812,0
1510223881.598,43.457,31.738,44.434,18.066,-1000.000,0
1510223881.601,39.062,31.250,56.152,10.742,-78.125,0
1510223881.605,43.457,29.297,26.855,22.461,508.789,0
1510223881.609,27.832,28.809,30.273,20.996,-886.230,0
1510223881.613,31.250,21.973,36.133,27.344,-1000.000,0
1510223881.617,38.574,19.043,36.621,25.391,-544.434,0
1510223881.621,42.969,22.949,38.086,24.902,-705.566,0
1510223881.625,50.293,34.180,41.016,26.367,-859.863,0
1510223881.629,51.270,33.203,46.387,28.320,-332.031,0
1510223881.633,61.035,20.996,39.062,41.992,597.168,0
1510223881.637,61.035,8.301,49.805,42.969,428.223,0
1510223881.641,61.523,6.836,48.340,31.250,-975.098,0
1510223881.644,66.406,11.719,24.414,42.480,-1000.000,0
1510223881.648,54.688,3.906,35.156,53.711,52.734,0
1510223881.652,41.016,3.418,43.457,37.109,-276.367,0
1510223881.656,48.828,0.488,37.598,35.645,-1000.000,0
1510223881.660,60.059,0.488,45.410,35.156,-592.773,0
1510223881.664,41.016,10.254,52.734,21.484,-86.914,0
1510223881.668,29.785,9.766,39.551,-0.977,-791.504,0
1510223881.672,24.414,2.441,33.691,-8.789,-1000.000,0
1510223881.676,23.926,0.000,39.551,11.230,-145.996,0
1510223881.680,15.625,14.648,27.832,9.277,820.312,0
1510223881.684,8.301,11.230,29.785,5.371,57.617,0
1510223881.687,12.207,0.488,46.387,6.836,-679.199,0
1510223881.691,11.230,7.324,43.945,-8.301,-91.797,0
1510223881.695,16.602,15.625,25.879,-9.277,334.473,0
1510223881.699,10.742,18.066,35.156,-9.766,-911.621,0
1510223881.703,24.902,6.348,56.641,-1.953,-1000.000,0
1510223881.707,32.227,26.367,35.156,3.418,-490.234,0
1510223881.711,26.855,23.438,67.383,-13.672,-545.898,0
1510223881.715,51.758,20.996,62.988,19.531,-1000.000,0
1510223881.719,82.520,40.039,21.973,51.758,-1000.000,0
1510223881.723,82.031,35.645,48.340,49.316,-96.680,0
1510223881.726,67.871,29.785,65.918,57.129,183.105,0
1510223881.730,64.453,29.785,50.293,62.500,-809.570,0
1510223881.734,75.195,35.645,38.574,62.012,-1000.000,0
1510223881.738,70.801,28.320,47.852,36.621,203.125,0
1510223881.742,67.383,35.156,48.828,28.320,729.004,0
1510223881.746,71.289,27.832,48.828,47.852,-214.355,0
1510223881.750,76.172,19.531,49.805,53.223,-537.109,0
1510223881.754,85.938,23.926,41.504,49.805,427.246,0
1510223881.758,79.590,17.090,53.711,39.551,-107.910,0
1510223881.762,66.406,41.016,60.059,32.227,-1000.000,0
1510223881.766,72.754,35.645,52.734,48.340,-473.145,0
1510223881.769,88.867,16.602,37.109,62.500,370.117,0
1510223881.773,75.684,24.902,43.945,41.016,117.188,0
1510223881.777,61.035,22.949,52.246,20.996,-832.520,0
1510223881.781,44.922,26.855,30.273,18.066,-246.094,0
1510223881.785,46.387,20.508,51.758,18.555,526.855,0
1510223881.789,68.359,34.668,63.477,38.086,-745.117,0
1510223881.793,59.570,34.180,47.852,29.297,-1000.000,0
1510223881.797,41.016,33.203,41.992,3.418,-58.594,0
1510223881.801,47.363,37.109,41.992,18.555,404.785,0
1510223881.805,46.875,16.113,42.480,28.809,-451.660,0
1510223881.809,23.438,25.391,29.297,4.883,-894.043,0
1510223881.812,19.531,25.879,20.996,-7.324,-227.051,0
1510223881.816,18.555,5.371,41.992,-5.859,499.023,0
1510223881.820,-2.930,14.160,52.246,-14.648,212.891,0
1510223881.824,11.719,27.832,38.086,-6.348,-293.945,0
1510223881.828,17.578,27.344,31.250,-2.441,311.035,0
1510223881.832,15.137,26.855,16.113,-3.418,461.426,0
1510223881.836,28.320,31.250,19.531,0.000,-1000.000,0
1510223881.840,41.992,26.855,33.203,18.555,-767.578,0
1510223881.844,43.945,21.973,33.691,19.043,53.223,0
1510223881.848,27.344,19.043,30.273,4.883,-636.230,0
1510223881.851,30.762,21.484,30.273,18.066,-1000.000,0
1510223881.855,48.828,24.902,26.367,24.414,-482.910,0
1510223881.859,56.641,17.578,45.898,20.996,-26.855,0
1510223881.863,68.359,24.414,46.387,41.016,-54.688,0
1510223881.867,73.730,30.762,37.598,44.922,-45.898,0
1510223881.871,48.828,20.508,41.016,33.203,221.191,0
1510223881.875,57.617,18.555,36.621,42.969,893.555,0
1510223881.879,76.172,19.531,32.227,36.133,-248.047,0
1510223881.883,57.129,-6.348,26.367,28.809,-1000.000,0
1510223881.887,46.875,-9.766,29.297,33.691,-46.387,0
1510223881.891,59.570,2.930,29.297,41.504,292.480,0
1510223881.894,48.340,-2.930,53.223,27.832,-1000.000,0
1510223881.898,-10.742,-30.273,138.672,-78.613,-1000.000,0
1510223881.902,9.277,-8.301,47.852,-54.688,-270.020,0
1510223881.906,51.270,9.766,-30.273,35.156,-412.598,2
1510223881.910,49.805,-2.930,22.949,37.598,-636.230,0
1510223881.914,37.598,5.859,44.434,42.969,3.906,0
1510223881.918,22.461,-1.953,56.152,41.504,595.215,0
1510223881.922,40.039,4.395,47.852,59.082,789.062,0
1510223881.926,43.457,12.207,31.250,42.480,-375.977,0
1510223881.930,9.766,-5.859,59.570,-5.859,-952.637,0
1510223881.934,6.348,-1.465,55.664,-7.324,102.539,0
1510223881.937,23.926,-3.418,33.203,8.301,-280.762,0
1510223881.941,22.949,1.465,33.691,-3.418,-1000.000,0
1510223881.945,52.246,32.715,32.227,25.391,-548.340,0
1510223881.949,48.340,38.574,55.664,19.043,-261.719,0
1510223881.953,47.363,39.062,42.969,14.648,-846.191,0
1510223881.957,48.828,35.645,68.359,21.973,-409.668,0
1510223881.961,39.062,38.574,74.219,25.391,556.152,0
1510223881.965,36.621,36.621,44.434,28.320,354.980,0
1510223881.969,11.230,18.555,50.293,0.000,-833.008,0
1510223881.973,11.719,11.719,18.555,2.441,-1000.000,0
1510223881.976,24.902,12.695,44.922,4.395,-164.062,0
1510223881.980,35.156,17.090,48.828,5.371,908.691,0
1510223881.984,33.691,16.602,-12.695,14.648,-351.562,0
1510223881.988,15.137,-1.465,6.348,-1.465,-1000.000,0
1510223881.992,23.926,-16.113,12.207,8.789,-6.348,0
1510223881.996,30.273,-4.395,41.504,20.020,238.281,0
1510223882.000,35.645,13.672,45.898,26.855,-1000.000,0
1510223882.004,59.082,33.203,74.707,33.691,-554.199,0
1510223882.008,84.473,58.105,79.102,50.781,195.312,0
1510223882.012,111.328,60.059,47.852,96.191,-501.953,0
1510223882.016,109.863,43.457,89.355,90.820,-1000.000,0
1510223882.019,97.168,55.664,112.793,71.289,-1000.000,0
1510223882.023,89.844,62.500,73.730,78.125,298.828,0
1510223882.027,69.824,42.969,77.148,52.246,306.641,0
1510223882.031,82.031,51.270,47.363,57.129,-1000.000,0
1510223882.035,93.750,46.875,32.715,87.402,-713.379,0
1510223882.039,85.938,36.621,58.105,62.012,441.406,0
1510223882.043,72.266,40.039,52.734,47.852,-5.371,0
1510223882.047,44.434,29.785,58.594,46.875,-1000.000,0
1510223882.051,40.527,15.625,56.152,24.414,-264.648,0
1510223882.055,40.039,15.137,65.918,12.207,989.258,0
1510223882.059,35.645,18.555,82.031,5.371,-102.539,0
1510223882.062,51.270,33.691,42.480,31.250,-1000.000,0
1510223882.066,45.898,31.738,52.246,40.039,-131.836,0
1510223882.070,36.133,30.273,90.820,18.066,349.609,0
1510223882.074,47.363,46.387,63.477,28.809,-953.613,0
1510223882.078,48.340,36.621,45.898,37.109,-1000.000,0
1510223882.082,26.367,10.254,45.410,3.418,-483.887,0
1510223882.086,15.137,-1.465,77.637,-18.066,-542.969,0
1510223882.090,26.855,25.879,61.523,2.441,-1000.000,0
1510223882.094,43.945,28.809,8.789,38.086,-1000.000,0
1510223882.098,28.320,0.488,75.684,11.719,-49.805,0
1510223882.101,50.293,7.324,84.473,29.297,572.754,0
1510223882.105,54.688,15.625,22.949,43.945,-529.785,0
1510223882.109,44.922,15.625,51.270,20.508,-1000.000,0
1510223882.113,80.078,45.898,35.156,65.918,261.719,0
1510223882.117,70.312,38.574,36.621,65.918,606.445,0
1510223882.121,56.641,23.438,71.289,46.387,-968.750,0
1510223882.125,68.359,29.785,69.336,41.016,-777.832,0
1510223882.129,82.520,36.133,57.129,53.223,84.473,0
1510223882.133,71.289,42.480,49.316,49.805,-571.289,0
1510223882.137,75.684,33.203,27.832,50.293,-1000.000,0
1510223882.141,67.871,45.898,58.594,30.762,-478.027,0
1510223882.144,34.668,52.734,120.117,3.906,428.223,0
1510223882.148,80.078,46.875,39.062,62.012,191.895,0
1510223882.152,83.984,28.809,48.340,60.547,-747.070,0
1510223882.156,58.105,26.367,70.312,30.273,-254.883,0
1510223882.160,83.008,17.090,30.273,55.176,868.164,0
1510223882.164,72.754,7.324,49.316,42.969,-52.246,0
1510223882.168,43.457,23.438,67.383,6.836,-1000.000,0
1510223882.172,54.688,28.809,51.270,33.203,-83.496,0
1510223882.176,71.289,41.992,18.066,47.852,550.781,0
1510223882.180,7.812,7.812,90.332,-18.555,-795.410,0
1510223882.184,0.977,1.953,58.105,-9.766,-1000.000,0
1510223882.187,42.480,41.504,3.906,32.715,-550.293,0
1510223882.191,36.133,29.785,32.715,33.203,-83.984,0
1510223882.195,23.926,42.480,48.828,0.000,138.184,0
1510223882.199,3.906,41.016,59.082,-15.625,-335.938,0
1510223882.203,16.602,18.555,44.434,6.836,283.203,0
1510223882.207,47.363,35.156,38.574,15.137,377.930,0
1510223882.211,44.922,17.578,62.988,13.672,-1000.000,0
1510223882.215,49.316,6.348,71.289,2.930,-777.832,0
1510223882.219,57.129,19.043,26.855,29.297,217.773,0
1510223882.223,41.992,7.324,10.254,31.738,-427.246,0
1510223882.226,54.688,-0.977,23.926,23.438,-1000.000,0
1510223882.230,40.527,12.695,36.133,4.395,-446.289,0
1510223882.234,20.508,9.766,61.523,-20.020,264.160,0
1510223882.238,73.242,16.113,45.898,29.785,-59.570,0
1510223882.242,91.309,31.738,3.906,65.430,-261.719,0
1510223882.246,65.918,10.254,0.977,37.109,6.348,0
1510223882.250,12.695,0.000,52.734,-24.414,765.137,0
1510223882.254,26.367,0.488,33.691,-2.930,-354.004,0
1510223882.258,47.363,-3.906,7.812,20.508,-1000.000,0
1510223882.262,34.180,-0.488,24.414,-11.230,-206.055,0
1510223882.266,46.387,-0.977,2.441,0.000,-176.270,0
1510223882.269,31.738,7.812,15.625,-6.836,-1000.000,0
1510223882.273,43.945,34.668,12.207,7.812,-1000.000,0
1510223882.277,49.805,30.762,37.109,22.949,-292.480,0
1510223882.281,59.082,18.066,49.805,27.344,-342.285,0
1510223882.285,76.660,9.766,60.547,37.109,-543.457,0
1510223882.289,28.809,13.672,125.000,-9.766,98.145,0
1510223882.293,56.152,30.762,56.152,11.719,774.902,0
1510223882.297,97.168,28.809,15.625,77.148,438.477,0
1510223882.301,62.500,41.992,52.246,45.898,-968.750,0
1510223882.305,46.875,29.785,50.781,26.855,-926.270,0
1510223882.309,43.457,7.324,67.871,20.508,-85.938,0
1510223882.312,45.410,36.133,42.480,19.043,-487.305,0
1510223882.316,18.555,13.184,28.809,13.184,-1000.000,0
1510223882.320,20.508,17.090,43.457,3.906,-549.805,0
1510223882.324,29.297,45.898,43.457,-4.883,-136.230,0
1510223882.328,49.316,22.461,25.391,21.484,-902.344,0
1510223882.332,61.035,13.672,49.805,22.949,-481.934,0
1510223882.336,39.062,19.043,54.688,12.695,636.719,0
1510223882.340,55.664,21.484,16.113,62.012,552.246,0
1510223882.344,54.199,17.090,47.852,41.016,-634.766,0
1510223882.348,41.504,27.832,54.688,10.254,-1000.000,0
1510223882.351,41.016,34.668,21.484,12.207,-125.000,0
1510223882.355,51.270,18.555,31.250,16.113,704.102,0
1510223882.359,62.988,6.836,33.203,34.668,-626.953,0
1510223882.363,49.316,2.441,55.664,15.137,-1000.000,0
1510223882.367,41.992,17.090,33.691,12.695,-240.723,0
1510223882.371,49.805,14.160,22.949,30.762,-296.875,0
1510223882.375,20.508,9.277,84.961,-11.230,-855.469,0
1510223882.379,27.344,28.809,35.645,6.836,-225.586,0
1510223882.383,42.969,37.598,-3.906,25.391,692.871,0
1510223882.387,32.715,21.973,34.180,20.020,392.090,0
1510223882.391,32.715,0.488,48.828,23.438,-1000.000,0
1510223882.394,25.879,13.672,57.617,1.465,-720.703,0
1510223882.398,20.508,17.090,62.500,5.371,-95.215,0
1510223882.402,41.016,20.996,33.691,31.250,-678.711,0
1510223882.406,42.969,21.484,44.434,26.367,-1000.000,3
1510223882.410,30.273,19.531,44.434,19.043,-616.699,0
1510223882.414,21.484,24.902,41.504,8.789,205.078,0
1510223882.418,17.578,9.277,41.504,7.324,-584.961,0
1510223882.422,31.738,3.418,29.785,22.461,-1000.000,0
1510223882.426,34.668,6.836,52.734,18.066,-101.074,0
1510223882.430,42.969,3.906,25.879,43.457,394.043,0
1510223882.434,31.250,18.555,26.855,22.949,-680.664,0
1510223882.437,33.203,20.020,38.574,13.184,-1000.000,0
1510223882.441,45.898,0.000,50.781,21.973,-197.754,0
1510223882.445,39.062,10.254,46.387,13.672,701.660,0
1510223882.449,44.922,18.555,49.805,17.578,-554.688,0
1510223882.453,64.453,12.695,55.664,38.086,-924.316,0
1510223882.457,60.547,-5.859,79.102,22.949,394.043,0
1510223882.461,58.594,48.340,13.672,26.367,615.723,0
1510223882.465,51.270,56.641,1.953,36.133,-754.883,0
1510223882.469,71.289,0.000,46.875,45.898,-1000.000,0
1510223882.473,64.453,28.320,37.598,29.785,-62.500,0
1510223882.476,61.035,35.645,35.645,29.297,48.828,0
1510223882.480,64.453,14.648,51.270,41.016,-946.289,0
1510223882.484,59.082,32.227,45.898,16.113,-1000.000,0
1510223882.488,54.199,36.621,56.152,12.207,236.816,0
1510223882.492,50.781,10.742,86.914,28.320,610.352,0
1510223882.496,62.988,38.574,30.762,35.645,-995.605,0
1510223882.500,39.551,26.367,28.320,2.930,-781.738,0
1510223882.504,43.945,-1.953,54.688,12.695,-99.609,0
1510223882.508,59.082,12.207,40.527,38.574,-750.977,0
1510223882.512,49.805,11.719,44.922,21.484,-1000.000,0
1510223882.516,33.691,9.766,59.082,-0.977,-291.504,0
1510223882.519,17.578,14.160,62.988,-8.301,820.801,0
1510223882.523,42.480,20.020,37.598,33.203,28.320,0
1510223882.527,40.527,22.461,43.945,15.625,-1000.000,0
1510223882.531,32.227,10.254,48.340,10.254,-169.922,0
1510223882.535,20.996,15.625,41.016,18.066,434.570,0
1510223882.539,6.836,23.926,37.109,-17.090,-883.789,0
1510223882.543,16.113,12.207,33.203,-14.160,-1000.000,0
1510223882.547,29.785,-3.906,31.250,19.043,-344.238,0
1510223882.551,30.762,5.859,41.992,5.859,-284.180,0
1510223882.555,37.109,24.902,34.668,10.254,-966.309,0
1510223882.559,29.785,20.020,36.133,12.695,-1000.000,0
1510223882.562,9.766,4.395,49.805,-1.465,-510.254,0
1510223882.566,21.484,4.883,47.363,7.324,164.062,0
1510223882.570,40.527,21.484,29.297,10.254,465.820,0
1510223882.574,39.551,20.996,36.621,6.348,513.672,0
1510223882.578,26.855,8.789,51.270,11.230,825.195,0
1510223882.582,11.719,10.742,38.574,5.371,403.809,0
1510223882.586,14.160,6.836,54.688,1.465,-725.586,0
1510223882.590,9.766,-13.184,73.730,-17.578,-549.316,0
1510223882.594,7.324,9.277,34.668,-27.344,270.996,0
1510223882.598,35.156,26.367,16.602,-1.465,-327.148,0
1510223882.601,31.738,16.602,41.504,1.953,-1000.000,0
1510223882.605,23.438,19.531,40.039,2.441,-448.730,0
1510223882.609,34.180,17.090,28.809,23.926,-8.789,0
1510223882.613,30.273,11.719,24.414,26.855,-226.562,0
1510223882.617,45.410,7.324,22.461,14.648,-122.559,0
1510223882.621,47.363,5.371,26.367,10.254,35.156,0
1510223882.625,31.250,23.438,28.320,15.137,916.016,0
1510223882.629,37.598,9.766,34.180,26.367,-37.598,0
1510223882.633,52.246,9.277,34.668,25.879,-908.203,0
1510223882.637,38.574,20.020,47.852,12.695,172.363,0
1510223882.641,40.039,16.113,45.410,26.855,236.328,0
1510223882.644,50.781,16.602,28.320,35.645,-1000.000,0
1510223882.648,34.668,-0.488,38.086,10.742,-1000.000,0
1510223882.652,30.273,3.906,34.668,0.977,-536.133,0
1510223882.656,38.086,1.953,31.738,16.602,-653.320,0
1510223882.660,21.484,3.418,27.832,12.695,-663.086,0
1510223882.664,27.344,-0.977,32.715,16.602,61.035,0
1510223882.668,29.297,-1.465,38.574,19.531,353.516,0
1510223882.672,13.184,4.883,38.086,15.137,-393.555,0
1510223882.676,23.926,2.441,52.246,12.695,-1000.000,0
1510223882.680,18.555,10.254,43.945,-0.977,-967.773,0
1510223882.684,-2.441,4.883,33.691,-14.160,352.539,0
1510223882.687,-1.953,-6.348,36.133,-18.555,398.926,0
1510223882.691,8.789,-12.207,27.832,-10.742,-709.473,0
1510223882.695,17.578,-15.137,24.414,-11.230,-374.023,0
1510223882.699,8.789,-12.207,24.902,-13.184,289.551,0
1510223882.703,2.930,-0.977,24.414,-10.254,-547.852,0
1510223882.707,23.926,11.230,20.508,0.488,-586.914,0
1510223882.711,26.855,25.879,22.949,1.465,450.684,0
1510223882.715,37.598,20.996,21.484,-6.836,962.402,0
1510223882.719,50.293,7.812,19.531,0.488,-136.719,0
1510223882.723,37.598,20.508,19.531,-0.488,-1000.000,0
1510223882.726,45.898,29.785,25.879,6.836,-197.754,0
1510223882.730,45.898,27.832,32.227,11.230,-96.680,0
1510223882.734,39.062,15.137,31.250,11.230,-1000.000,0
1510223882.738,42.480,17.090,30.762,9.277,-1000.000,0
1510223882.742,44.434,29.297,29.297,10.742,-500.000,0
1510223882.746,53.223,34.668,31.738,12.695,-567.871,0
1510223882.750,54.199,16.113,37.109,12.695,-769.043,0
1510223882.754,41.016,12.207,32.715,16.602,-210.449,0
1510223882.758,46.875,19.531,22.949,18.066,649.414,0
1510223882.762,52.246,12.207,34.180,22.949,484.375,0
1510223882.766,43.457,30.273,37.109,15.625,-893.066,0
1510223882.769,47.363,26.367,35.156,11.230,-1000.000,0
1510223882.773,49.316,14.648,46.387,22.461,52.734,0
1510223882.777,44.434,22.949,44.922,28.809,-229.980,0
1510223882.781,44.434,15.625,41.016,30.273,-1000.000,0
1510223882.785,40.527,14.160,39.551,25.391,-611.816,0
1510223882.789,38.574,9.277,32.227,16.602,-78.125,0
1510223882.793,32.227,1.465,30.273,16.113,-825.195,0
1510223882.797,33.203,10.742,32.227,14.160,-988.770,0
1510223882.801,25.391,7.812,30.273,4.395,59.082,0
1510223882.805,25.391,-3.906,24.414,3.906,812.988,0
1510223882.809,28.320,2.441,27.344,11.719,220.215,0
1510223882.812,29.297,-3.418,34.180,14.160,-647.461,0
1510223882.816,36.133,5.371,22.949,12.207,-139.160,0
1510223882.820,24.902,13.672,11.230,3.418,350.586,0
1510223882.824,24.414,-6.836,17.090,5.371,-907.715,0
1510223882.828,19.531,-11.719,19.043,-9.277,-1000.000,0
1510223882.832,12.207,-3.418,23.926,-15.137,-441.406,0
1510223882.836,25.391,9.277,35.156,3.418,-492.188,0
1510223882.840,32.227,16.113,41.992,7.812,-1000.000,0
1510223882.844,21.973,23.926,47.852,4.883,-1000.000,0
1510223882.848,27.832,28.320,46.875,16.602,-76.660,0
1510223882.851,34.180,27.344,48.828,30.273,522.949,0
1510223882.855,27.344,28.809,53.223,22.949,-598.633,0
1510223882.859,35.156,27.344,56.641,15.137,-1000.000,0
1510223882.863,37.598,24.414,52.246,20.996,2.441,0
1510223882.867,46.387,20.020,49.805,35.156,395.996,0
1510223882.871,42.480,28.809,50.293,35.156,-523.438,0
1510223882.875,32.227,29.297,50.293,20.508,-765.137,0
1510223882.879,50.781,19.043,52.246,29.785,46.387,0
1510223882.883,45.410,16.602,51.270,31.250,-487.305,0
1510223882.887,34.180,16.113,44.434,12.695,-1000.000,0
1510223882.891,41.504,20.508,47.852,17.090,-508.301,0
1510223882.894,43.457,18.555,50.781,19.043,434.082,0
1510223882.898,37.109,14.648,45.410,21.484,232.910,0
1510223882.902,27.832,20.508,53.711,15.137,-674.316,0
1510223882.906,32.715,21.484,59.570,12.207,-200.195,4
1510223882.910,37.598,20.020,55.664,21.973,843.262,0
1510223882.914,22.949,14.648,46.875,5.371,-419.434,0
1510223882.918,19.043,11.719,40.527,-18.066,-1000.000,0
1510223882.922,17.090,19.531,40.527,-11.719,-248.047,0
1510223882.926,17.578,15.137,41.016,-7.324,171.875,0
1510223882.930,17.578,16.113,40.527,-10.254,-335.449,0
1510223882.934,10.742,7.812,41.016,-5.371,-931.152,0
1510223882.937,13.672,4.395,60.059,-8.301,-218.262,0
1510223882.941,6.836,22.461,58.594,-16.602,660.645,0
1510223882.945,14.648,26.367,36.621,-3.906,523.926,0
1510223882.949,38.574,18.555,41.016,4.395,-355.469,0
1510223882.953,39.062,19.531,36.133,-8.301,121.094,0
1510223882.957,33.691,28.809,38.086,-9.277,452.148,0
1510223882.961,42.480,4.395,55.664,-10.254,-1000.000,0
1510223882.965,52.734,9.277,51.270,-0.488,-815.918,0
1510223882.969,39.062,33.203,49.805,10.254,-171.875,0
1510223882.973,57.617,13.672,54.199,37.109,-706.055,0
1510223882.976,57.129,7.324,47.363,46.387,-1000.000,0
1510223882.980,27.832,7.812,41.504,45.898,-525.879,0
1510223882.984,20.020,10.254,39.551,44.922,212.891,0
1510223882.988,21.484,0.000,55.664,17.578,257.324,0
1510223882.992,34.668,-3.906,50.781,16.602,-36.621,0
1510223882.996,46.387,9.277,27.344,31.250,30.762,0
1510223883.000,46.387,6.836,28.809,32.715,872.559,0
1510223883.004,39.062,-2.930,43.945,25.879,-97.656,0
1510223883.008,35.645,4.395,37.109,16.113,-1000.000,0
1510223883.012,29.785,-1.953,35.645,9.277,-7.812,0
1510223883.016,22.461,-12.207,55.664,2.441,332.520,0
1510223883.019,35.645,-3.418,33.691,15.625,-962.402,0
1510223883.023,41.504,-0.488,34.668,17.578,-1000.000,0
1510223883.027,52.734,0.000,40.039,29.785,-492.188,0
1510223883.031,47.363,1.953,13.184,12.207,-607.422,0
1510223883.035,34.180,9.277,21.973,7.812,-570.801,0
1510223883.039,24.414,6.348,61.523,12.207,82.520,0
1510223883.043,24.902,7.812,48.828,4.883,704.590,0
1510223883.047,28.320,11.719,0.977,15.137,710.938,0
1510223883.051,20.996,3.418,28.320,-5.371,-643.555,0
1510223883.055,29.297,9.277,34.668,-8.789,-1000.000,0
1510223883.059,24.414,15.137,59.082,-5.859,112.793,0
1510223883.062,15.625,15.137,61.523,-5.371,-235.840,0
1510223883.066,15.137,32.227,7.324,-0.488,-1000.000,0
1510223883.070,22.461,18.555,28.809,-14.648,-582.520,0
1510223883.074,35.156,9.766,29.297,-4.395,-222.168,0
1510223883.078,21.973,15.137,32.715,-10.742,-912.109,0
1510223883.082,21.484,2.930,42.480,-22.949,-499.512,0
1510223883.086,48.828,15.625,13.672,17.090,418.945,0
1510223883.090,30.762,11.230,51.758,11.719,805.664,0
1510223883.094,24.902,10.742,41.992,12.207,-311.035,0
1510223883.098,41.504,14.160,7.324,34.668,-1000.000,0
1510223883.101,35.645,1.953,21.484,22.461,-183.594,0
1510223883.105,48.828,6.348,1.465,22.949,362.305,0
1510223883.109,50.293,12.207,5.371,23.438,-768.555,0
1510223883.113,33.203,2.441,17.090,8.301,-1000.000,0
1510223883.117,27.344,1.953,27.344,6.348,-106.445,0
1510223883.121,11.230,-9.277,86.914,-21.484,95.215,0
1510223883.125,20.996,-12.695,32.227,-13.184,-979.980,0
1510223883.129,41.016,7.324,-31.250,21.973,-536.621,0
1510223883.133,34.180,5.859,20.508,12.695,674.805,0
1510223883.137,24.414,20.996,27.344,-1.953,435.059,0
1510223883.141,27.832,24.902,18.555,-1.465,-928.223,0
1510223883.144,38.086,15.625,17.578,13.672,-958.984,0
1510223883.148,31.250,17.578,21.484,14.160,-323.242,0
1510223883.152,29.297,10.742,38.086,8.301,-608.887,0
1510223883.156,19.043,16.113,39.062,-19.531,-1000.000,0
1510223883.160,28.320,31.738,28.320,-18.066,-691.406,0
1510223883.164,36.133,23.926,49.316,2.930,408.691,0
1510223883.168,16.602,8.301,61.035,-8.301,-198.242,0
1510223883.172,25.391,24.902,10.254,-11.230,-1000.000,0
1510223883.176,51.758,20.508,11.719,-2.441,-185.547,0
1510223883.180,63.477,8.301,11.719,29.297,-972.168,0
1510223883.184,56.641,15.625,22.461,35.645,-18.066,0
1510223883.187,31.250,21.973,76.660,3.906,-1000.000,0
1510223883.191,39.062,14.648,46.387,7.812,-217.285,0
1510223883.195,57.129,14.648,32.715,4.395,61.523,0
1510223883.199,53.223,24.414,57.129,-2.930,-946.777,0
1510223883.203,53.223,36.621,38.086,15.625,-1000.000,0
1510223883.207,55.176,42.480,30.273,23.438,-49.805,0
1510223883.211,61.523,22.461,27.832,23.438,352.539,0
1510223883.215,58.105,14.160,32.715,22.461,-984.863,0
1510223883.219,68.359,34.180,30.273,32.715,-848.145,0
1510223883.223,60.059,32.715,47.363,16.602,151.855,0
1510223883.226,53.711,20.508,50.293,15.137,499.023,0
1510223883.230,52.246,28.809,37.598,22.949,-428.223,0
1510223883.234,38.086,32.715,54.688,4.395,-1000.000,0
1510223883.238,46.875,22.461,40.527,26.855,258.301,0
1510223883.242,63.965,9.277,66.406,30.273,559.082,0
1510223883.246,46.387,9.277,104.004,-40.039,-1000.000,0
1510223883.250,54.688,29.297,22.461,-1.953,-811.035,0
1510223883.254,63.965,28.320,-3.906,43.457,41.016,0
1510223883.258,55.176,15.625,41.992,31.738,-551.758,0
1510223883.262,53.223,12.207,38.086,40.039,-1000.000,0
1510223883.266,50.781,10.254,35.645,22.461,-533.203,0
1510223883.269,62.012,17.578,34.180,27.832,377.441,0
1510223883.273,59.570,6.348,59.570,30.273,184.570,0
1510223883.277,41.504,5.371,64.941,9.277,-729.980,0
1510223883.281,27.344,19.531,32.227,11.230,-289.551,0
1510223883.285,30.762,10.742,52.246,11.230,904.297,0
1510223883.289,44.922,23.926,29.297,7.812,-281.250,0
1510223883.293,13.184,5.859,55.176,-26.855,-1000.000,0
1510223883.297,3.418,4.395,84.473,-27.344,-32.227,0
1510223883.301,23.926,20.020,21.484,-2.441,376.465,0
1510223883.305,-2.930,18.066,33.691,-39.062,-931.641,0
1510223883.309,19.043,17.578,29.785,-16.113,-1000.000,0
1510223883.312,35.156,2.930,41.992,8.789,-550.781,0
1510223883.316,31.250,17.090,36.133,6.348,50.293,0
1510223883.320,40.039,21.484,13.672,12.695,372.070,0
1510223883.324,41.504,18.066,19.043,11.719,-493.652,0
1510223883.328,34.180,18.555,28.320,0.488,68.848,0
1510223883.332,41.992,18.066,38.574,13.184,455.566,0
1510223883.336,56.641,21.973,39.062,24.902,-1000.000,0
1510223883.340,51.270,16.602,32.715,15.625,-707.520,0
1510223883.344,48.340,10.742,38.574,19.043,-75.195,0
1510223883.348,42.480,20.020,29.785,23.438,-710.449,0
1510223883.351,41.016,27.832,25.879,29.297,-1000.000,0
1510223883.355,48.340,10.742,61.523,30.273,-499.023,0
1510223883.359,68.359,22.949,47.363,47.363,277.344,0
1510223883.363,48.828,15.625,84.961,20.996,98.145,0
1510223883.367,21.973,7.812,94.727,-27.344,-280.762,0
1510223883.371,56.641,21.973,34.668,-3.418,-136.230,0
1510223883.375,77.637,15.137,32.715,33.203,802.734,0
1510223883.379,82.520,22.461,16.602,66.406,-265.625,0
1510223883.383,61.523,22.461,41.016,42.969,-1000.000,0
1510223883.387,56.641,25.391,45.410,21.484,-210.938,0
1510223883.391,47.852,18.555,58.105,11.719,-114.258,0
1510223883.394,37.598,12.695,62.012,4.883,-1000.000,0
1510223883.398,45.410,14.160,22.949,7.324,-871.582,0
1510223883.402,45.410,30.273,6.348,8.301,263.672,0
1510223883.406,21.973,39.062,37.109,-9.766,-59.082,5
1510223883.410,27.832,16.602,45.898,4.395,-457.031,0
1510223883.414,35.645,8.789,37.598,16.602,-167.969,0
1510223883.418,29.297,10.742,35.645,6.836,409.180,0
1510223883.422,35.156,13.184,47.852,3.906,399.414,0
1510223883.426,23.438,30.762,39.551,5.859,-1000.000,0
1510223883.430,17.578,31.250,28.320,2.441,-746.582,0
1510223883.434,19.043,19.531,47.363,-5.859,-71.777,0
1510223883.437,19.043,16.602,52.734,0.977,-625.488,0
1510223883.441,21.973,22.949,50.781,5.859,-1000.000,0
1510223883.445,40.527,36.133,37.598,20.020,-611.328,0
1510223883.449,51.758,28.320,28.809,21.484,-182.617,0
1510223883.453,44.434,14.648,45.898,14.648,-843.750,0
1510223883.457,27.832,31.250,36.133,22.461,-490.723,0
1510223883.461,36.621,24.902,44.922,26.367,402.344,0
1510223883.465,51.270,23.926,47.852,34.668,924.316,0
1510223883.469,50.293,21.973,43.457,28.320,-119.141,0
1510223883.473,53.223,16.113,49.316,20.508,-1000.000,0
1510223883.476,45.898,19.531,46.875,18.066,-106.445,0
1510223883.480,50.293,14.160,38.574,24.902,393.555,0
1510223883.484,63.965,11.230,37.598,35.645,-915.527,0
1510223883.488,51.270,17.090,40.527,30.273,-1000.000,0
1510223883.492,36.621,23.926,41.992,23.926,-426.270,0
1510223883.496,57.617,15.137,41.504,29.297,-354.980,0
1510223883.500,58.594,2.441,55.664,25.391,-953.613,0
1510223883.504,46.387,8.301,55.176,23.926,-547.363,0
1510223883.508,47.852,9.766,47.363,13.184,653.809,0
1510223883.512,34.180,20.020,45.410,16.602,492.676,0
1510223883.516,23.926,19.043,40.527,12.695,-874.512,0
1510223883.519,39.062,15.137,33.691,5.859,-628.906,0
1510223883.523,51.758,15.137,33.203,31.250,494.141,0
1510223883.527,58.105,5.371,45.898,30.273,-104.004,0
1510223883.531,50.781,0.000,50.293,0.977,-1000.000,0
1510223883.535,33.203,14.160,36.133,-16.602,-616.699,0
1510223883.539,17.090,19.043,27.832,-8.789,170.410,0
1510223883.543,26.855,10.742,39.062,5.859,-621.094,0
1510223883.547,30.762,7.324,35.645,20.020,-1000.000,0
1510223883.551,27.832,7.812,27.344,3.418,-231.934,0
1510223883.555,34.180,16.113,36.133,-2.930,932.129,0
1510223883.559,25.879,15.625,45.410,6.348,-156.738,0
1510223883.562,24.414,17.090,51.270,1.465,-1000.000,0
1510223883.566,27.344,26.855,49.805,5.859,-247.070,0
1510223883.570,36.621,30.273,47.852,14.160,-58.594,0
1510223883.574,49.805,27.344,46.875,13.184,-1000.000,0
1510223883.578,47.852,27.344,45.898,1.953,-911.133,0
1510223883.582,35.645,23.926,44.922,-0.977,60.547,0
1510223883.586,27.832,16.113,44.434,9.766,41.504,0
1510223883.590,27.832,16.602,50.293,-2.441,-1000.000,0
1510223883.594,31.250,17.090,53.711,-1.953,-1000.000,0
1510223883.598,43.945,14.160,53.711,17.578,213.867,0
1510223883.601,54.199,19.531,50.293,30.762,422.363,0
1510223883.605,53.223,12.695,52.246,29.785,-992.676,0
1510223883.609,50.781,20.508,51.270,15.137,-992.188,0
1510223883.613,57.129,20.508,52.246,14.160,-236.816,0
1510223883.617,52.246,9.277,59.570,24.414,-417.969,0
1510223883.621,58.594,17.578,62.012,30.273,-1000.000,0
1510223883.625,64.941,30.273,55.664,29.785,-745.605,0
1510223883.629,56.641,34.180,57.617,32.715,-165.039,0
1510223883.633,57.129,29.785,58.105,38.574,-588.379,0
1510223883.637,50.293,20.996,51.270,34.668,-654.297,0
1510223883.641,49.805,15.137,46.875,19.531,-9.766,0
1510223883.644,53.223,19.531,51.758,19.043,792.480,0
1510223883.648,39.062,14.648,52.246,17.090,234.375,0
1510223883.652,35.645,18.066,49.805,13.672,-998.535,0
1510223883.656,46.387,31.250,49.805,19.043,-191.406,0
1510223883.660,46.875,25.391,50.293,26.855,504.395,0
1510223883.664,45.410,23.438,50.781,34.668,-744.629,0
1510223883.668,59.570,28.809,55.664,24.902,-1000.000,0
1510223883.672,65.430,33.203,62.988,26.855,-180.664,0
1510223883.676,66.895,39.062,64.453,41.992,22.461,0
1510223883.680,68.848,43.945,64.453,34.180,-930.176,0
1510223883.684,70.801,36.133,67.871,23.926,-1000.000,0
1510223883.687,60.059,25.391,68.848,34.180,-457.031,0
1510223883.691,47.852,21.973,58.594,35.156,321.289,0
1510223883.695,58.105,22.949,55.664,32.715,402.344,0
1510223883.699,65.918,25.879,57.617,38.086,356.934,0
1510223883.703,50.781,19.531,42.969,25.391,834.473,0
1510223883.707,41.016,10.254,42.969,22.461,489.746,0
1510223883.711,29.297,16.602,47.852,21.484,-896.973,0
1510223883.715,29.297,16.113,43.457,11.719,-933.105,0
1510223883.719,41.504,12.207,38.086,9.277,168.457,0
1510223883.723,38.086,14.648,38.574,8.301,-274.414,0
1510223883.726,33.691,4.883,46.387,7.812,-1000.000,0
1510223883.730,29.785,6.348,43.457,9.277,-509.277,0
1510223883.734,24.902,12.207,35.645,12.695,-12.207,0
1510223883.738,13.672,3.418,40.527,5.859,-93.262,0
1510223883.742,0.488,3.906,39.551,-20.020,-375.488,0
1510223883.746,2.930,13.184,21.484,-29.297,-204.102,0
1510223883.750,10.254,27.832,29.785,-9.277,727.539,0
1510223883.754,22.949,17.578,47.852,9.277,208.496,0
1510223883.758,28.809,1.465,48.340,13.184,-557.129,0
1510223883.762,32.227,13.184,41.016,10.742,-59.082,0
1510223883.766,34.180,21.484,43.457,12.207,325.195,0
1510223883.769,23.926,10.742,36.621,11.230,-939.453,0
1510223883.773,37.598,2.930,33.691,13.184,-1000.000,0
1510223883.777,41.504,5.859,40.039,13.184,-508.789,0
1510223883.781,45.410,10.742,42.480,13.672,-612.793,0
1510223883.785,53.223,15.625,41.016,6.836,-595.215,0
1510223883.789,55.664,19.531,48.340,21.973,36.133,0
1510223883.793,45.410,13.672,45.898,22.461,741.211,0
1510223883.797,36.133,21.484,37.109,9.277,364.746,0
1510223883.801,44.922,20.996,48.828,19.043,-998.047,0
1510223883.805,53.711,15.625,48.828,21.484,-925.781,0
1510223883.809,53.223,28.809,44.922,16.602,-285.156,0
1510223883.812,47.852,27.344,42.969,18.066,-512.207,0
1510223883.816,37.109,20.996,37.109,20.508,-967.773,0
1510223883.820,46.387,26.367,40.527,29.297,-576.172,0
1510223883.824,48.340,36.133,41.016,28.809,127.441,0
1510223883.828,39.551,24.414,46.875,4.883,-626.953,0
1510223883.832,53.223,19.531,47.363,12.695,-481.934,0
1510223883.836,48.828,20.508,47.363,20.508,462.402,0
1510223883.840,27.832,15.137,55.664,13.184,812.012,0
1510223883.844,31.738,11.719,52.734,14.160,-296.875,0
1510223883.848,40.527,14.648,29.785,15.625,-1000.000,0
1510223883.851,27.832,14.648,43.457,20.508,-185.059,0
1510223883.855,23.926,15.625,51.270,19.043,-61.523,0
1510223883.859,38.574,23.438,41.504,16.602,-1000.000,0
1510223883.863,43.457,20.996,51.758,26.855,-1000.000,0
1510223883.867,40.039,16.113,56.152,36.133,-421.875,0
1510223883.871,45.410,23.926,45.410,24.414,-282.227,0
1510223883.875,47.363,22.949,53.711,14.160,-578.613,0
1510223883.879,37.109,21.484,43.945,12.207,-208.008,0
1510223883.883,28.809,20.508,34.668,2.441,653.809,0
1510223883.887,21.973,23.438,44.434,14.160,577.148,0
1510223883.891,31.250,20.020,25.391,26.367,-753.906,0
1510223883.894,26.367,4.395,44.922,6.836,-1000.000,0
1510223883.898,20.508,16.602,44.434,12.695,60.547,0
1510223883.902,37.598,20.020,17.578,28.320,-155.762,0
1510223883.906,36.133,6.836,26.855,14.648,-1000.000,0
1510223883.910,38.574,12.207,44.434,15.137,-599.121,0
1510223883.914,45.898,11.230,53.223,14.648,-2.930,0
1510223883.918,41.992,16.602,46.387,8.301,-760.254,0
1510223883.922,38.086,18.555,47.852,7.324,-1000.000,0
1510223883.926,33.203,12.207,51.758,13.184,-174.316,0
1510223883.930,32.715,16.602,49.805,29.297,878.906,0
1510223883.934,22.461,16.113,55.664,20.020,222.656,0
1510223883.937,20.508,14.648,50.781,1.953,-983.398,0
1510223883.941,24.902,20.996,40.527,1.953,-274.902,0
1510223883.945,29.785,24.414,45.410,11.230,625.000,0
1510223883.949,40.527,24.414,49.316,20.996,-655.762,0
1510223883.953,36.133,20.020,52.734,15.625,-1000.000,0
1510223883.957,36.133,19.531,52.734,14.160,-437.012,0
1510223883.961,40.527,28.320,46.875,23.438,-482.910,0
1510223883.965,29.297,25.879,47.852,21.973,-1000.000,0
1510223883.969,28.320,17.578,49.316,16.113,-1000.000,0
1510223883.973,38.574,17.578,47.852,24.902,-191.895,0
1510223883.976,52.246,17.578,44.434,30.762,413.086,0
1510223883.980,54.688,16.602,37.598,32.227,-499.023,0
1510223883.984,47.852,20.020,35.156,30.273,-1000.000,0
1510223883.988,40.527,15.625,41.016,20.020,211.914,0
1510223883.992,40.527,11.230,39.062,26.855,754.883,0
1510223883.996,46.387,15.625,37.109,34.180,-764.160,0
1510223884.000,52.734,21.484,42.480,32.715,-871.094,0
1510223884.004,48.340,19.531,44.434,28.320,72.266,0
1510223884.008,41.016,17.578,44.434,29.785,-390.137,0
1510223884.012,31.250,27.344,42.480,26.855,-1000.000,0
1510223884.016,35.156,23.926,51.758,31.250,-553.223,0
1510223884.019,38.086,10.742,55.176,24.902,418.945,0
1510223884.023,31.738,10.254,47.363,19.531,280.273,0
1510223884.027,43.945,18.555,49.805,36.621,-601.074,0
1510223884.031,58.594,21.973,65.430,25.879,-180.176,0
1510223884.035,72.266,10.742,63.965,21.484,851.074,0
1510223884.039,58.105,21.484,48.340,38.574,-355.469,0
1510223884.043,38.086,21.973,56.641,40.039,-1000.000,0
1510223884.047,47.852,18.555,53.711,38.086,-222.656,0
1510223884.051,41.504,26.367,52.246,38.574,382.812,0
1510223884.055,35.645,20.508,57.129,34.668,-586.426,0
1510223884.059,37.109,28.809,69.336,19.043,-1000.000,0
1510223884.062,49.805,33.203,62.988,20.508,-218.750,0
1510223884.066,66.895,29.785,47.852,39.551,582.031,0
1510223884.070,62.500,32.227,54.199,40.039,347.656,0
1510223884.074,53.711,38.086,53.223,35.645,-141.602,0
1510223884.078,50.781,33.203,54.199,28.809,-178.223,0
1510223884.082,58.594,30.762,63.965,33.203,-416.016,0
1510223884.086,62.988,38.574,62.988,41.016,-1000.000,0
1510223884.090,55.176,35.156,49.805,37.109,-942.871,0
1510223884.094,47.363,36.621,46.387,37.109,471.680,0
1510223884.098,49.805,30.273,46.387,33.691,437.988,0
1510223884.101,35.645,28.809,42.969,13.672,-1000.000,0
1510223884.105,28.809,32.227,38.574,-0.977,-604.004,0
1510223884.109,48.340,20.508,41.504,16.602,524.414,0
1510223884.113,52.246,10.742,34.668,24.414,317.383,0
1510223884.117,59.570,19.043,29.785,32.227,-157.227,0
1510223884.121,61.035,29.785,35.645,32.227,219.238,0
1510223884.125,49.316,17.578,40.527,36.621,932.617,0
1510223884.129,39.551,15.137,42.969,33.691,-148.438,0
1510223884.133,44.922,23.438,42.480,30.273,-1000.000,0
1510223884.137,55.664,20.508,46.875,42.480,-149.414,0
1510223884.141,59.570,22.461,48.340,38.574,789.551,0
1510223884.144,56.641,31.250,41.016,24.902,-523.926,0
1510223884.148,53.711,34.668,46.875,18.555,-1000.000,0
1510223884.152,59.570,40.527,49.316,30.273,-108.887,0
1510223884.156,47.363,32.715,39.062,15.625,-159.668,0
1510223884.160,48.340,27.344,49.805,9.277,-593.750,0
1510223884.164,57.129,26.367,56.641,23.926,-489.746,0
1510223884.168,36.133,28.320,42.480,8.301,177.246,0
1510223884.172,32.227,18.066,42.480,4.883,460.938,0
1510223884.176,57.129,10.742,61.035,24.902,-983.887,0
1510223884.180,75.195,18.555,50.781,43.945,-1000.000,0
1510223884.184,62.012,9.277,29.785,23.926,54.688,0
1510223884.187,38.574,-8.789,25.391,0.488,-239.258,0
1510223884.191,31.250,-19.531,19.043,-13.184,-1000.000,0
1510223884.195,40.039,-22.949,29.297,-8.301,-634.766,0
1510223884.199,36.621,-13.672,39.062,16.602,-314.941,0
1510223884.203,30.273,-3.418,37.109,26.367,-919.922,0
1510223884.207,48.828,1.465,38.086,30.762,-575.684,0
1510223884.211,55.176,0.488,27.344,12.695,278.809,0
1510223884.215,37.598,-3.418,26.367,12.695,800.781,0
1510223884.219,20.020,-1.465,32.715,10.742,-276.367,0
1510223884.223,8.301,8.301,24.902,-3.418,-1000.000,0
1510223884.226,19.531,14.648,18.066,-12.207,-162.598,0
1510223884.230,28.809,5.859,32.227,-7.812,206.543,0
1510223884.234,21.973,-7.812,31.250,-0.977,-910.156,0
1510223884.238,10.742,1.465,21.484,-13.672,-1000.000,0
1510223884.242,0.488,15.625,37.598,-24.902,-106.445,0
1510223884.246,11.719,16.113,37.598,-25.879,118.652,0
1510223884.250,8.789,9.277,19.531,-23.926,-1000.000,0
1510223884.254,0.000,-5.859,10.254,-28.320,-558.105,0
1510223884.258,-5.859,-3.418,7.324,-38.574,644.043,0
1510223884.262,-7.324,0.000,-1.465,-19.043,493.652,0
1510223884.266,-4.883,-9.766,21.484,-7.812,-848.145,0
1510223884.269,-17.090,-14.160,23.926,-35.645,-997.070,0
1510223884.273,-10.254,7.324,10.254,-42.969,-269.531,0
1510223884.277,22.461,21.484,46.387,-24.414,-518.555,0
1510223884.281,38.086,34.180,41.992,4.883,-1000.000,0
1510223884.285,31.250,38.574,49.805,11.719,-725.098,0
1510223884.289,35.645,29.785,63.965,19.043,170.410,0
1510223884.293,38.574,23.438,51.270,24.902,-424.805,0
1510223884.297,63.477,21.973,28.809,39.551,-1000.000,0
1510223884.301,76.660,32.715,41.016,44.922,-183.594,0
1510223884.305,66.895,36.133,53.223,28.809,-963.379,0
1510223884.309,59.570,24.902,37.109,30.273,13.184,0
1510223884.312,62.500,20.020,32.715,33.691,-1000.000,0
1510223884.316,83.008,28.809,44.922,41.504,-210.449,0
1510223884.320,82.031,27.344,54.688,46.875,461.914,0
1510223884.324,77.637,24.414,55.664,45.898,-793.457,0
1510223884.328,75.684,43.457,56.152,41.016,-1000.000,0
1510223884.332,74.707,40.527,64.453,43.457,-437.988,0
1510223884.336,78.125,26.855,66.895,47.852,-470.703,0
1510223884.340,61.523,23.438,77.637,25.391,-1000.000,0
1510223884.344,42.969,26.367,73.730,14.160,-1000.000,0
1510223884.348,58.105,34.180,39.062,27.344,-194.824,0
1510223884.351,74.707,33.203,34.668,38.574,544.434,0
1510223884.355,63.477,25.391,54.199,40.039,-42.480,0
1510223884.359,47.852,23.438,55.664,30.762,-895.020,0
1510223884.363,59.082,24.414,53.223,42.480,254.395,0
1510223884.367,59.570,23.438,54.688,43.945,560.059,0
1510223884.371,32.227,24.414,53.223,25.391,-1000.000,0
1510223884.375,34.668,16.113,45.898,23.438,-862.793,0
1510223884.379,39.062,12.207,44.922,9.766,32.227,0
1510223884.383,16.602,16.113,44.434,-10.742,-415.039,0
1510223884.387,14.160,18.555,40.039,-5.371,-1000.000,0
1510223884.391,3.418,21.484,52.246,-14.648,-578.613,0
1510223884.394,11.230,15.625,40.039,-14.160,375.977,0
1510223884.398,29.297,11.719,37.598,2.441,228.516,0
1510223884.402,-12.695,19.531,84.961,-33.691,-584.961,0
1510223884.406,10.254,12.695,41.504,-21.484,4.395,0
1510223884.410,54.688,7.812,13.672,32.715,232.910,0
1510223884.414,53.223,29.297,38.086,34.668,-874.023,0
1510223884.418,49.316,30.762,38.086,21.484,-1000.000,0
1510223884.422,41.504,12.695,35.156,21.973,-121.582,0
1510223884.426,37.109,10.742,31.738,27.344,800.293,0
1510223884.430,41.504,9.766,38.574,24.414,-472.168,0
1510223884.434,43.457,11.719,40.527,31.250,-1000.000,0
1510223884.437,39.551,25.391,44.922,29.297,-90.820,0
1510223884.441,55.176,22.461,47.363,32.227,829.590,0
1510223884.445,56.641,11.719,45.410,33.203,254.883,0
1510223884.449,44.434,15.137,43.945,23.438,-778.809,0
1510223884.453,43.945,17.578,51.270,28.320,40.039,0
1510223884.457,42.480,17.090,45.898,41.504,457.031,0
1510223884.461,37.109,23.438,40.039,41.992,-1000.000,0
1510223884.465,39.551,29.297,48.828,29.297,-715.820,0
1510223884.469,42.480,31.250,50.781,28.320,-131.836,0
1510223884.473,49.316,32.227,45.410,40.527,-722.168,0
1510223884.476,58.594,26.855,45.898,36.133,-1000.000,0
1510223884.480,55.176,20.020,42.969,32.227,-597.168,0
1510223884.484,53.223,24.414,41.992,30.273,409.180,0
1510223884.488,55.176,31.738,51.758,33.203,303.711,0
1510223884.492,48.340,29.297,46.387,23.926,-515.625,0
1510223884.496,36.133,33.691,34.180,5.371,-336.914,0
1510223884.500,36.133,43.945,42.480,7.324,820.312,0
1510223884.504,32.227,30.273,48.828,-1.465,-258.301,0
1510223884.508,33.203,16.602,36.133,-8.301,-1000.000,0
1510223884.512,30.273,21.973,41.504,-12.695,-215.820,0
1510223884.516,31.738,36.621,39.062,-7.324,-104.980,0
1510223884.519,51.270,32.715,29.297,11.719,-1000.000,0
1510223884.523,39.062,21.973,41.016,13.672,-794.434,0
1510223884.527,38.574,18.066,41.016,10.254,295.898,0
1510223884.531,50.293,20.508,33.203,20.020,-86.914,0
1510223884.535,34.180,27.344,49.316,20.508,-420.410,0
1510223884.539,43.457,12.695,59.082,22.949,-287.109,0
1510223884.543,40.527,14.160,55.664,20.508,252.930,0
1510223884.547,32.715,19.531,58.594,24.414,429.688,0
1510223884.551,48.828,3.418,65.430,31.250,-996.582,0
1510223884.555,35.645,7.324,71.289,14.160,-953.125,0
1510223884.559,31.738,13.184,67.383,28.320,-260.254,0
1510223884.562,55.176,14.648,49.805,40.527,-577.148,0
1510223884.566,55.664,13.672,54.688,20.508,-1000.000,0
1510223884.570,45.898,15.625,58.594,23.438,-639.648,0
1510223884.574,43.457,9.766,49.805,40.527,-185.059,0
1510223884.578,38.086,14.648,45.898,29.297,-807.129,0
1510223884.582,44.922,28.320,47.852,26.367,-386.719,0
1510223884.586,50.293,27.344,52.734,41.992,528.809,0
1510223884.590,44.922,33.691,56.641,40.039,934.570,0
1510223884.594,68.848,33.203,34.668,47.852,-94.727,0
1510223884.598,92.773,28.320,35.645,53.223,-1000.000,0
1510223884.601,76.172,21.973,65.918,40.527,-120.605,0
1510223884.605,65.430,44.922,43.945,37.598,406.250,0
1510223884.609,61.523,40.039,39.551,37.109,-901.855,0
1510223884.613,50.781,18.555,48.340,29.297,-1000.000,0
1510223884.617,51.270,23.926,40.527,38.086,-368.164,0
1510223884.621,41.504,16.113,55.664,24.902,-330.566,0
1510223884.625,45.410,15.625,56.152,13.184,-1000.000,0
1510223884.629,68.359,16.602,40.527,39.551,-521.973,0
1510223884.633,60.059,18.066,44.434,32.227,675.781,0
1510223884.637,40.039,17.578,38.086,19.043,442.871,0
1510223884.641,27.832,0.000,34.180,5.859,-541.992,0
1510223884.644,20.996,8.789,38.086,-13.672,-478.027,0
1510223884.648,9.766,1.953,39.551,-23.926,154.297,0
1510223884.652,28.320,-14.160,39.551,-6.348,-183.594,0
1510223884.656,31.250,14.160,39.551,11.230,-1000.000,0
1510223884.660,28.320,22.949,51.270,9.766,-717.285,0
1510223884.664,37.109,17.090,50.293,8.789,-281.738,0
1510223884.668,31.738,30.273,51.270,3.906,-804.199,0
1510223884.672,43.457,18.066,47.363,15.625,-1000.000,0
1510223884.676,36.133,14.648,33.691,11.230,-218.750,0
1510223884.680,29.297,14.648,29.785,16.113,-939.453,0
1510223884.684,36.133,4.883,44.922,23.438,59.082,0
1510223884.687,19.531,21.973,47.363,6.836,-1000.000,0
1510223884.691,25.879,29.785,37.109,7.812,-280.762,0
1510223884.695,34.668,12.207,44.922,28.809,119.629,0
1510223884.699,36.133,16.113,50.781,45.410,-498.535,0
1510223884.703,26.367,15.137,49.805,20.508,-626.953,0
1510223884.707,14.160,2.441,45.898,0.488,-75.684,0
1510223884.711,38.086,2.441,32.715,38.574,62.012,0
1510223884.715,22.949,10.742,52.246,5.371,-993.164,0
1510223884.719,8.301,13.672,53.223,-12.207,-1000.000,0
1510223884.723,38.574,13.672,27.832,27.344,-197.266,0
1510223884.726,52.246,15.137,22.461,36.621,368.652,0
1510223884.730,34.180,18.066,30.273,38.574,-557.129,0
1510223884.734,30.273,24.414,41.016,34.180,-1000.000,0
1510223884.738,49.316,26.367,53.711,27.832,230.469,0
1510223884.742,51.758,20.996,56.641,23.926,536.133,0
1510223884.746,52.246,19.043,42.969,31.250,-1000.000,0
1510223884.750,59.082,19.043,30.273,31.250,-839.355,0
1510223884.754,30.273,10.742,35.156,23.926,-126.465,0
1510223884.758,20.508,15.625,37.109,11.230,-556.641,0
1510223884.762,46.387,16.113,27.832,14.648,-857.422,0
1510223884.766,40.039,6.348,31.738,8.301,-438.965,0
1510223884.769,24.902,5.859,49.316,-18.066,644.531,0
1510223884.773,26.855,15.625,37.598,-15.625,188.477,0
1510223884.777,25.391,13.184,20.508,-8.789,-1000.000,0
1510223884.781,30.273,16.602,24.414,-2.441,-272.461,0
1510223884.785,28.809,22.461,22.949,2.441,453.125,0
1510223884.789,16.602,-0.977,31.738,-1.953,-783.691,0
1510223884.793,19.043,0.488,47.852,-1.465,-1000.000,0
1510223884.797,20.508,10.254,46.875,3.906,-279.297,0
1510223884.801,15.137,11.230,56.641,-13.672,-199.219,0
1510223884.805,18.555,9.277,63.477,-8.301,-991.211,0
1510223884.809,19.531,-0.488,58.105,7.812,-1000.000,0
1510223884.812,26.367,2.441,39.062,0.977,-445.801,0
1510223884.816,13.184,10.254,54.199,-5.859,359.863,0
1510223884.820,23.926,3.906,76.660,15.137,250.488,0
1510223884.824,42.480,13.672,55.664,27.344,95.703,0
1510223884.828,49.316,24.902,59.570,26.367,703.125,0
1510223884.832,57.617,25.391,52.734,37.598,533.691,0
1510223884.836,70.801,23.926,44.434,42.480,-819.824,0
1510223884.840,62.500,20.020,50.293,30.762,-976.074,0
1510223884.844,41.504,34.180,31.250,22.949,121.582,0
1510223884.848,44.434,19.531,45.410,21.484,-235.840,0
1510223884.851,56.152,15.625,40.527,22.949,-1000.000,0
1510223884.855,68.848,26.855,21.973,22.949,-512.207,0
1510223884.859,59.082,29.297,14.160,19.531,-16.113,0
1510223884.863,69.336,37.598,-14.160,43.945,-116.211,0
1510223884.867,80.566,38.574,10.742,54.199,-357.422,0
1510223884.871,68.359,40.527,22.461,41.504,-252.441,0
1510223884.875,73.242,6.836,29.297,23.438,777.344,0
1510223884.879,64.453,-2.930,16.602,22.949,157.227,0
1510223884.883,48.828,15.137,10.742,20.020,-732.910,0
1510223884.887,27.344,0.488,59.082,-1.465,-159.180,0
1510223884.891,28.320,9.766,60.059,-2.441,-0.488,0
1510223884.894,55.176,24.414,9.277,36.621,-972.656,0
1510223884.898,33.203,-5.859,32.715,9.766,-1000.000,0
1510223884.902,26.855,-3.418,43.945,10.254,-86.426,0
1510223884.906,36.621,10.742,27.344,32.715,503.906,0
1510223884.910,17.090,16.602,32.227,-8.789,-229.004,0
1510223884.914,-1.953,26.367,32.227,-33.203,15.625,0
1510223884.918,2.930,13.184,50.293,-19.531,813.477,0
1510223884.922,-8.301,1.953,47.852,-21.484,364.258,0
1510223884.926,-2.441,8.789,25.879,-23.438,-1000.000,0
1510223884.930,7.812,5.859,34.668,-8.789,-915.527,0
1510223884.934,15.137,5.371,42.480,1.465,-347.168,0
1510223884.937,36.133,13.184,40.039,11.719,-275.879,0
1510223884.941,33.203,12.207,43.945,7.812,-680.176,0
1510223884.945,23.438,17.578,49.316,8.301,-659.668,0
1510223884.949,17.090,7.324,28.320,10.742,73.730,0
1510223884.953,24.902,-12.207,52.734,4.883,-642.090,0
1510223884.957,42.480,20.996,71.289,-2.441,-600.586,0
1510223884.961,35.645,28.809,72.754,-10.742,373.535,0
1510223884.965,60.547,14.160,49.805,25.879,809.082,0
1510223884.969,77.637,31.738,9.277,47.852,-284.180,0
1510223884.973,62.500,16.602,19.043,16.602,-1000.000,0
1510223884.976,46.875,16.602,7.324,-10.742,-239.746,0
1510223884.980,45.898,11.719,5.859,-0.488,-107.910,0
1510223884.984,63.965,-10.254,-5.859,20.020,-1000.000,0
1510223884.988,45.898,-20.020,16.113,-11.230,-1000.000,0
1510223884.992,41.504,-3.906,18.555,-8.301,-421.875,0
1510223884.996,79.590,9.277,25.879,47.363,-29.785,0
1510223885.000,100.098,28.809,67.383,48.828,-686.035,0
1510223885.004,72.266,59.082,76.172,18.066,-488.281,0
1510223885.008,57.129,43.457,56.641,17.578,667.969,0
1510223885.012,82.031,18.555,47.852,37.598,568.848,0
1510223885.016,79.102,13.184,48.340,50.293,-752.930,0
1510223885.019,67.383,23.438,28.320,43.945,-1000.000,0
1510223885.023,71.289,20.020,26.855,41.016,40.039,0
1510223885.027,65.918,24.902,39.551,35.156,-156.250,0
1510223885.031,66.406,41.992,44.434,31.738,-1000.000,0
1510223885.035,75.684,42.480,41.504,39.551,-722.168,0
1510223885.039,76.172,34.180,37.598,40.527,-279.297,0
1510223885.043,53.711,27.344,39.062,34.668,-802.246,0
1510223885.047,60.059,22.949,47.363,49.805,-1000.000,0
1510223885.051,41.016,31.250,56.152,40.039,-175.293,0
1510223885.055,21.484,27.344,66.895,20.508,-983.887,0
1510223885.059,37.109,29.297,42.969,21.973,-27.832,0
1510223885.062,36.621,38.086,19.531,11.230,-1000.000,0
1510223885.066,38.574,28.320,37.598,11.230,-221.680,0
1510223885.070,41.992,13.672,50.293,18.555,476.074,0
1510223885.074,42.969,22.949,43.945,0.977,-773.438,0
1510223885.078,32.227,35.156,41.992,0.488,-1000.000,0
1510223885.082,12.695,29.297,67.383,-0.488,-402.344,0
1510223885.086,23.926,41.504,68.359,-0.977,-421.875,0
1510223885.090,36.621,38.574,63.965,13.184,-1000.000,0
1510223885.094,45.898,25.391,54.199,26.367,-1000.000,0
1510223885.098,55.664,41.504,37.109,25.391,119.141,0
1510223885.101,62.012,64.453,31.250,35.645,458.984,0
1510223885.105,67.871,45.410,35.156,40.039,-889.160,0
1510223885.109,57.129,31.738,51.758,32.715,-1000.000,0
1510223885.113,58.594,34.180,60.059,45.898,-7.324,0
1510223885.117,59.082,37.109,43.945,54.688,528.320,0
1510223885.121,37.598,33.691,60.059,42.969,-695.312,0
1510223885.125,40.039,39.062,47.852,41.992,-905.762,0
1510223885.129,57.129,40.039,20.996,59.570,76.660,0
1510223885.133,35.156,27.832,57.617,40.039,-239.258,0
1510223885.137,39.551,24.414,80.078,26.855,-1000.000,0
1510223885.141,57.617,30.762,54.688,38.086,-596.680,0
1510223885.144,49.805,24.902,57.617,34.180,397.461,0
1510223885.148,76.172,18.555,56.641,59.082,382.324,0
1510223885.152,79.590,22.461,31.250,63.477,-457.031,0
1510223885.156,47.852,22.461,62.012,21.484,-202.148,0
1510223885.160,54.688,25.391,48.828,22.461,850.098,0
1510223885.164,46.875,3.906,53.711,22.949,-278.809,0
1510223885.168,66.895,2.930,47.363,46.875,-1000.000,0
1510223885.172,76.660,28.320,15.137,71.289,-169.434,0
1510223885.176,59.082,25.391,44.922,58.594,419.434,0
1510223885.180,65.430,18.555,59.082,60.059,-653.809,0
1510223885.184,57.129,21.484,51.270,48.828,-1000.000,0
1510223885.187,47.363,3.906,68.848,26.855,-106.445,0
1510223885.191,67.383,0.000,44.922,41.504,904.297,0
1510223885.195,67.383,17.578,41.992,25.391,129.395,0
1510223885.199,56.152,28.809,57.129,6.836,-903.320,0
1510223885.203,71.777,35.645,11.719,59.082,47.363,0
1510223885.207,65.918,11.719,43.945,68.359,516.113,0
1510223885.211,70.312,4.883,58.594,55.664,-974.121,0
1510223885.215,60.059,16.113,67.383,26.855,-924.316,0
1510223885.219,56.152,29.785,54.199,33.203,-271.484,0
1510223885.223,75.195,18.555,19.531,63.477,-638.672,0
1510223885.226,70.801,13.184,27.832,48.828,-1000.000,0
1510223885.230,63.477,21.973,38.086,31.738,-529.785,0
1510223885.234,47.363,16.113,43.945,30.273,159.668,0
1510223885.238,33.203,9.766,64.453,21.484,65.918,0
1510223885.242,44.434,13.672,59.082,12.695,-204.102,0
1510223885.246,57.617,14.648,21.484,25.879,-163.574,0
1510223885.250,35.645,20.996,38.086,20.020,937.500,0
1510223885.254,30.273,33.203,52.734,7.812,-18.555,0
1510223885.258,41.504,24.414,42.480,9.766,-1000.000,0
1510223885.262,32.715,17.090,33.691,21.973,-132.812,0
1510223885.266,37.109,20.996,22.461,28.320,561.523,0
1510223885.269,37.598,19.531,18.555,18.555,-763.672,0
1510223885.273,28.320,9.766,13.672,0.488,-1000.000,0
1510223885.277,15.625,8.301,9.766,-6.836,-461.914,0
1510223885.281,11.230,16.602,12.695,-9.766,-606.445,0
1510223885.285,30.762,10.742,14.160,-0.488,-486.328,0
1510223885.289,40.527,6.348,18.066,14.648,-122.559,0
1510223885.293,40.527,18.555,28.320,11.719,392.090,0
1510223885.297,48.828,13.184,26.855,10.254,335.449,0
1510223885.301,29.297,3.906,15.137,6.348,-984.863,0
1510223885.305,9.766,-2.441,32.715,-9.766,-1000.000,0
1510223885.309,25.879,3.418,25.879,0.488,280.273,0
1510223885.312,28.809,9.766,29.785,14.648,126.465,0
1510223885.316,-4.883,12.207,88.379,-32.715,-1000.000,0
1510223885.320,36.133,18.555,37.109,0.000,-650.879,0
1510223885.324,65.918,28.809,-3.906,47.852,-303.223,0
1510223885.328,52.246,13.184,17.578,34.180,-640.137,0
1510223885.332,64.941,8.301,16.113,36.621,-256.348,0
1510223885.336,55.176,28.809,21.484,35.645,232.422,0
1510223885.340,46.875,25.879,29.297,31.738,970.703,0
1510223885.344,53.711,14.160,30.762,30.762,-11.230,0
1510223885.348,43.945,20.020,23.926,22.461,-1000.000,0
1510223885.351,41.992,19.531,20.020,12.695,-219.238,0
1510223885.355,39.062,15.137,20.508,12.207,-90.332,0
1510223885.359,38.574,20.508,23.438,11.230,-1000.000,0
1510223885.363,41.504,23.926,24.414,4.883,-1000.000,0
1510223885.367,32.227,21.973,30.273,5.859,-103.516,0
1510223885.371,29.785,15.137,28.320,3.418,106.934,0
1510223885.375,27.832,15.137,26.855,2.441,-1000.000,0
1510223885.379,17.090,19.531,31.738,0.000,-597.656,0
1510223885.383,17.090,9.766,29.785,3.418,623.047,0
1510223885.387,11.719,9.766,21.973,6.836,486.328,0
1510223885.391,16.602,15.625,26.855,3.418,-872.070,0
1510223885.394,23.926,25.391,26.855,-10.742,-994.629,0
1510223885.398,23.438,21.484,40.527,-4.395,-357.910,0
1510223885.402,25.879,11.719,40.527,-4.883,-587.402,0
1510223885.406,23.926,23.438,19.043,0.000,-1000.000,0
1510223885.410,25.879,30.273,21.484,11.230,-594.727,0
1510223885.414,33.203,31.738,25.879,5.371,199.707,0
1510223885.418,17.090,26.367,23.926,-11.230,-547.363,0
1510223885.422,12.695,19.043,24.902,-20.020,-1000.000,0
1510223885.426,35.645,24.902,43.457,-10.254,-129.883,0
1510223885.430,36.133,41.016,17.578,0.000,965.332,0
1510223885.434,30.273,17.090,5.859,15.137,-165.039,0
1510223885.437,36.621,2.441,22.461,20.020,-1000.000,0
1510223885.441,53.711,24.414,22.949,20.508,-265.137,0
1510223885.445,50.293,16.113,31.250,16.602,70.312,0
1510223885.449,34.668,10.742,19.531,9.277,-939.941,0
1510223885.453,25.391,22.949,14.648,6.348,-1000.000,0
1510223885.457,26.855,9.766,24.902,15.137,-404.297,0
1510223885.461,17.090,-2.930,14.160,0.977,-333.496,0
1510223885.465,8.301,2.441,14.160,-3.418,-976.562,0
1510223885.469,17.578,-0.488,24.902,5.371,-724.609,0
1510223885.473,29.297,-4.883,26.367,4.883,459.961,0
1510223885.476,21.484,4.883,29.785,5.371,725.098,0
1510223885.480,13.184,16.113,27.832,-2.441,-647.949,0
1510223885.484,26.855,26.367,22.461,1.953,-1000.000,0
1510223885.488,26.855,6.836,43.457,8.789,-227.051,0
1510223885.492,36.621,8.301,45.410,8.301,-426.270,0
1510223885.496,28.320,24.902,32.227,0.977,-1000.000,0
1510223885.500,13.672,18.555,40.039,-7.324,-869.629,0
1510223885.504,60.547,8.301,41.992,32.227,209.473,0
1510223885.508,69.336,15.137,47.852,43.457,-73.242,0
1510223885.512,50.293,10.742,57.129,24.414,-1000.000,0
1510223885.516,48.340,11.230,48.340,18.066,-600.098,0
1510223885.519,34.668,25.391,27.344,18.555,376.465,0
1510223885.523,21.973,12.207,29.785,24.902,323.242,0
1510223885.527,28.809,9.766,27.344,26.367,-425.293,0
1510223885.531,29.785,15.137,32.715,9.277,-21.973,0
1510223885.535,22.461,17.578,39.551,12.695,924.805,0
1510223885.539,10.742,17.090,51.758,23.926,103.027,0
1510223885.543,8.789,7.324,55.176,8.301,-996.094,0
1510223885.547,42.480,10.742,35.645,20.508,-86.914,0
1510223885.551,33.691,9.277,36.621,34.180,383.789,0
1510223885.555,21.484,5.859,41.016,18.555,-931.152,0
1510223885.559,34.180,15.625,37.598,10.254,-1000.000,0
1510223885.562,24.902,24.414,42.480,6.836,-483.887,0
1510223885.566,24.902,23.926,54.688,8.789,402.832,0
1510223885.570,35.645,18.555,47.363,13.184,171.875,0
1510223885.574,30.762,25.879,35.645,-5.859,-941.406,0
1510223885.578,39.551,30.762,32.715,-10.742,37.598,0
1510223885.582,46.387,14.160,38.086,10.742,547.363,0
1510223885.586,41.504,21.484,39.551,10.254,-979.980,0
1510223885.590,35.645,28.320,48.828,12.207,-614.746,0
1510223885.594,43.457,25.879,49.316,33.203,406.738,0
1510223885.598,55.664,26.855,38.086,29.297,-312.500,0
1510223885.601,42.969,23.926,49.316,17.090,-1000.000,0
1510223885.605,44.434,22.461,41.992,25.391,-521.484,0
1510223885.609,51.758,23.438,46.875,26.367,-34.668,0
1510223885.613,42.969,22.461,49.316,22.461,-334.473,0
1510223885.617,50.781,21.484,36.621,30.273,-320.312,0
1510223885.621,58.594,25.879,37.598,45.410,32.715,0
1510223885.625,62.012,17.090,47.852,53.711,241.211,0
1510223885.629,69.336,10.254,58.594,51.758,-700.684,0
1510223885.633,60.547,10.254,67.871,54.199,-1000.000,0
1510223885.637,53.223,1.953,61.035,58.594,-174.316,0
1510223885.641,32.715,2.441,50.293,46.875,766.602,0
1510223885.644,18.555,4.395,58.594,40.527,-386.719,0
1510223885.648,34.180,0.000,47.852,38.574,-906.738,0
1510223885.652,37.109,2.441,35.156,35.645,131.348,0
1510223885.656,22.461,2.441,31.250,27.344,171.387,0
1510223885.660,30.762,3.906,33.203,25.879,-356.445,0
1510223885.664,30.762,17.090,47.363,21.973,-145.020,0
1510223885.668,27.832,23.926,41.504,17.090,-117.188,0
1510223885.672,38.574,11.719,37.598,16.113,-417.969,0
1510223885.676,27.344,5.371,41.016,20.996,-1000.000,0
1510223885.680,9.766,11.719,35.645,16.113,-1000.000,0
1510223885.684,20.996,19.531,34.668,3.418,308.105,0
1510223885.687,26.367,10.254,36.621,4.395,348.145,0
1510223885.691,7.812,-0.977,33.691,2.441,-1000.000,0
1510223885.695,9.277,1.953,30.273,-10.742,-696.289,0
1510223885.699,17.090,0.488,30.273,-8.301,-31.250,0
1510223885.703,12.207,0.000,30.762,-7.324,-718.262,0
1510223885.707,4.883,12.695,30.762,-22.949,-762.695,0
1510223885.711,10.742,9.766,33.203,-14.648,160.645,0
1510223885.715,6.348,-1.953,31.250,-7.324,937.012,0
1510223885.719,7.812,-4.883,25.879,-9.277,-93.750,0
1510223885.723,15.137,-7.324,27.832,-23.926,-1000.000,0
1510223885.726,13.672,-1.465,20.508,-30.762,-163.086,0
1510223885.730,17.090,-2.930,20.996,-13.672,381.836,0
1510223885.734,9.277,-5.371,25.879,-20.508,-902.832,0
1510223885.738,7.324,-4.883,20.996,-20.508,-1000.000,0
1510223885.742,25.879,-8.301,25.391,2.441,-325.195,0
1510223885.746,34.180,-4.395,29.297,11.230,-363.770,0
1510223885.750,25.879,0.000,26.367,15.625,-929.199,0
1510223885.754,15.625,0.977,32.227,10.742,-333.008,0
1510223885.758,32.227,4.395,36.133,9.766,661.133,0
1510223885.762,53.711,13.672,31.738,29.785,437.988,0
1510223885.766,52.246,9.277,38.574,41.992,-543.945,0
1510223885.769,35.156,11.230,36.133,34.180,-664.062,0
1510223885.773,38.574,8.789,27.344,27.344,8.789,0
1510223885.777,46.875,8.301,33.691,33.691,-174.805,0
1510223885.781,47.363,15.137,37.598,20.996,-1000.000,0
1510223885.785,46.387,20.508,34.180,3.418,-752.441,0
1510223885.789,30.273,14.160,33.203,-1.465,-193.848,0
1510223885.793,19.531,11.719,37.109,4.395,-739.746,0
1510223885.797,23.926,12.207,42.480,4.883,-1000.000,0
1510223885.801,22.461,4.883,41.016,-2.441,-159.180,0
1510223885.805,25.879,10.742,37.598,3.418,751.953,0
1510223885.809,19.043,18.555,38.574,-2.441,-401.855,0
1510223885.812,14.160,15.625,39.062,-8.301,-1000.000,0
1510223885.816,18.555,12.695,41.992,3.418,-241.699,0
1510223885.820,20.020,15.625,43.457,10.254,25.391,0
1510223885.824,30.762,13.672,47.852,6.836,-652.832,0
1510223885.828,35.156,20.020,52.734,10.254,-866.211,0
1510223885.832,40.527,21.973,53.223,18.555,-157.715,0
1510223885.836,45.898,12.207,51.270,28.320,151.855,0
1510223885.840,37.109,9.277,54.688,20.996,-951.172,0
1510223885.844,48.828,20.508,68.359,21.484,-1000.000,0
1510223885.848,59.082,28.809,66.895,40.039,92.285,0
1510223885.851,60.547,33.691,63.477,40.527,472.656,0
1510223885.855,64.453,38.574,71.777,29.297,-930.176,0
1510223885.859,65.430,36.621,66.406,35.156,-1000.000,0
1510223885.863,57.617,31.250,57.617,45.898,-291.504,0
1510223885.867,52.734,46.387,57.617,48.340,-485.352,0
1510223885.871,68.359,51.758,64.453,47.363,-1000.000,0
1510223885.875,79.590,39.062,64.941,40.039,-808.594,0
1510223885.879,65.430,38.574,54.688,43.945,-249.512,0
1510223885.883,57.129,30.762,60.547,31.738,-145.996,0
1510223885.887,66.406,33.691,62.500,27.344,-605.469,0
1510223885.891,57.617,41.992,56.641,30.762,-597.168,0
1510223885.894,41.504,31.738,45.410,19.043,821.289,0
1510223885.898,33.203,18.066,41.504,21.484,622.559,0
1510223885.902,16.113,18.066,42.480,4.395,-905.273,0
1510223885.906,22.461,16.113,29.297,-4.395,-323.242,0
1510223885.910,30.273,14.160,28.320,12.695,490.234,0
1510223885.914,21.484,18.066,36.621,5.859,-733.887,0
1510223885.918,26.367,28.809,30.273,-6.836,-1000.000,0
1510223885.922,25.391,27.344,47.363,-4.395,-242.188,0
1510223885.926,20.996,21.973,52.734,-6.348,-194.336,0
1510223885.930,20.020,20.996,37.598,-11.719,-996.582,0
1510223885.934,9.277,11.719,37.109,-14.648,-1000.000,0
1510223885.937,18.555,11.719,29.297,2.441,-389.160,0
1510223885.941,20.020,12.695,28.809,4.395,459.961,0
1510223885.945,28.320,23.926,39.551,5.371,448.730,0
1510223885.949,37.598,27.344,62.500,1.953,-37.109,0
1510223885.953,39.551,21.973,31.738,9.766,403.809,0
1510223885.957,38.086,10.254,26.855,13.184,530.762,0
1510223885.961,36.621,3.418,43.457,2.441,-376.465,0
1510223885.965,33.691,13.672,33.203,-1.465,-599.121,0
1510223885.969,39.551,15.625,17.578,10.742,38.086,0
1510223885.973,47.852,20.996,7.812,25.391,-215.332,0
1510223885.976,29.785,11.719,40.527,-9.277,-1000.000,0
1510223885.980,34.180,12.695,16.602,-13.672,-579.102,0
1510223885.984,40.039,18.555,-0.977,-4.395,-157.227,0
1510223885.988,38.574,13.672,22.461,-8.789,-251.953,0
1510223885.992,33.203,13.184,32.227,-10.742,-154.785,0
1510223885.996,38.086,12.207,35.156,-5.371,-24.902,0
1510223886.000,60.547,12.695,24.414,17.578,916.504,0
1510223886.004,64.453,15.625,23.438,20.020,208.008,0
1510223886.008,82.520,28.320,16.602,32.227,-1000.000,0
1510223886.012,83.984,32.715,42.969,28.809,-168.457,0
1510223886.016,62.500,20.020,52.246,17.578,430.664,0
1510223886.019,41.992,3.906,40.039,-3.418,-888.672,0
1510223886.023,42.969,8.789,23.438,-8.789,-1000.000,0
1510223886.027,62.500,23.926,21.484,31.738,-465.820,0
1510223886.031,62.500,22.949,47.363,37.109,-580.566,0
1510223886.035,55.176,20.020,55.664,17.090,-554.688,0
1510223886.039,57.617,15.625,53.223,18.555,222.656,0
1510223886.043,68.359,16.602,34.180,24.414,841.309,0
1510223886.047,50.293,13.184,68.359,22.949,381.836,0
1510223886.051,38.086,5.371,62.988,19.531,-942.871,0
1510223886.055,42.480,13.184,17.090,25.391,-985.840,0
1510223886.059,33.691,18.066,34.180,27.832,-243.652,0
1510223886.062,14.648,-6.348,41.992,3.418,-142.578,0
1510223886.066,-0.488,-19.043,31.250,-14.648,-945.312,0
1510223886.070,4.883,-8.301,9.277,-9.766,-761.719,0
1510223886.074,-18.066,-10.742,9.766,-15.625,134.766,0
1510223886.078,3.418,-9.277,6.348,2.930,-491.699,0
1510223886.082,26.855,-8.789,25.391,2.930,-615.723,0
1510223886.086,4.883,-1.953,35.156,-17.578,268.555,0
1510223886.090,16.602,11.230,43.945,-10.254,841.309,0
1510223886.094,28.320,8.301,54.688,13.672,-225.586,0
1510223886.098,27.832,11.719,52.734,23.926,-1000.000,0
1510223886.101,39.062,19.531,44.434,19.531,-251.465,0
1510223886.105,49.805,30.273,56.641,12.695,-80.566,0
1510223886.109,56.152,31.738,31.250,18.555,-1000.000,0
1510223886.113,40.039,24.414,18.555,16.113,-1000.000,0
1510223886.117,43.457,10.742,52.246,29.297,-339.355,0
1510223886.121,69.336,12.695,20.508,46.875,142.578,0
1510223886.125,68.359,21.484,22.949,32.227,-765.137,0
1510223886.129,62.500,15.137,32.227,14.648,-550.781,0
1510223886.133,40.527,2.441,22.949,-4.395,659.668,0
1510223886.137,33.203,15.137,66.895,-13.672,617.676,0
1510223886.141,55.664,43.945,60.059,11.230,-673.828,0
1510223886.144,72.266,52.734,21.484,48.828,-1000.000,0
1510223886.148,69.824,36.621,52.734,62.988,38.574,0
1510223886.152,57.617,27.832,54.688,52.734,-109.863,0
1510223886.156,61.035,37.598,47.852,51.758,-1000.000,0
1510223886.160,56.641,30.273,51.270,45.898,-757.812,0
1510223886.164,44.922,28.320,42.480,30.762,-273.926,0
1510223886.168,31.738,38.086,27.344,34.180,-817.383,0
1510223886.172,10.742,13.184,20.996,5.859,-937.012,0
1510223886.176,5.859,-17.578,37.598,-1.465,65.918,0
1510223886.180,17.578,-10.254,21.973,14.648,-901.855,0
1510223886.184,22.461,4.883,22.949,3.906,236.328,0
1510223886.187,28.320,1.465,52.246,4.883,-1000.000,0
1510223886.191,35.156,-1.465,20.508,32.227,-257.812,0
1510223886.195,26.855,10.254,8.789,31.738,474.121,0
1510223886.199,31.250,6.348,11.719,30.762,-775.879,0
1510223886.203,26.367,-7.812,18.555,18.066,-1000.000,0
1510223886.207,22.461,-5.371,18.555,17.090,-414.062,0
1510223886.211,17.090,-14.160,39.551,11.230,-439.453,0
1510223886.215,3.418,-6.348,41.016,-7.324,-1000.000,0
1510223886.219,9.277,0.977,11.719,7.324,-1000.000,0
1510223886.223,19.043,-6.836,-3.906,32.227,-77.637,0
1510223886.226,5.371,-6.348,38.574,26.855,239.746,0
1510223886.230,10.254,4.883,33.691,20.020,-843.750,0
1510223886.234,17.090,5.859,-1.953,12.207,-1000.000,0
1510223886.238,3.906,-14.160,-9.277,-1.953,210.449,0
1510223886.242,-9.277,-24.414,2.441,-28.320,599.121,0
1510223886.246,-2.930,-22.461,37.598,-26.367,-921.387,0
1510223886.250,31.250,3.418,-2.930,11.230,-942.383,0
1510223886.254,33.691,11.719,-4.883,10.742,233.887,0
1510223886.258,4.883,19.531,13.672,-7.324,-177.734,0
1510223886.262,8.789,13.184,12.695,-4.395,-1000.000,0
1510223886.266,30.273,9.277,3.418,10.742,-615.723,0
1510223886.269,41.504,23.438,13.672,10.254,280.762,0
1510223886.273,35.645,28.809,49.805,0.488,353.027,0
1510223886.277,39.062,29.785,34.180,16.113,-600.098,0
1510223886.281,51.758,22.461,24.902,41.016,-413.574,0
1510223886.285,62.012,16.602,46.875,47.852,835.938,0
1510223886.289,53.223,15.137,82.031,29.785,-310.059,0
1510223886.293,49.805,13.672,65.430,27.344,-1000.000,0
1510223886.297,55.176,9.277,22.949,40.039,-128.418,0
1510223886.301,44.922,11.719,24.414,34.668,227.539,0
1510223886.305,44.434,8.301,46.875,33.691,-885.742,0
1510223886.309,44.434,5.371,52.246,29.297,-1000.000,0
1510223886.312,39.551,17.578,23.438,33.203,-124.512,0
1510223886.316,30.273,9.277,22.949,26.855,725.098,0
1510223886.320,35.645,-11.719,37.598,19.043,266.602,0
1510223886.324,38.574,0.488,30.762,27.344,-450.684,0
1510223886.328,47.363,6.836,19.043,34.668,141.602,0
1510223886.332,58.594,24.414,2.441,41.992,501.953,0
1510223886.336,53.711,23.926,24.414,39.062,-937.012,0
1510223886.340,46.387,4.395,46.875,35.645,-957.031,0
1510223886.344,38.574,17.578,17.578,45.898,-317.871,0
1510223886.348,52.734,11.230,18.555,46.875,-645.508,0
1510223886.351,66.406,19.531,22.461,42.969,-1000.000,0
1510223886.355,55.664,10.254,41.992,20.996,-619.141,0
1510223886.359,50.293,7.812,32.715,29.297,-6.348,0
1510223886.363,54.688,21.484,17.578,45.410,36.621,0
1510223886.367,61.523,15.625,35.156,49.805,-210.449,0
1510223886.371,61.035,24.414,35.156,51.270,-166.992,0
1510223886.375,55.176,13.184,24.414,27.344,897.949,0
1510223886.379,49.805,13.184,17.090,23.438,-99.609,0
1510223886.383,52.734,30.273,33.691,36.133,-1000.000,0
1510223886.387,58.105,32.715,34.180,31.250,-97.168,0
1510223886.391,42.480,27.832,36.621,25.391,214.355,0
1510223886.394,37.598,19.531,34.180,27.832,-953.613,0
1510223886.398,32.227,6.348,38.574,17.090,-1000.000,0
1510223886.402,24.414,14.160,52.734,7.324,-443.359,0
1510223886.406,38.086,28.320,14.160,30.273,-536.133,0
1510223886.410,23.926,17.090,31.738,20.508,-492.188,0
1510223886.414,27.344,12.695,47.363,12.695,314.941,0
1510223886.418,41.504,17.090,13.672,22.949,852.539,0
1510223886.422,28.809,22.461,29.297,2.441,474.609,0
1510223886.426,32.227,23.926,32.715,11.230,-864.258,0
1510223886.430,40.039,21.484,28.320,30.273,-1000.000,0
1510223886.434,36.621,17.578,38.574,27.832,93.750,0
1510223886.437,32.227,18.555,31.738,36.621,-169.922,0
1510223886.441,19.043,10.742,65.430,7.324,-1000.000,0
1510223886.445,22.461,5.859,62.988,-3.418,-700.684,0
1510223886.449,38.086,25.879,20.508,19.043,-223.633,0
1510223886.453,28.320,18.066,40.039,14.160,-783.691,0
1510223886.457,26.855,6.348,34.180,13.672,-776.855,0
1510223886.461,28.320,-0.977,23.438,17.090,114.258,0
1510223886.465,28.320,-1.465,27.832,25.879,868.164,0
1510223886.469,28.320,-4.395,18.555,23.926,-187.988,0
1510223886.473,25.391,-8.301,3.418,5.371,-1000.000,0
1510223886.476,28.320,0.000,3.418,-3.906,-128.906,0
1510223886.480,37.598,8.789,7.324,9.766,-11.230,0
1510223886.484,35.156,10.742,6.348,12.695,-1000.000,0
1510223886.488,37.598,15.137,10.254,9.766,-1000.000,0
1510223886.492,53.223,14.648,4.883,10.254,-79.102,0
1510223886.496,44.922,15.137,-6.348,-1.465,173.828,0
1510223886.500,40.039,19.531,-15.137,3.906,-1000.000,0
1510223886.504,48.828,13.184,12.207,19.043,-521.973,0
1510223886.508,35.645,10.742,22.949,8.789,649.902,0
1510223886.512,48.828,16.113,11.230,16.602,545.410,0
1510223886.516,59.570,19.043,22.949,30.762,-764.160,0
1510223886.519,44.922,19.531,28.809,16.113,-1000.000,0
1510223886.523,34.180,11.230,30.762,1.953,-352.051,0
1510223886.527,23.438,17.090,30.273,12.207,-576.172,0
1510223886.531,30.762,18.066,35.645,28.320,-1000.000,0
1510223886.535,27.832,11.719,33.691,9.277,-404.785,0
1510223886.539,8.789,14.160,33.203,-10.742,255.859,0
1510223886.543,6.348,8.301,26.855,-7.324,-553.711,0
1510223886.547,-1.953,-4.883,20.996,-18.555,-1000.000,0
1510223886.551,-11.230,-4.883,22.461,-35.645,-88.379,0
1510223886.555,-7.324,8.301,18.555,-22.461,978.516,0
1510223886.559,-7.324,5.859,18.555,-21.973,-137.207,0
1510223886.562,4.395,4.395,13.672,-28.809,-1000.000,0
1510223886.566,3.906,10.742,18.066,-12.695,-272.949,0
1510223886.570,0.000,17.090,21.484,-6.836,145.996,0
1510223886.574,14.160,15.137,17.090,-8.789,-868.164,0
1510223886.578,25.391,18.555,27.832,-1.465,-1000.000,0
1510223886.582,45.410,30.762,41.016,4.883,-375.977,0
1510223886.586,53.711,32.715,42.969,15.625,-285.156,0
1510223886.590,48.828,22.949,46.875,21.484,-888.672,0
1510223886.594,47.363,20.996,39.062,17.578,-518.555,0
1510223886.598,46.387,32.227,26.367,19.043,497.070,0
1510223886.601,38.574,36.133,20.508,21.484,627.441,0
1510223886.605,45.410,25.879,28.809,25.879,-699.707,0
1510223886.609,50.781,18.066,36.621,19.043,-1000.000,0
1510223886.613,50.781,17.578,26.367,8.789,95.215,0
1510223886.617,55.664,7.324,23.926,9.766,-23.438,0
1510223886.621,52.246,6.348,20.996,6.348,-1000.000,0
1510223886.625,43.945,12.695,18.066,3.418,-828.125,0
1510223886.629,35.645,3.418,20.996,-5.859,-192.383,0
1510223886.633,26.855,3.418,23.438,-10.254,-543.945,0
1510223886.637,18.555,2.441,31.250,-2.441,-1000.000,0
1510223886.641,21.484,-2.930,30.273,-8.301,-633.789,0
1510223886.644,13.184,0.488,22.949,-17.090,462.891,0
1510223886.648,11.230,6.836,23.438,-10.742,488.770,0
1510223886.652,20.508,5.859,29.297,-4.395,-58.105,0
1510223886.656,31.738,7.324,36.621,-7.812,307.129,0
1510223886.660,34.180,8.789,42.480,-1.465,967.285,0
1510223886.664,33.691,1.953,42.480,1.953,-122.070,0
1510223886.668,27.832,4.883,38.086,1.953,-1000.000,0
1510223886.672,24.902,12.207,41.016,8.789,-93.750,0
1510223886.676,24.902,12.207,39.551,18.066,387.207,0
1510223886.680,24.902,10.742,35.156,13.672,-897.461,0
1510223886.684,34.180,11.719,41.016,0.488,-1000.000,0
1510223886.687,44.434,7.324,41.504,6.348,-260.254,0
1510223886.691,53.711,8.789,33.691,12.695,444.824,0
1510223886.695,55.176,20.508,35.156,16.113,263.672,0
1510223886.699,60.059,17.578,41.504,16.602,-616.699,0
1510223886.703,75.684,14.160,35.156,21.484,2.441,0
1510223886.707,82.520,23.438,36.621,35.645,507.812,0
1510223886.711,68.848,31.250,50.293,47.363,-666.992,0
1510223886.715,63.965,28.809,55.176,39.062,-771.973,0
1510223886.719,53.711,23.438,44.922,14.160,26.855,0
1510223886.723,42.480,14.160,33.691,10.742,-227.051,0
1510223886.726,45.898,7.324,36.621,9.766,-1000.000,0
1510223886.730,49.316,7.812,41.992,5.371,-626.953,0
1510223886.734,55.664,14.648,39.551,9.277,-236.816,0
1510223886.738,52.734,13.672,37.598,11.230,-301.270,0
1510223886.742,45.410,9.277,37.598,-4.395,-231.934,0
1510223886.746,36.621,17.578,34.180,-12.695,-26.367,0
1510223886.750,37.109,13.184,30.762,-5.859,798.828,0
1510223886.754,34.668,10.254,33.691,4.395,-238.770,0
1510223886.758,26.367,25.391,30.762,0.488,-1000.000,0
1510223886.762,30.273,19.531,29.785,-1.465,-203.613,0
1510223886.766,26.367,19.531,46.387,-4.883,-95.703,0
1510223886.769,19.531,23.926,49.805,-0.488,-744.141,0
1510223886.773,29.785,13.672,62.500,8.789,-614.258,0
1510223886.777,44.922,13.184,66.895,7.812,-117.676,0
1510223886.781,42.480,16.113,43.457,13.184,-168.457,0
1510223886.785,40.527,19.531,37.109,20.020,-330.078,0
1510223886.789,36.621,20.996,58.105,14.648,15.625,0
1510223886.793,39.062,16.113,60.059,3.906,361.816,0
1510223886.797,30.273,15.625,46.875,9.766,520.996,0
1510223886.801,23.438,21.973,56.152,14.648,-912.109,0
1510223886.805,35.156,33.203,48.828,12.207,-783.203,0
1510223886.809,40.039,33.203,60.059,10.254,365.234,0
1510223886.812,38.574,23.438,49.316,13.184,-238.770,0
1510223886.816,43.457,21.973,29.297,20.508,-1000.000,0
1510223886.820,44.434,24.902,36.621,20.508,-694.824,0
1510223886.824,50.781,26.367,30.762,25.391,-328.125,0
1510223886.828,48.828,29.785,39.551,27.832,-646.973,0
1510223886.832,45.898,21.484,44.922,9.766,-441.406,0
1510223886.836,51.758,16.602,44.434,9.766,262.207,0
1510223886.840,41.504,12.695,57.617,14.160,536.621,0
1510223886.844,30.273,14.160,61.523,18.066,-548.828,0
1510223886.848,41.016,18.066,39.062,28.320,-1000.000,0
1510223886.851,34.668,7.324,48.340,21.484,-252.441,0
1510223886.855,28.809,6.348,51.758,14.648,746.582,0
1510223886.859,41.992,4.395,30.273,17.578,-505.859,0
1510223886.863,35.645,5.371,37.109,13.184,-1000.000,0
1510223886.867,40.039,7.324,41.504,17.578,-190.430,0
1510223886.871,50.781,6.836,40.527,19.531,-199.219,0
1510223886.875,43.457,7.324,31.250,12.207,-1000.000,0
1510223886.879,37.598,11.230,21.973,19.531,-481.934,0
1510223886.883,36.133,17.578,33.203,16.113,277.344,0
1510223886.887,35.156,13.672,45.410,9.766,-29.785,0
1510223886.891,32.227,22.461,36.621,18.066,-451.660,0
1510223886.894,33.203,33.203,19.043,0.488,-888.672,0
1510223886.898,41.992,17.578,20.508,3.906,-320.801,0
1510223886.902,33.691,13.184,29.297,16.113,-370.117,0
1510223886.906,37.598,24.902,21.484,8.789,-1000.000,0
1510223886.910,37.598,30.762,23.438,-7.324,-909.668,0
1510223886.914,27.344,32.227,28.320,-10.254,506.348,0
1510223886.918,24.902,21.484,22.949,-8.789,389.160,0
1510223886.922,20.508,10.742,30.273,-12.207,-1000.000,0
1510223886.926,26.855,5.371,36.621,-3.418,-218.262,0
1510223886.930,27.832,4.883,37.109,-6.836,-967.285,0
1510223886.934,11.719,5.371,34.668,-11.719,-36.133,0
1510223886.937,6.348,0.977,28.320,-16.113,-1000.000,0
1510223886.941,12.207,-9.277,35.645,-8.789,-280.273,0
1510223886.945,5.371,-10.742,41.992,-17.578,654.297,0
1510223886.949,-5.371,4.883,28.809,-18.555,-248.535,0
1510223886.953,6.348,-4.883,37.109,-8.301,-1000.000,0
1510223886.957,18.555,-6.836,46.875,-0.977,-226.074,0
1510223886.961,9.766,3.906,36.133,-0.977,-112.305,0
1510223886.965,9.277,-6.836,22.949,-18.066,-1000.000,0
1510223886.969,20.020,-7.812,23.926,-10.742,-1000.000,0
1510223886.973,6.348,-12.207,61.035,-41.992,31.738,0
1510223886.976,22.461,1.465,20.020,-15.625,616.699,0
1510223886.980,42.480,2.930,-17.578,16.113,-805.664,0
1510223886.984,31.250,-2.930,3.418,1.953,-1000.000,0
1510223886.988,36.621,3.418,14.648,20.020,3.906,0
1510223886.992,58.594,6.836,10.742,32.715,-101.074,0
1510223886.996,56.641,6.836,26.367,20.508,-1000.000,0
1510223887.000,40.039,4.395,34.668,1.465,-845.215,0
1510223887.004,55.664,2.441,18.555,17.578,-333.984,0
1510223887.008,56.152,3.418,24.414,23.438,-229.980,0
1510223887.012,38.086,5.859,38.086,12.695,-816.406,0
1510223887.016,45.410,-0.488,34.180,15.625,-719.727,0
1510223887.019,48.340,-0.488,41.992,14.648,826.172,0
1510223887.023,36.621,0.000,51.270,16.602,394.043,0
1510223887.027,41.992,1.465,41.016,21.484,-1000.000,0
1510223887.031,45.410,12.207,43.457,11.719,-339.355,0
1510223887.035,20.996,0.977,57.617,-9.766,428.711,0
1510223887.039,5.859,-12.207,41.016,-16.602,-789.551,0
1510223887.043,16.113,-17.090,45.898,-4.395,-1000.000,0
1510223887.047,29.785,-9.277,40.527,10.742,-363.770,0
1510223887.051,40.039,-7.812,6.836,20.996,-362.793,0
1510223887.055,48.340,-7.812,30.273,18.555,-1000.000,0
1510223887.059,44.922,14.648,43.457,31.250,-1000.000,0
1510223887.062,26.855,2.930,54.199,12.695,-380.859,0
1510223887.066,28.809,-1.953,50.781,7.812,396.484,0
1510223887.070,35.156,5.371,43.945,15.625,306.641,0
1510223887.074,34.180,6.348,47.852,2.930,-144.531,0
1510223887.078,33.691,14.160,59.082,3.418,308.105,0
1510223887.082,31.250,20.996,53.711,11.719,597.168,0
1510223887.086,20.020,10.742,81.055,-15.625,-770.020,0
1510223887.090,15.625,3.906,77.148,-20.508,-1000.000,0
1510223887.094,49.316,17.090,34.668,24.414,74.707,0
1510223887.098,43.457,27.832,48.340,17.090,-207.031,0
1510223887.101,25.879,25.879,39.551,-0.488,-1000.000,0
1510223887.105,38.574,4.395,46.387,-13.184,-643.066,0
1510223887.109,30.273,12.695,45.898,-13.672,-249.023,0
1510223887.113,30.762,27.344,36.133,7.812,-140.137,0
1510223887.117,47.852,20.996,36.621,5.371,-362.305,0
1510223887.121,46.875,18.066,35.645,3.418,-334.961,0
1510223887.125,35.645,27.344,42.480,13.672,904.297,0
1510223887.129,31.738,25.879,51.758,20.508,-54.688,0
1510223887.133,41.992,30.273,49.316,23.926,-1000.000,0
1510223887.137,24.902,26.855,54.688,13.672,-154.297,0
1510223887.141,7.324,24.902,50.781,14.160,440.918,0
1510223887.144,17.578,16.602,44.434,0.977,-845.703,0
1510223887.148,24.414,10.742,28.809,-6.836,-1000.000,0
1510223887.152,22.461,20.508,27.344,11.719,-449.707,0
1510223887.156,19.043,15.137,49.316,17.090,-562.988,0
1510223887.160,32.715,10.254,46.875,19.043,-483.398,0
1510223887.164,35.645,15.625,45.410,20.020,88.379,0
1510223887.168,32.715,5.371,44.922,28.809,627.441,0
1510223887.172,42.480,9.766,35.645,32.227,416.016,0
1510223887.176,42.480,28.809,41.992,25.879,-906.250,0
1510223887.180,52.246,30.762,46.387,28.320,-1000.000,0
1510223887.184,62.500,36.621,52.734,30.273,59.082,0
1510223887.187,64.453,37.109,55.664,41.016,90.332,0
1510223887.191,65.918,13.184,60.547,44.434,-1000.000,0
1510223887.195,60.547,0.488,69.824,12.207,-775.391,0
1510223887.199,50.293,5.859,77.148,-11.719,108.398,0
1510223887.203,49.316,23.926,68.848,-4.395,-478.516,0
1510223887.207,67.871,19.531,55.176,25.391,-674.316,0
1510223887.211,57.617,5.371,59.082,27.832,191.406,0
1510223887.215,56.152,6.836,41.016,38.086,854.980,0
1510223887.219,51.758,13.672,47.363,50.781,-148.438,0
1510223887.223,20.020,19.043,53.711,27.832,-1000.000,0
1510223887.226,19.531,2.441,72.754,15.625,-273.926,0
1510223887.230,31.738,2.930,63.477,14.160,-35.645,0
1510223887.234,26.855,13.184,37.109,5.859,-986.328,0
1510223887.238,24.902,20.996,42.480,2.930,-1000.000,0
1510223887.242,27.344,17.578,59.570,3.906,-189.453,0
1510223887.246,36.133,5.859,52.246,10.254,184.082,0
1510223887.250,24.414,8.301,39.062,1.953,-902.832,0
1510223887.254,24.414,19.043,46.387,3.418,-500.000,0
1510223887.258,41.504,19.043,36.621,21.484,702.148,0
1510223887.262,44.434,9.766,40.039,26.367,622.070,0
1510223887.266,33.203,8.789,48.828,16.113,-693.359,0
1510223887.269,28.809,2.441,42.480,10.254,-1000.000,0
1510223887.273,40.039,18.555,38.574,19.043,21.973,0
1510223887.277,39.062,30.273,38.574,22.461,-64.941,0
1510223887.281,40.527,9.766,45.898,31.738,-1000.000,0
1510223887.285,40.527,7.324,48.828,7.812,-805.176,0
1510223887.289,36.133,17.090,46.875,-6.836,-328.613,0
1510223887.293,49.316,20.996,28.320,23.926,-763.672,0
1510223887.297,55.664,17.090,25.879,22.949,-1000.000,0
1510223887.301,44.922,18.066,60.059,2.441,-50.781,0
1510223887.305,57.617,27.832,49.805,18.555,927.246,0
1510223887.309,66.895,22.949,43.945,33.691,-234.863,0
1510223887.312,63.477,28.809,45.898,19.531,-1000.000,0
1510223887.316,78.613,38.086,30.762,21.973,-274.414,0
1510223887.320,65.430,21.484,54.688,7.324,663.086,0
1510223887.324,60.059,8.301,55.664,9.766,-554.688,0
1510223887.328,75.684,10.254,21.973,31.738,-1000.000,0
1510223887.332,58.105,7.324,22.949,28.320,-388.184,0
1510223887.336,47.852,19.043,35.645,7.812,-377.441,0
1510223887.340,49.805,22.949,24.902,9.766,-963.867,0
1510223887.344,37.109,15.625,42.480,1.953,-1000.000,0
1510223887.348,37.109,24.414,60.059,-2.441,68.848,0
1510223887.351,47.852,25.391,55.176,7.324,493.652,0
1510223887.355,38.086,25.879,53.711,-6.348,-852.051,0
1510223887.359,31.250,20.020,53.223,-16.602,-1000.000,0
1510223887.363,33.691,9.766,45.898,-10.742,141.602,0
1510223887.367,35.156,7.812,36.621,9.766,279.297,0
1510223887.371,20.996,6.836,62.500,11.230,-1000.000,0
1510223887.375,23.926,25.391,53.223,6.836,-881.836,0
1510223887.379,39.062,22.949,43.457,20.508,-176.758,0
1510223887.383,42.480,14.160,51.758,21.484,-530.273,0
1510223887.387,38.086,20.020,56.641,23.438,-1000.000,0
1510223887.391,36.133,20.996,52.246,33.203,-655.762,0
1510223887.394,45.898,19.043,43.457,32.227,263.184,0
1510223887.398,52.734,17.090,50.781,38.086,495.117,0
1510223887.402,62.012,20.020,27.832,48.828,-147.949,0
1510223887.406,41.504,21.484,59.082,32.227,-149.902,0
1510223887.410,38.086,25.879,68.848,16.602,854.492,0
1510223887.414,50.781,17.578,39.551,25.391,-183.594,0
1510223887.418,43.457,4.395,51.758,23.926,-1000.000,0
1510223887.422,62.012,7.812,35.156,35.156,-54.688,0
1510223887.426,49.805,12.207,28.809,28.320,7.812,0
1510223887.430,38.086,16.602,18.066,17.090,-978.516,0
1510223887.434,43.457,32.227,34.180,17.578,-1000.000,0
1510223887.437,41.016,18.066,45.410,4.395,-142.578,0
1510223887.441,56.152,6.348,6.836,26.367,695.801,0
1510223887.445,54.199,10.254,16.602,32.227,128.418,0
1510223887.449,34.180,13.672,18.066,25.879,-625.488,0
1510223887.453,31.738,15.137,20.508,14.160,-282.715,0
1510223887.457,38.574,11.719,33.203,2.441,-122.070,0
1510223887.461,28.320,12.695,43.457,-4.395,-896.973,0
