timestamps,TP9,AF7,AF8,TP10,Right AUX,Marker0
1510145257.843,23.926,36.133,27.344,35.156,-146.484,0
1510145257.847,25.879,34.180,29.297,38.574,-94.238,0
1510145257.850,30.762,38.086,28.809,45.898,-74.219,0
1510145257.854,44.922,40.039,29.297,50.293,-92.285,0
1510145257.858,40.527,40.039,30.762,49.316,-95.703,0
1510145257.862,39.062,37.598,28.809,46.387,-118.164,0
1510145257.866,41.992,36.621,27.344,41.992,-149.902,0
1510145257.870,39.551,34.180,29.297,31.250,-85.449,0
1510145257.874,31.250,30.762,33.203,29.785,-72.266,0
1510145257.878,30.273,33.691,33.691,38.086,-123.047,0
1510145257.882,37.598,32.715,30.762,43.945,-114.258,0
1510145257.886,38.086,35.645,29.785,49.316,-118.164,0
1510145257.890,44.922,38.574,29.785,47.363,-106.934,0
1510145257.893,53.223,41.992,30.273,43.945,-97.656,0
1510145257.897,65.430,47.363,31.738,43.945,-80.566,0
1510145257.901,73.730,50.781,34.180,48.828,-88.379,0
1510145257.905,69.824,49.805,37.109,60.059,-71.777,0
1510145257.909,59.082,46.875,41.992,60.547,-67.871,0
1510145257.913,53.223,47.852,42.969,58.105,-82.520,0
1510145257.917,50.781,47.852,40.527,69.824,-33.691,0
1510145257.921,47.852,46.387,41.504,73.730,-20.996,0
1510145257.925,42.969,43.457,38.574,66.406,-63.965,0
1510145257.929,33.691,41.504,36.133,59.570,-111.816,0
1510145257.933,33.203,39.551,35.156,51.758,-79.590,0
1510145257.936,40.527,37.109,37.109,44.922,-19.043,0
1510145257.940,39.062,41.992,41.992,44.434,-30.273,0
1510145257.944,36.133,41.016,41.992,45.410,3.906,0
1510145257.948,31.250,39.062,40.527,49.805,25.391,0
1510145257.952,42.969,41.992,40.039,49.316,-21.484,0
1510145257.956,58.594,42.480,41.016,52.246,-54.199,0
1510145257.960,49.316,42.480,39.062,52.246,-25.879,0
1510145257.964,43.457,42.480,40.527,54.199,-12.695,0
1510145257.968,55.664,42.480,44.434,56.152,-72.754,0
1510145257.972,60.059,41.016,41.992,51.270,-36.133,0
1510145257.975,54.199,40.527,42.480,53.223,23.926,0
1510145257.979,52.734,40.527,44.434,54.199,-24.902,0
1510145257.983,47.852,44.922,41.016,48.340,-70.312,0
1510145257.987,46.875,43.457,40.527,43.945,-77.148,0
1510145257.991,50.293,38.574,41.504,48.340,-18.555,0
1510145257.995,46.387,41.992,41.992,51.270,33.691,0
1510145257.999,49.805,43.457,43.945,58.594,22.949,0
1510145258.003,53.223,45.898,44.434,62.012,-18.066,0
1510145258.007,60.547,48.340,42.969,59.570,-37.109,0
1510145258.011,68.848,49.316,43.945,57.129,-17.090,0
1510145258.015,72.266,52.734,45.898,57.129,0.488,0
1510145258.018,75.195,59.082,46.387,65.918,28.809,0
1510145258.022,73.242,59.082,49.316,71.777,12.207,0
1510145258.026,64.453,56.152,49.316,68.848,-57.129,0
1510145258.030,68.359,55.176,49.805,64.453,-35.156,0
1510145258.034,71.777,56.152,52.246,71.289,7.812,0
1510145258.038,70.312,52.734,53.223,73.730,-38.086,0
1510145258.042,66.895,50.781,52.734,65.918,-18.066,0
1510145258.046,62.988,50.781,54.199,64.453,-0.488,0
1510145258.050,61.523,47.852,54.199,66.406,-18.555,0
1510145258.054,62.988,49.805,53.711,70.312,20.020,0
1510145258.058,58.594,51.270,55.176,70.312,7.324,0
1510145258.061,58.105,53.711,54.199,56.641,24.902,0
1510145258.065,62.012,52.246,50.293,51.270,28.320,0
1510145258.069,58.594,48.828,49.805,55.176,12.207,0
1510145258.073,47.363,48.340,48.340,55.176,68.848,0
1510145258.077,35.645,46.875,47.363,58.105,74.219,0
1510145258.081,38.086,45.410,47.852,56.641,31.738,0
1510145258.085,42.480,44.434,49.805,51.758,16.113,0
1510145258.089,47.852,44.434,49.316,47.363,11.230,0
1510145258.093,52.734,46.387,48.828,43.457,40.527,0
1510145258.097,55.664,45.410,48.828,48.828,28.809,0
1510145258.100,55.664,43.945,51.270,59.570,9.766,0
1510145258.104,50.293,47.363,51.270,60.547,41.992,0
1510145258.108,54.688,46.387,50.293,62.988,9.277,0
1510145258.112,61.035,43.457,49.316,58.105,-11.230,0
1510145258.116,51.270,42.480,48.340,60.547,36.621,0
1510145258.120,38.574,39.551,49.805,63.965,21.484,0
1510145258.124,32.227,39.551,48.828,55.664,-0.488,0
1510145258.128,39.551,40.527,48.340,49.805,17.090,0
1510145258.132,51.758,43.945,49.316,47.363,8.789,0
1510145258.136,48.828,44.922,51.270,48.340,49.316,0
1510145258.140,46.875,44.922,54.688,54.199,112.793,0
1510145258.143,45.410,45.410,55.176,58.594,120.117,0
1510145258.147,41.504,41.504,51.758,57.617,52.734,0
1510145258.151,41.016,38.574,48.340,56.152,110.352,0
1510145258.155,41.016,41.504,47.852,51.270,130.859,0
1510145258.159,50.781,41.504,50.293,46.875,72.754,0
1510145258.163,58.105,38.574,50.781,45.410,91.309,0
1510145258.167,42.969,40.527,47.852,43.457,104.980,0
1510145258.171,36.621,43.945,48.340,46.875,109.863,0
1510145258.175,44.922,41.016,50.781,48.828,79.590,0
1510145258.179,42.480,38.574,49.805,47.363,69.824,0
1510145258.183,36.133,39.551,48.340,51.270,85.938,0
1510145258.186,31.738,39.551,49.805,57.129,72.266,0
1510145258.190,33.691,38.086,49.805,50.293,58.594,0
1510145258.194,43.457,36.133,44.434,44.922,45.410,0
1510145258.198,52.734,36.133,39.062,45.410,38.574,0
1510145258.202,65.918,41.016,38.574,42.969,58.105,0
1510145258.206,60.059,43.457,38.086,43.457,59.570,0
1510145258.210,34.180,42.480,37.109,43.945,136.719,0
1510145258.214,25.879,40.527,40.527,50.293,176.270,0
1510145258.218,35.645,39.062,46.875,60.547,106.445,0
1510145258.222,46.875,40.039,47.363,59.570,113.770,0
1510145258.225,58.105,42.480,46.387,55.664,184.570,0
1510145258.229,62.012,43.457,46.875,60.059,180.664,0
1510145258.233,60.059,42.480,46.387,63.965,131.836,0
1510145258.237,63.477,43.945,46.875,61.523,121.582,0
1510145258.241,71.777,45.410,48.340,58.105,115.234,0
1510145258.245,64.941,43.457,45.898,57.617,131.836,0
1510145258.249,45.898,41.016,42.969,55.176,103.027,0
1510145258.253,46.875,41.992,47.852,55.176,121.582,0
1510145258.257,52.246,39.062,47.852,50.781,248.047,0
1510145258.261,44.434,37.598,46.875,49.805,234.863,0
1510145258.265,30.273,38.086,48.828,56.641,163.574,0
1510145258.268,37.109,38.086,47.363,59.082,259.277,0
1510145258.272,53.223,41.992,52.246,56.152,294.434,0
1510145258.276,57.129,46.387,52.246,47.852,249.023,0
1510145258.280,53.711,44.434,51.758,56.641,246.094,0
1510145258.284,58.105,42.480,51.758,62.500,207.031,0
1510145258.288,59.570,44.922,46.875,56.641,223.633,0
1510145258.292,52.246,47.852,44.922,57.129,158.203,0
1510145258.296,47.363,46.875,44.922,56.152,71.289,0
1510145258.300,47.852,43.945,42.969,57.129,256.348,0
1510145258.304,43.457,46.387,41.992,56.152,225.586,0
1510145258.308,41.504,42.480,41.504,47.852,151.855,0
1510145258.311,41.504,38.574,35.156,40.039,178.711,0
1510145258.315,41.992,38.574,31.250,35.645,171.875,0
1510145258.319,41.504,37.109,32.715,40.039,187.988,0
1510145258.323,41.016,39.062,34.180,44.922,108.887,0
1510145258.327,43.457,37.598,35.156,50.293,122.559,0
1510145258.331,41.016,35.645,34.180,51.758,90.332,0
1510145258.335,45.410,36.133,36.133,52.246,-2.930,0
1510145258.339,51.758,34.668,37.598,57.617,-86.914,0
1510145258.343,55.176,35.156,36.621,53.223,-19.043,0
1510145258.347,51.758,33.203,37.598,47.852,96.680,0
1510145258.350,43.457,32.715,38.574,48.340,29.785,0
1510145258.354,41.016,35.645,40.039,52.734,-6.836,0
1510145258.358,39.062,32.715,37.109,49.805,31.738,0
1510145258.362,38.086,33.691,35.156,45.410,76.660,0
1510145258.366,36.621,35.645,34.668,38.574,42.480,0
1510145258.370,40.039,32.715,37.109,39.062,6.836,0
1510145258.374,32.715,35.645,35.156,38.574,-20.020,0
1510145258.378,42.969,35.156,30.762,39.551,-42.969,0
1510145258.382,61.523,36.133,33.203,48.340,-93.262,0
1510145258.386,64.453,38.574,32.715,46.387,-160.645,0
1510145258.390,51.270,39.551,35.156,48.340,-42.480,0
1510145258.393,30.273,38.086,37.109,50.781,23.926,0
1510145258.397,29.785,33.691,35.645,49.316,-82.520,0
1510145258.401,38.086,35.156,35.645,55.176,-82.520,0
1510145258.405,53.711,37.109,34.668,58.594,29.785,0
1510145258.409,61.523,38.086,32.715,48.340,37.598,0
1510145258.413,53.223,40.527,31.250,44.922,20.508,0
1510145258.417,50.781,40.039,35.156,52.734,23.926,0
1510145258.421,56.641,36.621,36.621,53.223,37.598,0
1510145258.425,48.828,36.133,35.156,53.223,-17.578,0
1510145258.429,43.945,40.039,39.551,57.129,-144.531,0
1510145258.433,45.410,40.527,40.527,58.105,-174.316,0
1510145258.436,47.852,41.016,42.480,52.734,-39.062,0
1510145258.440,47.363,42.969,40.039,45.898,-11.230,0
1510145258.444,47.363,40.039,28.809,40.039,-70.312,0
1510145258.448,51.758,37.598,25.879,41.504,11.719,0
1510145258.452,56.152,38.574,28.809,53.223,55.664,0
1510145258.456,54.199,37.109,29.785,56.152,16.602,0
1510145258.460,55.664,37.109,30.762,54.688,-7.812,0
1510145258.464,58.105,37.598,33.203,66.895,12.207,0
1510145258.468,58.105,41.016,35.156,69.824,38.574,0
1510145258.472,60.547,43.945,35.645,61.523,-41.504,0
1510145258.475,58.594,39.551,37.598,54.199,-120.117,0
1510145258.479,44.434,36.133,36.133,42.480,-43.457,0
1510145258.483,27.832,36.133,40.039,41.992,34.180,0
1510145258.487,26.367,37.109,43.945,49.805,-15.137,0
1510145258.491,33.691,39.062,40.039,49.805,-58.105,0
1510145258.495,39.551,36.133,39.062,47.363,10.254,0
1510145258.499,37.598,36.621,42.480,47.363,47.363,0
1510145258.503,41.504,40.039,41.504,53.223,-95.215,0
1510145258.507,46.387,39.062,44.434,54.199,-119.629,0
1510145258.511,36.621,34.180,47.363,50.293,53.223,0
1510145258.515,42.480,39.062,43.457,50.293,92.773,0
1510145258.518,51.270,42.969,42.480,47.363,-50.781,0
1510145258.522,48.340,36.133,43.457,49.805,-57.617,0
1510145258.526,53.223,39.551,43.457,52.246,141.113,0
1510145258.530,58.105,44.434,40.527,51.758,138.184,0
1510145258.534,64.453,36.621,40.039,57.617,65.430,0
1510145258.538,61.523,33.203,41.504,61.523,159.180,0
1510145258.542,54.688,34.180,40.039,57.617,233.887,0
1510145258.546,54.688,33.691,41.016,56.641,175.781,0
1510145258.550,47.363,31.738,40.039,55.664,126.465,0
1510145258.554,48.340,30.762,39.062,47.852,163.086,0
1510145258.558,47.363,30.762,42.480,45.410,231.445,0
1510145258.561,43.457,31.738,40.527,39.551,157.227,0
1510145258.565,33.691,31.738,36.621,37.109,94.238,0
1510145258.569,29.785,31.738,36.133,39.062,137.695,0
1510145258.573,35.645,32.227,32.227,35.156,208.984,0
1510145258.577,37.598,33.691,32.715,31.738,139.160,0
1510145258.581,39.551,33.691,35.156,39.062,51.758,0
1510145258.585,37.109,30.273,34.180,40.039,246.094,0
1510145258.589,34.180,32.227,34.180,39.551,321.289,0
1510145258.593,34.180,36.133,36.133,45.898,209.473,0
1510145258.597,41.016,34.668,33.691,41.992,225.586,0
1510145258.600,43.945,32.715,34.180,39.062,339.355,0
1510145258.604,34.668,33.203,38.574,50.781,337.402,0
1510145258.608,26.855,32.715,37.109,54.688,254.395,0
1510145258.612,28.809,31.738,37.598,49.316,200.684,0
1510145258.616,27.832,29.785,40.527,40.039,276.367,0
1510145258.620,28.809,28.320,42.480,41.016,338.867,0
1510145258.624,36.621,30.273,44.434,47.852,177.246,0
1510145258.628,48.828,33.691,41.016,40.527,229.980,0
1510145258.632,48.340,33.203,40.527,40.527,437.500,0
1510145258.636,33.203,33.691,38.574,42.969,354.004,0
1510145258.640,30.273,38.574,33.691,37.109,260.742,0
1510145258.643,39.551,38.574,31.738,45.410,406.738,0
1510145258.647,50.781,41.016,32.715,55.176,456.055,0
1510145258.651,48.828,40.527,29.297,55.176,376.953,0
1510145258.655,47.363,40.527,13.672,50.781,356.934,0
1510145258.659,52.246,40.039,3.906,51.758,334.473,0
1510145258.663,49.805,37.109,0.977,45.410,304.199,0
1510145258.667,45.410,36.621,0.977,39.551,240.234,0
1510145258.671,35.156,38.574,-3.418,48.340,197.754,0
1510145258.675,26.855,38.574,-3.418,46.875,356.934,0
1510145258.679,38.574,41.992,2.441,34.668,420.410,0
1510145258.683,51.270,44.922,3.418,32.715,305.176,0
1510145258.686,51.758,43.457,7.812,40.527,328.613,0
1510145258.690,41.992,47.852,13.184,47.852,449.707,0
1510145258.694,43.945,46.875,18.555,60.059,415.039,0
1510145258.698,50.293,43.457,20.508,57.617,364.258,0
1510145258.702,53.711,47.852,20.508,47.852,395.508,0
1510145258.706,57.129,48.340,21.484,52.734,361.328,0
1510145258.710,48.828,45.410,23.926,59.082,318.359,0
1510145258.714,51.758,47.852,27.344,59.082,214.355,0
1510145258.718,52.734,46.387,27.344,56.152,244.629,0
1510145258.722,50.781,43.457,27.832,54.688,397.461,0
1510145258.725,61.035,43.945,28.809,49.805,340.332,0
1510145258.729,61.523,40.527,31.250,50.293,287.109,0
1510145258.733,51.270,39.551,33.203,49.316,372.070,0
1510145258.737,34.668,37.598,32.715,47.363,413.574,0
1510145258.741,37.109,39.062,33.691,59.570,305.176,0
1510145258.745,43.457,37.598,39.062,54.688,233.398,0
1510145258.749,31.738,30.762,41.016,45.898,356.934,0
1510145258.753,33.691,32.715,36.133,52.734,308.594,0
1510145258.757,49.316,35.156,37.109,53.223,118.164,0
1510145258.761,47.363,36.621,38.574,52.734,101.562,0
1510145258.765,43.457,37.598,35.156,57.129,271.484,0
1510145258.768,48.340,34.668,35.645,57.617,294.922,0
1510145258.772,38.574,33.203,38.086,52.734,237.793,0
1510145258.776,36.621,35.156,36.621,53.711,221.680,1
1510145258.780,40.039,32.715,33.203,43.457,228.516,0
1510145258.784,39.551,32.715,31.738,35.645,205.566,0
1510145258.788,34.180,35.645,34.180,43.945,124.512,0
1510145258.792,35.156,35.156,35.156,51.270,122.070,0
1510145258.796,42.480,35.645,34.668,52.246,165.527,0
1510145258.800,34.668,35.645,35.645,51.270,91.797,0
1510145258.804,36.621,37.109,32.715,48.340,-74.219,0
1510145258.808,42.480,33.203,33.203,46.875,-58.594,0
1510145258.811,37.598,27.832,35.645,50.781,100.586,0
1510145258.815,35.645,29.785,33.203,53.223,41.016,0
1510145258.819,36.133,33.691,33.203,49.316,-101.562,0
1510145258.823,45.410,37.598,38.086,39.062,-25.391,0
1510145258.827,56.641,39.551,44.434,45.410,30.762,0
1510145258.831,42.969,37.598,44.922,52.246,-57.129,0
1510145258.835,36.621,39.062,45.898,51.758,-94.238,0
1510145258.839,34.180,38.086,45.898,54.688,-59.082,0
1510145258.843,33.203,32.715,40.039,61.523,-45.898,0
1510145258.847,51.758,31.738,38.086,56.641,-127.930,0
1510145258.850,63.477,35.645,38.574,42.480,-222.168,0
1510145258.854,53.223,40.039,37.109,41.504,-156.738,0
1510145258.858,40.039,36.621,38.574,46.387,-66.406,0
1510145258.862,37.109,38.574,41.992,47.852,-220.703,0
1510145258.866,32.715,41.016,45.410,49.316,-378.906,0
1510145258.870,31.738,37.598,46.387,54.199,-243.164,0
1510145258.874,41.016,38.574,44.922,52.734,-187.500,0
1510145258.878,50.293,40.527,43.945,46.387,-275.879,0
1510145258.882,51.758,36.133,44.922,47.363,-257.324,0
1510145258.886,45.898,34.668,42.969,53.223,-205.566,0
1510145258.890,37.109,40.527,42.969,45.410,-267.578,0
1510145258.893,31.738,43.945,42.480,42.969,-358.887,0
1510145258.897,34.180,43.945,39.551,42.480,-391.113,0
1510145258.901,37.598,43.945,39.551,38.086,-327.148,0
1510145258.905,41.992,37.109,41.016,40.527,-375.488,0
1510145258.909,42.480,30.762,39.062,37.109,-555.176,0
1510145258.913,34.668,38.086,39.551,37.109,-467.285,0
1510145258.917,32.227,42.480,41.016,41.504,-284.180,0
1510145258.921,37.109,41.016,40.039,44.434,-356.934,0
1510145258.925,45.410,37.598,39.062,51.270,-453.613,0
1510145258.929,44.434,35.156,38.086,48.340,-360.840,0
1510145258.933,44.922,38.574,41.992,44.434,-298.828,0
1510145258.936,34.180,41.504,42.969,44.434,-314.453,0
1510145258.940,18.066,39.062,45.410,38.086,-355.957,0
1510145258.944,23.926,37.109,49.316,40.527,-362.793,0
1510145258.948,34.180,38.086,48.340,47.363,-271.484,0
1510145258.952,37.109,38.086,53.223,52.246,-366.211,0
1510145258.956,41.504,39.551,67.383,47.852,-455.078,0
1510145258.960,39.062,39.062,78.613,49.316,-242.676,0
1510145258.964,42.480,39.551,82.031,52.246,-254.883,0
1510145258.968,48.340,40.527,82.031,48.340,-319.824,0
1510145258.972,42.480,40.527,80.566,51.758,-240.723,0
1510145258.975,39.551,41.016,78.125,49.805,-169.922,0
1510145258.979,50.781,41.992,76.172,49.805,-179.199,0
1510145258.983,66.895,41.992,78.125,57.617,-253.906,0
1510145258.987,62.988,39.551,76.172,58.594,-266.602,0
1510145258.991,44.434,36.133,66.895,50.293,-244.629,0
1510145258.995,39.551,37.598,67.383,57.617,-219.727,0
1510145258.999,48.340,43.457,66.406,61.523,-291.504,0
1510145259.003,51.758,41.992,61.035,55.664,-232.422,0
1510145259.007,52.246,41.504,62.988,56.152,-81.543,0
1510145259.011,55.664,42.480,63.965,51.758,-111.328,0
1510145259.015,59.570,43.945,65.430,52.246,-135.742,0
1510145259.018,61.035,46.387,63.965,55.664,-31.250,0
1510145259.022,57.617,44.434,38.086,51.758,-20.508,0
1510145259.026,56.641,46.387,10.742,48.828,-128.906,0
1510145259.030,47.852,47.363,5.371,49.316,-92.285,0
1510145259.034,34.668,41.504,4.395,55.664,-49.805,0
1510145259.038,38.086,41.504,-1.953,59.570,-48.828,0
1510145259.042,41.016,41.504,-7.324,47.852,-107.910,0
1510145259.046,41.992,37.109,-11.230,41.992,-179.199,0
1510145259.050,40.039,29.297,-12.695,41.016,-5.859,0
1510145259.054,36.133,28.320,-10.742,40.527,98.145,0
1510145259.058,44.434,30.762,-9.766,45.898,74.219,0
1510145259.061,44.434,30.762,-7.812,48.340,50.781,0
1510145259.065,36.133,29.785,-6.348,52.246,92.285,0
1510145259.069,26.855,29.785,0.000,56.152,86.914,0
1510145259.073,20.020,32.715,3.418,55.176,59.082,0
1510145259.077,16.602,30.273,3.906,54.199,91.309,0
1510145259.081,18.555,30.762,3.418,49.316,43.457,0
1510145259.085,22.949,30.762,1.465,43.945,-4.395,0
1510145259.089,13.672,30.273,2.930,43.457,-96.680,0
1510145259.093,6.348,36.621,2.441,40.039,-25.879,0
1510145259.097,12.207,38.574,0.977,44.434,175.293,0
1510145259.100,18.555,36.621,5.371,53.223,93.262,0
1510145259.104,26.367,36.621,6.348,45.898,30.762,0
1510145259.108,30.762,39.551,6.348,38.574,160.645,0
1510145259.112,27.344,40.039,10.742,40.039,184.082,0
1510145259.116,28.809,36.133,11.719,45.410,147.461,0
1510145259.120,33.691,34.180,8.789,46.875,157.227,0
1510145259.124,33.203,36.133,11.230,47.852,157.715,0
1510145259.128,31.250,36.621,15.625,53.711,126.953,0
1510145259.132,24.414,31.738,13.184,50.293,36.133,0
1510145259.136,24.902,31.250,15.137,40.527,28.809,0
1510145259.140,27.832,27.832,20.020,45.410,174.805,0
1510145259.143,25.879,28.809,20.508,38.574,218.262,0
1510145259.147,34.668,32.715,18.555,29.297,135.254,0
1510145259.151,24.902,23.926,18.555,32.715,152.344,0
1510145259.155,14.648,20.996,17.090,31.738,278.809,0
1510145259.159,22.461,28.809,20.020,37.598,298.828,0
1510145259.163,17.090,32.715,23.926,47.363,257.812,0
1510145259.167,17.578,35.156,22.461,52.246,274.902,0
1510145259.171,22.949,35.645,23.438,55.176,313.965,0
1510145259.175,19.531,32.715,26.855,50.781,215.820,0
1510145259.179,17.578,34.180,30.273,41.016,155.273,0
1510145259.183,23.926,32.227,28.320,37.109,240.723,0
1510145259.186,29.785,24.414,28.320,47.852,312.012,0
1510145259.190,40.527,33.203,28.809,51.758,244.629,0
1510145259.194,37.598,41.504,26.367,46.875,89.844,0
1510145259.198,33.691,37.598,30.273,44.434,155.762,0
1510145259.202,29.785,37.598,30.273,43.945,241.211,0
1510145259.206,25.391,38.086,26.367,40.039,170.898,0
1510145259.210,28.320,33.203,26.367,31.250,137.695,0
1510145259.214,32.227,38.574,25.391,28.809,237.305,0
1510145259.218,33.203,43.457,22.949,36.133,294.434,0
1510145259.222,26.855,36.621,23.438,33.203,131.348,0
1510145259.225,20.996,38.574,24.414,26.855,37.598,0
1510145259.229,23.926,39.551,20.020,29.785,209.961,0
1510145259.233,24.414,34.668,20.996,16.113,288.574,0
1510145259.237,26.367,42.480,24.414,10.742,236.816,0
1510145259.241,23.438,41.992,22.461,17.578,219.727,0
1510145259.245,22.461,38.574,20.996,16.602,298.828,0
1510145259.249,30.273,40.039,19.043,12.695,295.898,0
1510145259.253,16.602,39.062,18.066,9.277,237.305,0
1510145259.257,-0.488,43.457,20.508,13.672,281.250,0
1510145259.261,8.301,52.734,18.555,13.672,264.648,0
1510145259.265,16.602,48.828,19.531,13.672,231.934,0
1510145259.268,13.672,41.016,19.531,14.160,89.844,0
1510145259.272,11.230,41.504,20.996,12.695,72.754,0
1510145259.276,16.113,36.621,19.043,13.184,300.293,0
1510145259.280,16.602,38.086,20.020,7.812,247.070,0
1510145259.284,6.836,31.738,22.461,7.324,108.887,0
1510145259.288,2.441,26.367,21.973,6.836,180.664,0
1510145259.292,11.230,40.527,22.949,1.465,246.582,0
1510145259.296,17.578,43.945,22.461,2.930,179.199,0
1510145259.300,18.066,41.992,23.926,11.719,144.531,0
1510145259.304,21.973,41.504,25.879,16.113,168.945,0
1510145259.308,27.832,41.504,27.832,13.672,157.715,0
1510145259.311,11.719,40.039,27.344,9.766,94.727,0
1510145259.315,-0.488,40.039,26.855,12.695,20.020,0
1510145259.319,10.742,41.016,27.344,21.973,4.395,0
1510145259.323,21.973,35.645,26.855,30.762,-10.742,0
1510145259.327,28.809,32.227,28.809,29.297,-117.676,0
1510145259.331,34.668,37.109,27.832,28.809,-157.715,0
1510145259.335,37.598,37.109,24.902,27.344,28.320,0
1510145259.339,30.273,35.645,28.320,21.973,80.078,0
1510145259.343,26.855,40.039,32.227,23.438,-62.012,0
1510145259.347,29.785,33.691,28.809,22.461,-43.945,0
1510145259.350,31.250,32.227,26.855,24.902,79.590,0
1510145259.354,39.551,39.062,26.855,28.320,64.453,0
1510145259.358,35.645,38.574,26.855,28.809,-46.387,0
1510145259.362,28.320,40.039,27.832,27.832,-83.008,0
1510145259.366,24.414,39.551,29.297,25.879,-31.738,0
1510145259.370,29.297,34.668,28.320,24.902,-33.203,0
1510145259.374,34.180,34.668,28.809,30.273,-156.738,0
1510145259.378,30.762,34.668,28.320,36.621,-137.695,0
1510145259.382,33.203,38.086,28.320,37.109,32.227,0
1510145259.386,46.387,42.480,30.762,41.504,-15.625,0
1510145259.390,57.617,41.504,30.762,37.598,-101.074,0
1510145259.393,43.945,35.156,31.250,30.273,6.836,0
1510145259.397,24.414,36.133,32.227,34.180,58.105,0
1510145259.401,25.879,44.434,26.367,33.203,0.488,0
1510145259.405,30.273,45.898,22.461,32.227,-14.648,0
1510145259.409,34.668,45.410,23.926,30.762,-59.570,0
1510145259.413,35.156,44.434,24.414,31.250,-55.176,0
1510145259.417,36.133,43.457,26.367,34.180,-105.469,0
1510145259.421,31.250,34.668,25.879,22.461,-155.273,0
1510145259.425,30.762,34.180,26.855,13.184,-14.648,0
1510145259.429,39.551,37.109,32.227,24.902,15.137,0
1510145259.433,37.598,38.574,34.180,32.227,-98.145,0
1510145259.436,37.109,41.504,36.621,36.133,-181.641,0
1510145259.440,39.551,40.039,33.203,39.062,-87.891,0
1510145259.444,38.086,38.086,32.715,41.504,-42.969,0
1510145259.448,44.922,40.039,35.645,45.410,-133.301,0
1510145259.452,42.480,41.992,34.668,41.016,-122.559,0
1510145259.456,41.016,41.016,33.691,49.316,-144.531,0
1510145259.460,53.711,44.922,32.227,58.105,-197.754,0
1510145259.464,58.105,49.805,36.621,58.105,-330.078,0
1510145259.468,62.012,54.199,35.156,52.734,-342.285,0
1510145259.472,62.012,54.688,31.738,52.734,-101.074,0
1510145259.475,57.617,46.387,35.645,59.082,-133.301,0
1510145259.479,50.293,46.387,34.668,52.246,-187.500,0
1510145259.483,49.805,46.387,31.250,41.992,-108.398,0
1510145259.487,51.270,50.293,30.762,33.203,-97.168,0
1510145259.491,45.410,46.387,32.227,29.297,-145.508,0
1510145259.495,40.527,32.715,33.203,31.738,-215.820,0
1510145259.499,31.250,35.156,35.156,32.227,-208.984,0
1510145259.503,28.809,41.016,37.109,31.738,-200.684,0
1510145259.507,34.668,38.086,38.086,38.086,-346.191,0
1510145259.511,42.969,39.062,41.504,41.992,-431.641,0
1510145259.515,44.922,45.410,41.504,41.016,-271.973,0
1510145259.518,45.410,48.340,42.480,50.781,-199.219,0
1510145259.522,51.270,46.875,41.504,54.199,-340.820,0
1510145259.526,47.852,46.387,39.062,42.969,-342.285,0
1510145259.530,47.363,45.898,39.062,44.434,-189.941,0
1510145259.534,54.199,44.434,36.621,51.758,-226.074,0
1510145259.538,45.410,48.828,34.180,42.480,-263.184,0
1510145259.542,41.016,49.316,33.203,35.156,-197.754,0
1510145259.546,46.387,43.457,32.227,42.480,-161.133,0
1510145259.550,37.598,40.039,32.227,54.199,-196.777,0
1510145259.554,45.410,39.062,35.156,51.270,-328.125,0
1510145259.558,58.105,34.180,37.598,38.086,-291.992,0
1510145259.561,44.434,40.039,34.668,36.621,-109.375,0
1510145259.565,36.133,44.922,31.250,37.109,-129.883,0
1510145259.569,40.039,43.945,32.715,38.574,-252.441,0
1510145259.573,46.875,46.387,38.574,41.016,-155.273,0
1510145259.577,42.480,45.410,42.480,43.945,-45.410,0
1510145259.581,46.387,45.410,38.086,41.016,-49.805,0
1510145259.585,46.875,44.922,40.527,41.992,-45.898,0
1510145259.589,52.734,44.434,42.969,40.039,-30.273,0
1510145259.593,63.477,43.945,42.480,40.527,21.484,0
1510145259.597,49.805,42.480,43.945,58.105,-83.008,0
1510145259.600,34.180,41.016,45.898,66.895,-147.461,0
1510145259.604,34.180,36.621,43.945,59.082,31.738,0
1510145259.608,41.992,37.109,42.480,49.316,96.680,0
1510145259.612,48.340,42.480,47.363,50.781,7.812,0
1510145259.616,49.805,43.457,45.898,61.523,-22.949,0
1510145259.620,49.316,40.527,45.898,63.477,102.051,0
1510145259.624,54.199,40.039,46.875,63.477,119.141,0
1510145259.628,55.176,41.992,45.410,64.941,52.734,0
1510145259.632,54.199,43.945,46.387,71.289,79.102,0
1510145259.636,53.711,44.434,47.363,66.406,152.832,0
1510145259.640,51.758,42.480,47.852,57.617,146.973,0
1510145259.643,57.617,39.551,47.363,54.688,84.473,0
1510145259.647,54.688,40.039,47.363,48.828,50.293,0
1510145259.651,45.898,38.574,45.410,48.828,117.188,0
1510145259.655,46.875,37.598,44.434,49.805,184.570,0
1510145259.659,44.922,39.551,45.410,54.199,36.621,0
1510145259.663,45.898,39.551,45.410,62.988,67.871,0
1510145259.667,51.270,41.504,44.922,61.523,208.984,0
1510145259.671,41.992,40.039,45.410,42.480,149.902,0
1510145259.675,38.086,41.016,44.922,40.527,98.145,0
1510145259.679,43.457,44.922,39.551,52.246,160.645,0
1510145259.683,47.363,43.457,40.039,54.688,208.984,0
1510145259.686,57.129,44.922,43.945,55.176,115.234,0
1510145259.690,65.430,46.387,44.434,54.199,39.062,0
1510145259.694,75.684,52.246,44.922,58.594,74.707,0
1510145259.698,66.406,55.176,44.922,67.871,141.602,0
1510145259.702,51.270,52.734,46.875,66.406,63.965,0
1510145259.706,56.152,52.734,49.805,59.082,-12.695,0
1510145259.710,62.500,49.805,45.898,55.664,192.383,0
1510145259.714,60.059,49.316,45.898,58.105,238.281,0
1510145259.718,54.199,47.852,47.363,60.059,136.230,0
1510145259.722,55.664,43.457,48.828,63.965,130.859,0
1510145259.725,48.828,33.203,55.664,74.219,186.523,0
1510145259.729,34.668,27.344,58.594,71.777,176.758,0
1510145259.733,28.809,31.250,57.129,55.176,104.004,0
1510145259.737,21.973,34.180,55.176,48.828,64.941,0
1510145259.741,32.715,32.715,54.688,58.105,108.398,0
1510145259.745,40.039,30.762,56.641,63.965,117.676,0
1510145259.749,33.691,31.738,58.105,63.477,-22.949,0
1510145259.753,44.434,34.180,55.176,59.082,20.996,0
1510145259.757,48.828,38.574,56.152,60.059,178.711,0
1510145259.761,39.062,37.598,60.059,63.965,101.074,0
1510145259.765,43.945,36.133,59.570,63.477,11.230,0
1510145259.768,53.711,36.621,57.129,58.105,121.582,0
1510145259.772,56.152,43.945,56.152,59.082,181.641,0
1510145259.776,66.406,51.270,59.082,70.801,120.605,0
1510145259.780,77.637,47.852,61.035,71.777,68.359,0
1510145259.784,82.031,47.852,57.617,71.777,20.996,0
1510145259.788,78.613,48.340,56.641,78.125,52.246,0
1510145259.792,81.055,50.781,57.129,83.008,-39.551,0
1510145259.796,88.379,56.152,57.617,83.984,-147.949,0
1510145259.800,91.797,54.199,56.152,91.309,20.996,0
1510145259.804,90.820,54.688,54.688,96.680,112.305,0
1510145259.808,88.379,61.035,55.176,96.191,3.418,0
1510145259.811,88.379,61.523,59.570,102.051,-11.719,0
1510145259.815,91.309,61.523,60.059,96.191,91.309,0
1510145259.819,94.238,63.965,57.617,83.496,58.105,0
1510145259.823,83.008,52.246,60.059,87.891,20.996,0
1510145259.827,67.383,42.480,63.477,92.285,83.496,0
1510145259.831,69.824,47.363,65.430,87.402,56.641,0
1510145259.835,72.266,40.039,62.500,78.125,0.977,0
1510145259.839,59.570,35.645,62.012,76.660,-89.844,0
1510145259.843,50.293,40.039,63.477,79.590,-41.504,0
1510145259.847,36.621,39.551,60.059,68.848,157.227,0
1510145259.850,48.340,38.086,60.059,60.059,74.707,0
1510145259.854,62.988,37.598,60.059,61.523,13.672,0
1510145259.858,54.688,35.645,59.082,67.871,89.355,0
1510145259.862,51.270,34.180,62.012,72.266,97.656,0
1510145259.866,46.875,39.551,60.059,73.242,7.812,0
1510145259.870,57.617,43.457,58.105,77.148,-43.945,0
1510145259.874,65.430,38.086,60.059,83.496,49.805,0
1510145259.878,65.918,42.480,60.547,85.449,31.738,0
1510145259.882,65.918,45.410,64.941,84.961,-96.680,0
1510145259.886,70.312,41.016,63.965,84.961,-135.742,0
1510145259.890,81.543,38.574,62.012,88.867,55.176,0
1510145259.893,83.984,41.016,62.012,89.355,118.164,0
1510145259.897,78.125,43.457,59.570,85.449,24.902,0
1510145259.901,77.148,42.480,59.570,90.820,31.250,0
1510145259.905,80.078,41.992,61.035,86.914,91.309,0
1510145259.909,73.730,42.969,58.594,75.684,46.875,0
1510145259.913,63.477,43.945,58.105,67.383,-64.941,0
1510145259.917,60.059,41.992,59.570,65.430,-4.395,0
1510145259.921,60.059,39.551,55.664,62.012,53.223,0
1510145259.925,53.223,38.574,51.758,58.594,-49.316,0
1510145259.929,51.758,35.645,50.781,63.477,-206.055,0
1510145259.933,60.547,35.156,50.293,63.965,-163.086,0
1510145259.936,56.641,39.551,50.293,63.965,9.766,0
1510145259.940,47.852,38.086,52.246,69.824,-34.668,0
1510145259.944,51.270,37.109,56.641,66.895,-98.633,0
1510145259.948,57.129,41.992,55.176,58.594,-61.523,0
1510145259.952,55.176,42.480,54.199,62.500,-49.805,0
1510145259.956,54.688,42.480,58.105,72.266,-75.195,0
1510145259.960,57.129,42.969,56.641,67.871,-95.215,0
1510145259.964,62.988,41.992,52.734,66.895,-41.016,0
1510145259.968,64.453,43.945,54.199,80.078,-64.941,0
1510145259.972,57.617,41.016,54.199,84.961,-223.633,0
1510145259.975,53.711,34.668,55.176,79.590,-225.586,0
1510145259.979,51.270,38.086,57.617,67.871,-101.562,0
1510145259.983,50.781,41.016,55.176,59.082,-43.945,0
1510145259.987,55.176,38.086,55.176,58.594,-171.875,0
1510145259.991,59.570,39.551,51.758,58.105,-271.973,0
1510145259.995,50.293,41.016,46.875,47.852,-104.004,0
1510145259.999,42.969,39.551,48.340,48.828,-43.457,0
1510145260.003,40.527,40.527,46.875,54.688,-129.883,0
1510145260.007,46.387,44.922,45.898,56.152,-125.488,0
1510145260.011,54.688,42.480,49.316,63.477,-38.574,0
1510145260.015,50.293,37.598,47.363,58.105,-25.879,0
1510145260.018,42.969,39.062,46.387,49.805,-104.980,0
1510145260.022,42.480,41.504,49.316,52.734,-139.160,0
1510145260.026,48.828,39.062,51.270,48.828,-72.266,0
1510145260.030,49.316,38.574,51.758,44.922,-99.609,2
1510145260.034,46.875,37.109,52.246,49.805,-254.883,0
1510145260.038,48.340,35.156,50.781,51.758,-172.363,0
1510145260.042,42.969,35.645,48.828,49.316,15.625,0
1510145260.046,46.387,35.645,49.316,55.664,-40.527,0
1510145260.050,48.340,38.086,48.828,61.035,-109.863,0
1510145260.054,52.246,41.504,46.875,60.059,15.137,0
1510145260.058,71.289,41.016,43.945,58.105,59.082,0
1510145260.061,75.195,39.551,42.480,57.129,-3.418,0
1510145260.065,67.383,41.504,43.457,60.059,-52.246,0
1510145260.069,62.988,43.945,45.410,65.918,-83.496,0
1510145260.073,55.176,44.434,47.852,69.824,-22.949,0
1510145260.077,56.152,44.922,49.316,69.336,-103.516,0
1510145260.081,61.035,44.922,50.781,70.312,-154.785,0
1510145260.085,48.828,42.969,50.781,63.477,-6.836,0
1510145260.089,28.809,38.574,49.805,54.199,-11.719,0
1510145260.093,25.391,34.668,48.340,54.688,-84.473,0
1510145260.097,24.902,34.180,47.852,53.223,-42.969,0
1510145260.100,26.855,33.691,46.387,48.828,65.430,0
1510145260.104,28.809,33.203,42.969,40.039,67.383,0
1510145260.108,20.020,36.133,41.992,28.320,14.160,0
1510145260.112,21.973,40.039,35.156,27.344,-24.902,0
1510145260.116,23.926,40.039,32.715,29.785,-21.484,0
1510145260.120,20.508,38.574,34.180,27.832,-31.250,0
1510145260.124,15.137,38.574,31.738,29.297,-149.414,0
1510145260.128,24.414,42.480,33.203,42.480,-53.223,0
1510145260.132,35.645,43.457,39.551,49.316,111.816,0
1510145260.136,38.086,38.574,39.551,44.434,34.668,0
1510145260.140,41.504,38.574,30.273,44.922,3.418,0
1510145260.143,33.203,42.969,30.273,55.176,95.215,0
1510145260.147,26.855,37.598,33.691,57.129,57.617,0
1510145260.151,31.250,35.645,31.738,52.734,-48.340,0
1510145260.155,23.438,38.574,31.738,54.199,-23.926,0
1510145260.159,20.996,36.621,35.645,56.152,8.301,0
1510145260.163,29.297,37.598,38.086,48.828,39.551,0
1510145260.167,29.297,41.016,39.062,44.434,-3.418,0
1510145260.171,31.738,40.039,39.551,45.410,-121.094,0
1510145260.175,34.668,38.086,38.574,40.039,13.672,0
1510145260.179,41.016,37.598,38.574,41.992,101.074,0
1510145260.183,54.199,41.992,39.551,44.922,70.801,0
1510145260.186,59.570,45.898,40.039,50.293,81.055,0
1510145260.190,50.293,45.898,41.016,62.500,110.840,0
1510145260.194,47.363,48.828,42.969,70.801,109.863,0
1510145260.198,59.082,50.781,42.480,75.684,90.332,0
1510145260.202,62.988,50.781,38.086,74.707,101.074,0
1510145260.206,54.199,45.410,37.598,62.012,56.641,0
1510145260.210,53.223,42.480,38.086,59.570,-3.906,0
1510145260.214,55.176,41.016,38.086,62.500,-125.977,0
1510145260.218,41.016,39.551,39.551,56.641,-68.848,0
1510145260.222,36.621,41.016,43.457,49.805,130.371,0
1510145260.225,43.945,37.109,44.434,46.387,54.688,0
1510145260.229,48.828,32.227,40.039,43.945,-44.434,0
1510145260.233,43.945,31.250,37.109,37.598,43.457,0
1510145260.237,32.227,33.691,39.062,29.785,116.699,0
1510145260.241,28.320,36.133,38.574,31.250,67.383,0
1510145260.245,34.668,36.133,38.574,33.203,35.645,0
1510145260.249,41.504,36.133,39.062,34.180,77.637,0
1510145260.253,41.504,35.645,39.551,42.969,53.223,0
1510145260.257,44.922,35.645,45.410,48.828,-69.336,0
1510145260.261,50.293,37.109,46.387,52.246,-82.031,0
1510145260.265,53.223,39.551,49.316,62.988,50.781,0
1510145260.268,60.547,41.992,54.199,74.219,120.605,0
1510145260.272,59.570,42.969,54.199,77.637,3.906,0
1510145260.276,54.688,39.062,54.688,76.172,-36.133,0
1510145260.280,47.363,35.645,56.152,72.266,127.441,0
1510145260.284,39.062,33.691,57.129,65.430,134.766,0
1510145260.288,41.992,38.574,55.664,65.430,88.379,0
1510145260.292,43.945,42.480,55.664,65.430,110.840,0
1510145260.296,45.410,40.527,54.199,57.129,132.812,0
1510145260.300,38.574,40.039,52.246,50.293,52.246,0
1510145260.304,33.691,45.898,53.223,49.805,19.043,0
1510145260.308,35.645,51.758,54.199,46.875,91.309,0
1510145260.311,38.086,51.758,55.664,41.016,134.277,0
1510145260.315,45.898,46.875,57.129,46.387,81.055,0
1510145260.319,44.434,45.410,56.152,48.828,-80.078,0
1510145260.323,37.598,45.898,53.223,45.410,-49.316,0
1510145260.327,38.574,44.434,49.805,51.758,88.867,0
1510145260.331,43.457,42.969,50.781,62.012,29.297,0
1510145260.335,48.828,40.039,50.781,58.594,-31.738,0
1510145260.339,46.875,39.551,46.875,52.734,88.379,0
1510145260.343,41.016,37.598,47.852,54.199,141.113,0
1510145260.347,37.109,36.621,47.363,53.711,-1.465,0
1510145260.350,37.598,41.504,44.434,54.688,-57.617,0
1510145260.354,41.016,40.039,42.969,57.129,136.719,0
1510145260.358,40.527,36.621,43.945,58.594,179.199,0
1510145260.362,44.922,37.109,43.457,55.664,83.496,0
1510145260.366,49.805,39.062,41.016,47.852,57.617,0
1510145260.370,48.828,38.086,41.504,46.875,119.141,0
1510145260.374,44.922,36.621,40.527,54.688,106.445,0
1510145260.378,40.039,36.133,38.086,55.664,46.875,0
1510145260.382,41.016,35.645,36.133,51.270,17.090,0
1510145260.386,46.875,33.203,33.691,48.828,27.344,0
1510145260.390,47.852,27.832,34.668,40.039,83.008,0
1510145260.393,38.574,29.297,29.785,27.344,-49.805,0
1510145260.397,29.785,27.832,23.926,23.926,-65.918,0
1510145260.401,27.832,22.949,22.461,22.949,91.309,0
1510145260.405,29.297,22.949,18.555,19.043,61.035,0
1510145260.409,23.926,21.973,17.090,22.461,-102.051,0
1510145260.413,15.625,23.438,18.555,28.809,-49.316,0
1510145260.417,17.578,25.391,21.484,36.133,104.980,0
1510145260.421,26.855,26.855,26.855,40.039,55.176,0
1510145260.425,32.227,24.414,34.668,44.434,28.809,0
1510145260.429,29.297,25.391,37.598,50.293,121.094,0
1510145260.433,37.109,28.809,35.156,52.246,145.508,0
1510145260.436,49.316,29.297,34.180,50.293,87.891,0
1510145260.440,55.176,33.691,35.156,50.781,17.578,0
1510145260.444,54.688,33.691,37.109,51.758,-6.836,0
1510145260.448,45.898,32.227,35.156,48.828,30.273,0
1510145260.452,51.270,33.691,35.156,53.711,-27.832,0
1510145260.456,62.988,32.715,38.086,59.082,-112.793,0
1510145260.460,64.941,31.250,40.039,57.129,38.086,0
1510145260.464,57.129,31.250,41.504,61.035,148.438,0
1510145260.468,51.270,27.344,42.969,65.430,28.320,0
1510145260.472,57.617,27.832,41.016,65.430,-4.883,0
1510145260.475,65.430,29.785,37.598,60.059,109.375,0
1510145260.479,74.707,28.809,35.156,50.781,103.027,0
1510145260.483,71.289,27.832,38.086,49.805,64.941,0
1510145260.487,61.523,28.320,38.574,52.734,31.250,0
1510145260.491,54.688,31.250,35.156,51.758,10.254,0
1510145260.495,47.852,33.691,35.645,54.199,19.531,0
1510145260.499,49.805,31.738,34.180,50.293,-115.234,0
1510145260.503,47.363,30.273,32.227,46.875,-82.031,0
1510145260.507,37.598,28.320,33.203,52.246,107.422,0
1510145260.511,35.156,29.785,37.598,50.781,47.363,0
1510145260.515,37.109,35.156,38.086,37.109,-35.156,0
1510145260.518,33.203,36.133,34.180,29.297,58.105,0
1510145260.522,36.133,35.156,29.785,31.738,107.910,0
1510145260.526,41.992,32.715,27.832,25.391,51.758,0
1510145260.530,39.551,29.785,30.273,26.855,34.668,3
1510145260.534,32.715,35.156,31.250,34.668,20.020,0
1510145260.538,26.367,35.645,32.227,39.062,52.246,0
1510145260.542,26.855,28.809,32.715,43.945,-23.438,0
1510145260.546,39.551,32.715,33.203,43.457,-98.145,0
1510145260.550,43.457,34.668,37.598,39.062,66.406,0
1510145260.554,39.551,31.738,37.598,43.457,111.328,0
1510145260.558,37.109,31.738,34.180,46.875,81.055,0
1510145260.561,43.945,32.715,40.527,50.293,23.926,0
1510145260.565,55.176,37.598,40.527,56.152,41.992,0
1510145260.569,54.688,34.668,40.527,50.293,65.430,0
1510145260.573,44.922,31.738,41.504,51.270,-8.301,0
1510145260.577,35.645,37.109,39.551,48.340,48.828,0
1510145260.581,22.461,39.062,39.062,35.156,62.500,0
1510145260.585,21.973,37.598,35.645,30.762,-21.484,0
1510145260.589,30.762,34.180,37.109,27.832,-126.465,0
1510145260.593,27.832,36.133,40.039,26.367,-55.176,0
1510145260.597,10.742,43.457,33.691,16.602,139.648,0
1510145260.600,5.859,45.410,30.273,11.230,77.148,0
1510145260.604,6.348,51.270,31.250,14.648,11.230,0
1510145260.608,2.441,56.641,30.273,17.090,83.496,0
1510145260.612,11.230,55.664,30.762,16.602,107.910,0
1510145260.616,10.742,58.105,31.738,10.254,55.176,0
1510145260.620,7.324,62.012,32.715,3.418,13.672,0
1510145260.624,2.930,62.012,31.738,3.418,17.578,0
1510145260.628,-4.883,62.500,27.832,-1.465,16.113,0
1510145260.632,-9.766,64.941,25.879,-6.348,-93.262,0
1510145260.636,-18.555,66.895,25.391,-3.906,-166.992,0
1510145260.640,-22.949,66.895,25.391,0.977,9.766,0
1510145260.643,-19.531,64.941,29.297,2.930,107.910,0
1510145260.647,-4.395,67.871,31.250,-1.465,11.230,0
1510145260.651,8.301,68.359,30.762,-8.789,-2.441,0
1510145260.655,14.648,65.918,32.227,-4.883,101.562,0
1510145260.659,15.625,59.570,38.574,4.883,92.285,0
1510145260.663,7.812,59.570,41.992,13.184,41.016,0
1510145260.667,7.324,54.688,39.062,19.531,40.527,0
1510145260.671,17.578,49.805,39.062,23.438,80.078,0
1510145260.675,27.832,50.781,37.598,25.879,42.480,0
1510145260.679,31.250,42.969,39.551,29.297,-152.344,0
1510145260.683,29.785,39.551,43.945,34.668,-125.000,0
1510145260.686,35.156,39.062,48.340,41.016,101.074,0
1510145260.690,42.969,39.062,55.176,51.270,61.523,0
1510145260.694,36.621,37.598,54.199,50.293,-42.969,0
1510145260.698,39.551,38.086,51.758,44.434,53.223,0
1510145260.702,55.664,34.668,51.758,52.734,112.793,0
1510145260.706,54.688,36.133,53.711,54.688,78.125,0
1510145260.710,51.270,37.598,57.129,55.176,42.480,0
1510145260.714,56.641,30.762,55.664,55.176,78.125,0
1510145260.718,52.246,35.156,53.711,60.547,87.402,0
1510145260.722,52.246,38.086,53.223,61.523,-54.688,0
1510145260.725,55.664,35.645,55.176,58.594,-94.727,0
1510145260.729,56.152,35.156,55.176,67.383,34.180,0
1510145260.733,53.711,36.133,56.152,70.312,98.145,0
1510145260.737,59.570,36.133,56.152,71.289,-37.109,0
1510145260.741,64.941,36.133,53.223,71.289,-87.402,0
1510145260.745,59.082,34.668,53.223,67.871,106.934,0
1510145260.749,52.246,33.691,52.734,62.012,85.938,0
1510145260.753,48.828,35.156,50.781,55.176,13.672,0
1510145260.757,48.340,36.133,54.199,57.617,47.363,0
1510145260.761,49.316,35.645,55.176,65.430,83.984,0
1510145260.765,54.199,32.227,55.176,69.336,65.430,0
1510145260.768,52.734,35.645,57.617,66.406,7.812,0
1510145260.772,54.199,43.945,57.617,64.453,-8.301,0
1510145260.776,65.430,45.898,58.105,69.336,60.059,0
1510145260.780,63.477,38.086,62.500,71.777,70.801,0
1510145260.784,54.199,35.645,63.477,70.801,-105.469,0
1510145260.788,59.570,40.039,62.988,76.172,-36.133,0
1510145260.792,69.336,36.133,63.477,82.520,142.578,0
1510145260.796,61.035,26.855,59.570,80.078,62.988,0
1510145260.800,59.570,29.785,54.199,75.195,0.977,0
1510145260.804,67.383,32.715,56.152,74.219,96.680,0
1510145260.808,62.988,35.156,59.082,75.195,160.156,0
1510145260.811,46.875,35.645,60.547,69.336,75.684,0
1510145260.815,43.945,38.574,59.082,62.500,-1.953,0
1510145260.819,59.570,40.527,59.082,68.359,34.180,0
1510145260.823,59.570,40.039,64.453,80.566,115.723,0
1510145260.827,54.688,42.480,62.988,81.543,23.438,0
1510145260.831,60.547,42.969,57.617,72.754,-62.500,0
1510145260.835,67.383,41.016,56.641,65.430,85.938,0
1510145260.839,73.730,40.039,56.152,67.871,136.719,0
1510145260.843,58.594,40.039,53.223,72.754,108.887,0
1510145260.847,44.434,39.062,52.246,64.453,109.375,0
1510145260.850,54.688,37.598,53.223,62.988,159.180,0
1510145260.854,52.734,36.133,51.270,65.430,139.160,0
1510145260.858,45.410,37.598,50.781,63.965,51.270,0
1510145260.862,54.199,37.598,51.758,65.918,53.711,0
1510145260.866,57.129,35.645,55.176,70.801,83.984,0
1510145260.870,54.688,33.203,60.059,67.383,72.754,0
1510145260.874,51.270,30.273,55.664,56.152,-42.480,0
1510145260.878,34.668,30.273,51.270,56.641,28.320,0
1510145260.882,33.691,32.227,52.246,59.570,193.359,0
1510145260.886,44.922,33.203,52.246,53.711,129.883,0
1510145260.890,47.852,36.133,52.734,47.363,90.820,0
1510145260.893,50.293,37.598,52.246,47.852,162.598,0
1510145260.897,48.828,37.109,51.270,52.246,199.707,0
1510145260.901,51.758,39.062,53.223,54.688,134.277,0
1510145260.905,47.852,40.039,52.734,51.270,94.238,0
1510145260.909,35.645,38.086,46.875,47.852,70.801,0
1510145260.913,41.016,38.086,49.805,52.734,47.852,0
1510145260.917,49.805,36.133,53.711,52.734,8.301,0
1510145260.921,41.016,31.738,50.781,52.734,30.762,0
1510145260.925,40.039,34.668,52.246,56.152,138.672,0
1510145260.929,57.129,39.551,54.199,56.641,183.105,0
1510145260.933,50.781,36.621,55.664,60.547,20.996,0
1510145260.936,28.320,34.180,54.199,54.199,-55.664,0
1510145260.940,24.414,32.227,50.293,39.551,141.113,0
1510145260.944,31.250,33.203,46.875,41.016,149.902,0
1510145260.948,32.715,28.809,43.945,42.969,67.871,0
1510145260.952,35.645,28.320,44.434,42.969,98.633,0
1510145260.956,45.898,31.250,45.898,47.363,109.375,0
1510145260.960,43.457,32.227,45.898,42.969,59.570,0
1510145260.964,47.852,32.227,42.969,35.645,-15.137,0
1510145260.968,45.898,26.367,41.992,44.922,58.105,0
1510145260.972,39.062,24.902,42.480,57.617,190.430,0
1510145260.975,48.340,28.320,41.992,60.547,75.684,0
1510145260.979,45.898,27.832,41.992,57.617,62.500,0
1510145260.983,42.969,27.344,39.551,51.270,193.848,0
1510145260.987,50.293,31.250,36.133,52.246,226.074,0
1510145260.991,49.805,32.715,37.109,56.641,94.727,0
1510145260.995,37.598,34.668,38.574,51.758,68.848,0
1510145260.999,27.832,37.109,39.062,51.270,182.129,0
1510145261.003,29.297,37.109,41.016,54.688,132.324,0
1510145261.007,30.762,36.133,41.504,55.176,-3.906,0
1510145261.011,35.156,40.527,41.992,49.316,-33.691,0
1510145261.015,32.715,42.480,41.016,38.574,135.254,0
1510145261.018,30.273,40.039,43.945,34.180,201.172,0
1510145261.022,28.320,39.551,46.387,32.715,137.695,0
1510145261.026,19.043,37.109,40.527,30.273,140.137,0
1510145261.030,17.578,33.691,37.109,27.344,205.078,4
1510145261.034,28.809,33.691,37.598,22.461,147.461,0
1510145261.038,34.180,35.156,39.551,31.738,75.684,0
1510145261.042,18.555,32.227,39.551,41.016,141.113,0
1510145261.046,17.578,31.738,38.086,40.527,159.668,0
1510145261.050,34.668,34.668,39.551,34.180,101.074,0
1510145261.054,29.785,33.691,39.551,34.668,-24.902,0
1510145261.058,27.832,33.203,41.016,42.969,11.719,0
1510145261.061,37.109,35.156,39.062,44.922,223.145,0
1510145261.065,37.598,36.621,38.574,41.504,178.711,0
1510145261.069,41.016,35.156,41.504,40.039,110.352,0
1510145261.073,44.434,35.156,40.039,41.504,201.172,0
1510145261.077,41.504,35.645,38.086,38.574,232.910,0
1510145261.081,32.227,29.297,35.156,37.598,152.344,0
1510145261.085,37.598,29.297,32.715,42.480,138.672,0
1510145261.089,39.551,29.297,30.273,37.109,197.266,0
1510145261.093,36.133,31.738,26.367,33.203,144.043,0
1510145261.097,50.293,34.668,26.367,40.039,39.551,0
1510145261.100,63.965,34.668,26.367,41.016,55.176,0
1510145261.104,50.781,32.227,25.391,45.410,166.992,0
1510145261.108,30.273,31.250,25.391,55.176,207.520,0
1510145261.112,28.809,31.738,23.438,49.805,52.734,0
1510145261.116,35.156,33.691,21.484,41.992,-46.387,0
1510145261.120,38.086,37.598,20.996,40.527,152.344,0
1510145261.124,38.086,38.574,21.973,38.086,185.059,0
1510145261.128,39.551,36.621,23.926,33.203,54.688,0
1510145261.132,38.574,38.086,23.926,30.273,61.523,0
1510145261.136,36.621,36.133,23.926,31.738,173.340,0
1510145261.140,32.715,29.297,26.367,32.715,147.949,0
1510145261.143,21.484,24.414,25.391,31.738,65.430,0
1510145261.147,23.926,22.461,25.391,36.621,21.973,0
1510145261.151,34.668,29.297,29.785,42.480,40.527,0
1510145261.155,30.273,32.227,29.297,40.527,42.969,0
1510145261.159,24.414,25.879,25.391,41.992,-115.723,0
1510145261.163,18.555,23.926,23.438,38.086,-43.457,0
1510145261.167,24.414,28.320,21.973,33.203,204.102,0
1510145261.171,38.574,28.809,22.461,32.715,150.391,0
1510145261.175,29.785,25.391,21.484,25.391,68.359,0
1510145261.179,22.461,30.762,18.555,25.391,187.500,0
1510145261.183,30.762,35.645,15.625,25.879,235.352,0
1510145261.186,28.809,37.109,18.555,23.926,171.875,0
1510145261.190,21.973,38.574,18.555,27.344,112.793,0
1510145261.194,17.090,34.668,15.625,26.855,107.422,0
1510145261.198,17.578,31.250,16.113,28.320,191.895,0
1510145261.202,28.320,34.668,14.648,27.344,120.117,0
1510145261.206,35.645,35.156,18.066,22.461,19.531,0
1510145261.210,36.133,32.715,21.484,20.020,113.770,0
1510145261.214,30.762,32.227,20.508,19.531,119.141,0
1510145261.218,30.273,31.738,19.531,18.555,54.688,0
1510145261.222,31.738,28.809,23.438,23.926,80.078,0
1510145261.225,26.855,24.902,30.273,27.344,203.613,0
1510145261.229,23.438,26.367,28.320,25.391,208.496,0
1510145261.233,23.438,29.297,28.809,27.832,160.156,0
1510145261.237,23.926,26.367,33.203,33.203,119.629,0
1510145261.241,26.367,28.320,34.180,38.574,118.652,0
1510145261.245,32.227,32.227,33.691,41.504,141.113,0
1510145261.249,38.574,28.809,31.250,33.203,2.441,0
1510145261.253,43.457,32.227,26.367,26.855,44.434,0
1510145261.257,36.621,35.156,24.414,29.297,183.105,0
1510145261.261,28.809,34.668,28.809,31.250,85.449,0
1510145261.265,24.902,29.785,26.855,26.367,123.535,0
1510145261.268,22.949,24.414,24.414,22.949,176.758,0
1510145261.272,19.043,28.320,23.926,20.996,107.910,0
1510145261.276,18.555,28.809,22.461,11.230,75.684,0
1510145261.280,19.043,25.391,22.461,13.184,91.309,0
1510145261.284,24.414,28.320,20.996,19.043,106.934,0
1510145261.288,30.762,29.785,15.625,14.160,124.023,0
1510145261.292,31.738,32.715,12.695,11.230,61.035,0
1510145261.296,36.133,38.086,13.184,15.137,-39.551,0
1510145261.300,26.855,39.062,13.184,20.020,137.207,0
1510145261.304,23.926,35.156,16.602,19.531,217.285,0
1510145261.308,32.715,32.227,16.113,20.508,160.645,0
1510145261.311,38.086,34.668,15.625,26.855,151.855,0
1510145261.315,45.898,35.645,21.484,28.809,201.660,0
1510145261.319,46.387,29.297,23.438,29.297,195.312,0
1510145261.323,31.250,28.809,25.879,24.414,130.859,0
1510145261.327,20.020,34.668,28.809,19.531,175.781,0
1510145261.331,32.227,36.133,32.715,24.902,153.809,0
1510145261.335,35.156,27.832,35.156,36.133,89.355,0
1510145261.339,30.762,19.043,35.645,36.133,-25.391,0
1510145261.343,37.109,26.367,35.645,38.086,22.461,0
1510145261.347,38.574,36.621,36.621,47.363,221.680,0
1510145261.350,42.480,41.504,36.133,47.852,174.805,0
1510145261.354,41.504,45.898,36.621,41.016,64.941,0
1510145261.358,42.969,45.410,38.086,35.645,139.648,0
1510145261.362,46.387,45.410,35.156,37.109,246.094,0
1510145261.366,48.828,41.992,34.180,41.016,181.152,0
1510145261.370,41.992,35.156,34.180,41.992,131.348,0
1510145261.374,40.527,32.227,32.227,41.504,187.988,0
1510145261.378,47.852,33.203,32.715,38.086,153.320,0
1510145261.382,37.598,34.180,36.621,36.621,25.879,0
1510145261.386,22.949,26.855,38.574,36.621,-17.090,0
1510145261.390,36.621,29.785,39.062,40.039,92.773,0
1510145261.393,46.387,38.086,41.504,44.922,168.945,0
1510145261.397,33.203,33.203,37.109,40.039,115.723,0
1510145261.401,24.414,31.738,40.527,38.086,114.746,0
1510145261.405,23.438,31.250,42.969,41.016,224.121,0
1510145261.409,26.367,35.645,41.504,38.574,217.773,0
1510145261.413,37.109,40.527,40.527,38.574,104.492,0
1510145261.417,51.270,40.039,39.062,41.016,134.277,0
1510145261.421,54.688,42.480,39.551,43.945,229.004,0
1510145261.425,41.016,45.898,39.062,53.711,141.602,0
1510145261.429,35.645,43.945,40.039,57.617,-31.738,0
1510145261.433,43.457,42.480,44.434,57.129,-4.883,0
1510145261.436,49.805,45.410,42.969,54.688,168.945,0
1510145261.440,53.223,44.922,39.551,44.922,130.371,0
1510145261.444,51.758,43.945,42.480,42.480,99.609,0
1510145261.448,48.340,43.945,45.410,47.852,125.000,0
1510145261.452,52.734,42.969,48.828,49.805,147.461,0
1510145261.456,59.570,41.992,47.852,46.875,120.605,0
1510145261.460,58.594,45.898,44.434,36.621,33.691,0
1510145261.464,54.688,47.852,46.387,36.133,121.094,0
1510145261.468,50.293,47.852,49.316,46.387,140.625,0
1510145261.472,41.504,43.457,43.945,52.246,-12.207,0
1510145261.475,41.992,43.457,39.551,50.293,-41.504,0
1510145261.479,46.387,46.387,43.457,42.480,103.027,0
1510145261.483,48.340,39.062,45.410,47.852,148.926,0
1510145261.487,58.594,40.039,43.945,52.734,55.664,0
1510145261.491,59.082,41.016,44.434,48.828,32.715,0
1510145261.495,34.180,35.156,44.434,50.781,128.906,0
1510145261.499,30.762,39.062,44.922,57.129,130.859,0
1510145261.503,36.133,41.016,41.016,58.105,84.473,0
1510145261.507,37.598,38.086,39.062,54.688,19.043,0
1510145261.511,44.434,36.621,37.598,43.457,62.500,0
1510145261.515,41.504,34.180,37.109,38.574,118.652,0
1510145261.518,37.598,33.691,37.598,48.340,-8.789,0
1510145261.522,40.527,37.109,38.574,47.852,-59.570,0
1510145261.526,38.086,36.621,36.621,39.551,65.918,0
1510145261.530,40.039,36.133,35.156,36.621,66.895,0
1510145261.534,41.504,37.598,34.180,38.086,-69.824,5
1510145261.538,25.879,41.016,31.250,42.480,-18.066,0
1510145261.542,28.809,45.898,28.809,42.480,75.684,0
1510145261.546,42.969,44.434,27.832,34.180,38.086,0
1510145261.550,44.434,37.598,26.855,23.926,9.277,0
1510145261.554,41.992,38.574,29.297,29.297,50.293,0
1510145261.558,40.039,40.039,35.645,38.574,81.055,0
1510145261.561,39.062,39.062,37.598,46.875,52.246,0
1510145261.565,37.109,38.574,35.645,48.340,-40.039,0
1510145261.569,36.133,41.016,34.180,46.387,-80.078,0
1510145261.573,37.109,34.668,39.062,44.434,-61.523,0
1510145261.577,54.688,30.273,40.527,47.363,-153.320,0
1510145261.581,70.312,41.016,38.086,44.922,-204.102,0
1510145261.585,66.406,43.945,37.109,30.762,-37.109,0
1510145261.589,64.941,39.551,38.574,38.086,60.547,0
1510145261.593,58.105,36.621,41.016,48.340,-62.012,0
1510145261.597,40.039,34.180,41.992,53.711,-85.449,0
1510145261.600,38.086,32.715,42.969,68.359,4.883,0
1510145261.604,40.527,34.668,43.457,73.730,-19.531,0
1510145261.608,39.062,35.156,42.480,69.824,-39.062,0
1510145261.612,43.945,35.156,43.945,63.965,-106.934,0
1510145261.616,34.668,30.762,38.086,45.410,-96.191,0
1510145261.620,22.949,33.203,30.762,39.551,-45.410,0
1510145261.624,15.625,36.133,27.832,35.156,-208.984,0
1510145261.628,10.742,37.109,25.879,24.414,-185.547,0
1510145261.632,11.230,33.203,21.973,19.531,-4.395,0
1510145261.636,0.977,31.738,17.578,9.277,-73.730,0
1510145261.640,-0.977,36.133,14.648,0.488,-150.879,0
1510145261.643,5.859,30.762,8.301,-13.184,-32.715,0
1510145261.647,15.137,30.762,9.766,-9.277,30.273,0
1510145261.651,16.113,41.504,14.160,6.836,-77.637,0
1510145261.655,12.695,41.016,18.555,16.602,-127.441,0
1510145261.659,24.414,40.039,16.602,24.902,-77.637,0
1510145261.663,38.574,44.922,14.648,25.391,-29.785,0
1510145261.667,40.527,46.387,23.438,24.414,-80.078,0
1510145261.671,31.738,42.480,26.855,22.949,-163.574,0
1510145261.675,36.133,44.434,31.250,25.391,15.137,0
1510145261.679,41.504,50.293,34.180,30.762,38.574,0
1510145261.683,29.297,46.875,33.691,31.250,-84.961,0
1510145261.686,29.785,44.434,35.645,29.785,-23.438,0
1510145261.690,36.133,42.969,37.109,26.855,49.316,0
1510145261.694,29.785,35.156,37.109,17.090,38.574,0
1510145261.698,27.832,37.109,36.133,15.625,-38.574,0
1510145261.702,35.156,43.457,32.227,20.996,-64.453,0
1510145261.706,45.410,40.527,34.668,26.367,-51.270,0
1510145261.710,47.363,38.086,38.574,36.133,-106.934,0
1510145261.714,40.527,37.109,36.133,37.598,-225.098,0
1510145261.718,45.898,33.203,32.227,33.691,-140.625,0
1510145261.722,46.875,33.691,33.691,36.621,24.414,0
1510145261.725,38.086,42.480,34.668,38.574,-59.570,0
1510145261.729,36.133,36.621,32.715,42.969,-102.051,0
1510145261.733,31.250,24.902,28.320,44.922,-41.992,0
1510145261.737,38.574,23.926,25.391,38.086,-5.371,0
1510145261.741,43.457,42.969,24.414,35.156,-88.379,0
1510145261.745,32.715,42.969,19.531,29.785,-148.926,0
1510145261.749,33.203,38.574,17.090,26.855,-71.777,0
1510145261.753,41.504,53.711,18.555,26.367,-95.215,0
1510145261.757,41.992,48.828,12.695,20.996,-250.977,0
1510145261.761,54.688,50.293,12.207,18.066,-329.590,0
1510145261.765,49.316,45.410,20.020,15.625,-166.016,0
1510145261.768,20.508,36.133,19.531,21.973,-68.359,0
1510145261.772,7.812,45.410,17.578,24.902,-181.152,0
1510145261.776,14.648,51.758,20.508,17.578,-197.754,0
1510145261.780,22.461,41.992,20.020,24.414,-105.469,0
1510145261.784,27.344,41.016,19.043,27.832,-120.605,0
1510145261.788,33.203,45.410,19.043,20.020,-165.039,0
1510145261.792,36.133,41.992,19.043,17.578,-142.578,0
1510145261.796,38.574,42.480,24.902,23.926,-89.844,0
1510145261.800,39.551,36.621,28.320,22.461,-166.016,0
1510145261.804,41.992,35.156,30.273,19.531,-353.516,0
1510145261.808,48.828,38.574,34.668,24.902,-285.645,0
1510145261.811,54.688,36.621,36.621,31.738,-78.613,0
1510145261.815,43.457,37.598,35.156,37.109,-134.277,0
1510145261.819,32.715,38.086,37.598,37.598,-235.840,0
1510145261.823,42.480,34.180,41.504,40.039,-146.973,0
1510145261.827,55.664,38.086,37.109,37.598,-59.570,0
1510145261.831,48.340,39.062,31.738,24.902,-118.652,0
1510145261.835,33.691,34.668,31.250,28.320,-138.672,0
1510145261.839,32.715,36.621,34.180,37.598,-60.547,0
1510145261.843,41.016,35.645,34.668,35.645,-30.273,0
1510145261.847,48.828,33.691,33.691,34.668,-190.430,0
1510145261.850,46.875,34.180,34.180,39.062,-244.141,0
1510145261.854,41.016,35.156,34.668,37.109,-81.543,0
1510145261.858,33.691,36.133,32.227,29.297,-17.090,0
1510145261.862,29.297,35.645,30.762,28.809,-161.133,0
1510145261.866,33.691,33.203,32.227,27.344,-220.215,0
1510145261.870,41.992,34.180,34.180,30.273,-35.156,0
1510145261.874,36.133,38.574,29.297,36.621,-1.465,0
1510145261.878,33.203,37.598,28.320,37.109,-40.039,0
1510145261.882,41.016,40.039,29.785,26.367,-14.648,0
1510145261.886,43.945,41.504,27.344,26.367,20.996,0
1510145261.890,49.316,32.715,28.809,32.715,-38.574,0
1510145261.893,56.152,31.738,30.762,37.598,-86.426,0
1510145261.897,45.898,40.039,28.320,39.551,-70.801,0
1510145261.901,34.180,46.387,29.297,36.621,7.812,0
1510145261.905,42.480,45.410,30.762,34.180,16.113,0
1510145261.909,46.875,41.992,31.250,35.156,-182.129,0
1510145261.913,47.363,40.039,31.250,37.598,-122.559,0
1510145261.917,50.293,41.504,27.832,34.180,59.570,0
1510145261.921,48.340,38.086,26.367,29.297,-3.418,0
1510145261.925,39.551,25.391,27.832,33.691,-28.809,0
1510145261.929,34.668,30.762,31.738,38.574,55.664,0
1510145261.933,34.668,38.574,35.156,39.062,47.363,0
1510145261.936,33.691,37.598,38.086,31.250,-19.043,0
1510145261.940,32.715,33.691,35.645,18.066,-69.824,0
1510145261.944,27.344,31.738,33.691,10.254,-51.270,0
1510145261.948,25.391,32.227,36.133,17.578,62.012,0
1510145261.952,23.926,30.762,37.109,28.320,-8.789,0
1510145261.956,28.809,22.461,37.109,25.879,-116.699,0
1510145261.960,35.645,21.973,37.598,29.785,60.059,0
1510145261.964,31.738,38.086,38.574,35.645,100.098,0
1510145261.968,22.949,45.410,36.133,34.180,41.016,0
1510145261.972,17.578,37.109,34.180,31.738,65.430,0
1510145261.975,12.695,31.738,32.227,31.738,104.004,0
1510145261.979,18.555,32.227,29.785,35.645,38.574,0
1510145261.983,25.391,35.645,31.250,39.062,-35.156,0
1510145261.987,26.855,38.574,26.855,32.715,-39.062,0
1510145261.991,38.086,29.785,29.297,34.180,3.418,0
1510145261.995,46.875,26.367,34.180,40.039,38.086,0
1510145261.999,44.922,32.715,33.691,31.250,-121.582,0
1510145262.003,34.668,27.832,35.156,23.438,-116.211,0
1510145262.007,33.203,27.344,39.551,36.133,77.637,0
1510145262.011,35.645,28.320,39.551,40.527,47.363,0
1510145262.015,35.156,32.227,36.133,38.574,26.367,0
1510145262.018,32.715,38.086,37.598,46.387,98.633,0
1510145262.022,34.668,38.574,38.574,54.199,83.496,0
1510145262.026,42.480,39.551,39.062,55.664,20.508,0
1510145262.030,47.363,33.691,40.039,52.734,-16.602,0
1510145262.034,52.734,37.109,37.598,48.340,-32.227,0
1510145262.038,45.898,41.016,35.645,42.969,-45.410,0
1510145262.042,43.945,40.039,39.551,49.805,-129.395,0
1510145262.046,40.039,39.551,38.574,40.527,-207.520,0
1510145262.050,37.598,35.156,34.180,27.832,-57.617,0
1510145262.054,55.664,35.156,35.156,38.086,87.891,0
1510145262.058,56.641,35.156,38.086,46.875,-42.969,0
1510145262.061,35.156,33.691,39.062,52.246,-93.750,0
1510145262.065,18.066,30.762,40.039,50.781,59.570,0
1510145262.069,24.902,21.973,40.039,49.316,38.574,0
1510145262.073,38.086,29.297,41.016,48.828,-16.113,0
1510145262.077,41.016,38.574,42.969,47.363,11.719,0
1510145262.081,40.527,38.086,40.039,51.758,-33.691,0
1510145262.085,41.992,36.133,40.039,55.176,-107.910,0
1510145262.089,40.527,35.645,43.457,64.941,-92.285,0
1510145262.093,38.574,38.086,40.527,59.082,-7.324,0
1510145262.097,34.180,37.109,31.250,34.180,-6.348,0
1510145262.100,23.926,28.809,31.250,27.832,-117.188,0
1510145262.104,29.785,31.250,32.715,39.062,-288.574,0
1510145262.108,34.180,34.668,33.203,43.457,-214.844,0
1510145262.112,33.691,34.668,34.668,39.551,22.461,0
1510145262.116,37.109,37.598,34.668,37.109,-49.805,0
1510145262.120,31.250,37.109,31.250,26.855,-166.992,0
1510145262.124,33.691,38.086,27.832,26.367,-58.105,0
1510145262.128,44.922,40.527,30.762,39.062,-33.691,0
1510145262.132,45.410,38.574,29.785,45.410,-149.902,0
1510145262.136,43.457,36.621,29.785,41.016,-196.777,0
1510145262.140,44.922,35.645,31.738,40.039,-60.547,0
1510145262.143,45.898,40.527,32.227,49.316,46.387,0
1510145262.147,41.992,42.480,29.785,58.594,-10.742,0
1510145262.151,41.504,44.434,28.320,67.871,-22.949,0
1510145262.155,46.875,47.363,30.273,60.059,20.020,0
1510145262.159,46.875,44.922,30.762,36.621,-28.320,0
1510145262.163,55.176,45.410,29.297,33.691,-80.566,0
1510145262.167,56.641,44.434,32.715,40.527,-39.551,0
1510145262.171,53.711,46.387,37.109,41.992,45.410,0
1510145262.175,47.852,42.969,38.086,44.434,0.977,0
1510145262.179,41.016,40.039,36.621,49.316,-171.875,0
1510145262.183,31.738,40.527,36.621,53.711,-137.207,0
1510145262.186,30.762,40.527,39.062,53.223,64.453,0
1510145262.190,38.574,44.434,37.598,50.781,17.578,0
1510145262.194,33.691,39.062,35.156,44.434,-40.039,0
1510145262.198,28.320,32.227,33.203,41.992,77.637,0
1510145262.202,24.414,41.504,30.273,35.645,141.113,0
1510145262.206,24.414,41.016,29.785,31.738,83.496,0
1510145262.210,31.738,34.180,28.320,31.250,36.621,0
1510145262.214,35.645,42.480,29.785,34.668,82.520,0
1510145262.218,35.156,43.457,30.273,39.062,93.262,0
1510145262.222,33.691,42.969,30.762,30.762,-9.277,0
1510145262.225,32.227,49.316,32.227,24.414,-89.844,0
1510145262.229,36.621,46.875,32.227,26.855,66.406,0
1510145262.233,47.852,46.875,29.297,27.344,184.570,0
1510145262.237,49.316,41.992,30.762,31.738,63.965,0
1510145262.241,51.758,40.527,33.203,41.504,15.625,0
1510145262.245,47.852,43.457,32.227,50.781,164.551,0
1510145262.249,43.457,37.598,40.527,52.734,190.430,0
1510145262.253,51.270,34.180,39.551,53.223,113.770,0
1510145262.257,54.688,40.527,32.715,57.617,125.977,0
1510145262.261,51.758,40.527,33.691,54.688,211.426,0
1510145262.265,55.176,31.250,33.691,53.711,171.875,0
1510145262.268,53.711,31.250,37.109,53.223,82.031,0
1510145262.272,49.316,34.180,37.109,47.852,30.273,0
1510145262.276,51.270,32.715,31.738,45.410,55.664,0
1510145262.280,43.945,36.621,33.691,48.828,97.168,0
1510145262.284,31.738,33.691,40.039,42.480,-55.176,0
1510145262.288,25.391,27.832,37.598,26.855,-39.551,0
1510145262.292,24.414,31.738,38.574,26.367,157.227,0
1510145262.296,21.484,32.227,41.992,41.016,84.961,0
1510145262.300,21.973,31.738,41.504,42.480,-45.898,0
1510145262.304,32.715,36.621,40.527,44.434,29.297,0
1510145262.308,40.039,37.109,41.504,41.992,72.754,0
1510145262.311,37.598,35.645,41.504,45.898,25.879,0
1510145262.315,35.645,36.133,42.480,61.523,-13.672,0
1510145262.319,33.203,35.156,43.457,63.477,-55.664,0
1510145262.323,33.691,35.645,37.598,52.734,21.484,0
1510145262.327,30.762,40.527,32.227,45.410,-34.668,0
1510145262.331,27.832,37.598,34.180,49.805,-171.875,0
1510145262.335,36.133,32.227,36.133,45.898,-50.293,0
1510145262.339,41.504,40.527,31.738,32.715,40.527,0
1510145262.343,30.273,44.434,32.715,30.762,-64.941,0
1510145262.347,21.484,37.109,35.156,32.227,-92.773,0
1510145262.350,24.414,33.203,36.133,26.855,64.453,0
1510145262.354,29.297,32.227,39.062,27.832,38.574,0
1510145262.358,27.344,35.156,38.574,31.738,-18.066,0
1510145262.362,14.648,30.762,40.039,35.645,-36.133,0
1510145262.366,18.555,25.879,42.969,42.480,-47.363,0
1510145262.370,31.738,24.414,44.922,50.293,33.203,0
1510145262.374,27.344,30.762,47.852,61.035,-68.848,0
1510145262.378,38.574,41.504,46.387,54.199,-57.617,0
1510145262.382,60.547,42.969,43.945,40.527,101.562,0
1510145262.386,61.523,40.039,42.969,43.457,56.152,0
1510145262.390,53.223,40.527,43.457,45.898,46.387,0
1510145262.393,44.922,41.016,42.480,49.316,69.824,0
1510145262.397,46.387,40.527,40.039,53.223,77.148,0
1510145262.401,51.270,43.457,42.480,57.129,59.082,0
1510145262.405,41.992,40.039,45.410,60.547,43.457,0
1510145262.409,31.250,35.156,40.039,50.293,84.961,0
1510145262.413,38.574,41.504,37.598,44.922,89.355,0
1510145262.417,53.223,39.551,42.480,56.152,52.734,0
1510145262.421,53.223,23.926,43.457,57.129,10.742,0
1510145262.425,45.898,35.645,41.504,47.363,166.504,0
1510145262.429,44.434,40.527,41.504,39.062,221.191,0
1510145262.433,43.945,37.109,40.527,46.875,160.645,0
1510145262.436,29.785,40.039,41.504,49.805,195.312,0
1510145262.440,19.531,37.109,42.969,29.297,265.625,0
1510145262.444,22.461,39.062,45.410,19.531,242.676,0
1510145262.448,24.414,39.551,48.828,30.762,220.215,0
1510145262.452,29.785,36.133,51.270,37.598,215.332,0
1510145262.456,33.203,38.086,56.152,36.621,195.312,0
1510145262.460,35.156,32.715,54.199,41.016,204.590,0
1510145262.464,23.926,30.273,49.805,52.246,79.590,0
1510145262.468,13.184,35.645,53.223,54.199,99.121,0
1510145262.472,17.578,35.645,52.734,49.316,294.434,0
1510145262.475,29.297,41.016,47.363,44.922,258.789,0
1510145262.479,26.855,39.062,46.387,47.363,161.133,0
1510145262.483,24.414,36.133,44.922,43.945,239.258,0
1510145262.487,29.297,39.062,41.504,36.621,293.457,0
1510145262.491,21.484,38.574,37.109,40.039,228.027,0
1510145262.495,24.902,38.574,35.645,48.340,219.238,0
1510145262.499,30.762,41.504,37.598,53.223,257.812,0
1510145262.503,31.738,37.598,38.086,49.805,215.332,0
1510145262.507,34.180,37.109,36.133,42.480,95.215,0
1510145262.511,31.738,43.945,36.133,42.480,-10.742,0
1510145262.515,25.879,39.062,43.945,41.016,88.379,0
1510145262.518,28.809,37.598,39.062,40.039,244.141,0
1510145262.522,31.250,40.527,32.715,41.016,125.488,0
1510145262.526,27.344,36.133,38.086,40.527,73.242,0
1510145262.530,33.203,35.645,39.551,42.480,223.145,0
1510145262.534,38.574,41.992,42.969,43.945,238.281,0
1510145262.538,29.297,38.086,44.434,44.922,180.176,0
1510145262.542,38.574,35.645,44.922,41.504,185.059,0
1510145262.546,44.434,42.480,42.969,36.621,234.863,0
1510145262.550,37.598,37.109,46.875,42.969,140.137,0
1510145262.554,41.016,37.598,48.828,49.805,48.828,0
1510145262.558,42.480,41.016,52.734,48.828,125.488,0
1510145262.561,41.504,41.504,54.199,46.387,199.219,0
1510145262.565,40.039,41.504,50.781,49.316,182.129,0
1510145262.569,45.410,45.410,55.664,48.828,7.812,0
1510145262.573,38.574,43.945,59.570,49.316,42.480,0
1510145262.577,31.738,33.203,60.059,53.711,240.723,0
1510145262.581,38.086,36.133,56.641,48.340,124.023,0
1510145262.585,39.062,45.898,55.664,46.387,20.508,0
1510145262.589,42.969,48.828,48.828,42.969,153.320,0
1510145262.593,43.457,48.340,45.898,44.922,228.516,0
1510145262.597,43.457,43.457,41.992,48.340,88.379,0
1510145262.600,41.992,37.109,46.875,46.387,-27.344,0
1510145262.604,33.203,39.062,47.852,44.434,119.629,0
1510145262.608,40.039,38.574,41.016,49.805,184.570,0
1510145262.612,37.598,32.715,42.969,48.828,66.406,0
1510145262.616,34.668,36.133,38.574,41.992,41.504,0
1510145262.620,44.922,42.480,39.062,43.945,125.488,0
1510145262.624,44.922,39.551,39.062,51.270,139.648,0
1510145262.628,43.457,35.156,38.574,56.152,53.223,0
1510145262.632,43.457,30.762,37.598,48.340,12.695,0
1510145262.636,37.109,31.250,36.621,39.551,99.609,0
1510145262.640,38.574,32.227,37.109,43.457,99.609,0
1510145262.643,41.504,34.180,31.738,48.340,-16.113,0
1510145262.647,34.180,33.203,32.715,51.758,-64.453,0
1510145262.651,29.785,23.926,34.180,50.293,10.254,0
1510145262.655,42.969,24.902,31.250,42.969,18.555,0
1510145262.659,53.711,32.227,31.738,42.480,-168.945,0
1510145262.663,37.109,32.227,30.273,51.270,-126.953,0
1510145262.667,28.809,28.809,29.297,59.570,48.828,0
1510145262.671,41.504,29.785,39.062,48.340,-67.871,0
1510145262.675,33.691,28.809,43.945,39.062,-144.531,0
1510145262.679,33.691,26.367,39.551,46.875,-12.207,0
1510145262.683,50.781,29.297,37.109,49.805,36.621,0
1510145262.686,46.875,29.785,33.691,46.387,-21.484,0
1510145262.690,39.551,27.344,32.715,48.340,-89.355,0
1510145262.694,44.922,27.832,32.715,41.504,-89.355,0
1510145262.698,54.199,31.250,32.715,35.156,-39.551,0
1510145262.702,59.082,26.855,34.668,42.969,-143.066,0
1510145262.706,53.223,29.785,36.133,50.781,-221.680,0
1510145262.710,40.527,32.715,35.645,51.758,-59.570,0
1510145262.714,39.062,36.621,34.668,48.340,-13.184,0
1510145262.718,55.664,36.621,35.156,48.340,-130.371,0
1510145262.722,55.176,29.785,42.480,41.504,-140.625,0
1510145262.725,49.316,30.273,37.109,41.992,11.230,0
1510145262.729,47.363,36.621,31.738,44.922,15.137,0
1510145262.733,38.086,38.574,38.574,42.480,-49.805,0
1510145262.737,31.250,33.691,40.039,49.316,-95.703,0
1510145262.741,32.227,36.621,43.457,48.340,-91.309,0
1510145262.745,39.062,41.016,45.410,49.805,-53.223,0
1510145262.749,39.062,40.527,44.434,60.547,-100.586,0
1510145262.753,39.551,35.156,47.363,66.406,-59.570,0
1510145262.757,48.828,36.133,48.340,71.289,13.672,0
1510145262.761,56.152,38.086,46.875,69.824,-65.918,0
1510145262.765,56.641,39.062,49.805,66.406,-252.930,0
1510145262.768,47.852,36.621,47.852,72.266,-200.684,0
1510145262.772,41.016,30.762,45.898,77.148,-1.953,0
1510145262.776,40.527,36.621,50.293,74.707,-54.199,0
1510145262.780,41.504,37.598,53.223,65.918,-105.469,0
1510145262.784,46.387,33.691,51.758,56.641,-75.195,0
1510145262.788,59.082,40.039,55.664,60.059,-62.012,0
1510145262.792,50.293,32.715,58.594,64.453,-107.910,0
1510145262.796,33.691,25.391,53.223,67.871,-170.410,0
1510145262.800,36.621,36.621,53.223,63.965,-17.578,0
1510145262.804,48.340,41.504,55.176,60.547,32.227,0
1510145262.808,61.035,41.504,53.711,65.918,-38.086,0
1510145262.811,65.430,40.527,54.199,62.500,-36.621,0
1510145262.815,73.730,38.574,50.781,66.406,15.625,0
1510145262.819,64.453,38.574,47.852,67.383,10.742,0
1510145262.823,56.152,39.062,44.434,62.012,-64.453,0
1510145262.827,66.406,40.527,41.992,60.059,-57.617,0
1510145262.831,70.801,40.527,42.480,60.547,-36.133,0
1510145262.835,65.918,35.645,43.945,60.547,-82.520,0
1510145262.839,62.988,34.668,45.898,62.500,-205.078,0
1510145262.843,57.129,31.250,43.457,55.176,-152.832,0
1510145262.847,45.410,27.832,41.504,57.129,34.180,0
1510145262.850,39.062,26.367,42.480,62.988,-18.555,0
1510145262.854,41.016,26.367,43.457,54.688,-73.730,0
1510145262.858,48.340,25.391,42.969,59.082,-8.789,0
1510145262.862,42.480,15.625,40.527,65.430,13.184,0
1510145262.866,35.156,24.414,38.574,61.523,-99.609,0
1510145262.870,48.340,35.156,40.527,58.105,-124.512,0
1510145262.874,56.152,35.156,37.109,56.152,-11.719,0
1510145262.878,48.340,34.180,41.016,46.875,-47.363,0
1510145262.882,47.852,32.715,38.574,48.340,-145.020,0
1510145262.886,49.316,33.691,29.785,53.223,-200.684,0
1510145262.890,48.340,34.668,37.109,48.828,-54.199,0
1510145262.893,56.641,38.086,41.992,53.223,34.180,0
1510145262.897,58.594,45.410,37.598,53.711,-11.230,0
1510145262.901,60.059,33.691,42.480,62.012,6.348,0
1510145262.905,51.270,20.020,47.852,65.918,52.246,0
1510145262.909,46.387,32.715,45.410,60.547,32.227,0
1510145262.913,59.082,41.016,44.922,62.500,-38.574,0
1510145262.917,56.641,38.574,45.410,61.035,-8.301,0
1510145262.921,52.246,41.992,42.969,66.895,52.246,0
1510145262.925,59.570,43.457,41.016,75.195,9.766,0
1510145262.929,62.500,43.457,42.969,70.801,-186.035,0
1510145262.933,67.871,45.898,40.527,68.848,-176.758,0
1510145262.936,57.617,47.852,38.574,74.707,57.617,0
1510145262.940,53.223,42.480,36.621,82.031,53.711,0
1510145262.944,61.035,40.039,35.156,83.496,-64.453,0
1510145262.948,69.824,39.551,34.180,82.520,-21.973,0
1510145262.952,79.102,37.109,32.715,62.500,72.754,0
1510145262.956,80.566,38.086,34.180,55.176,7.324,0
1510145262.960,61.523,32.227,31.250,58.105,-24.414,0
1510145262.964,56.641,30.273,27.832,57.617,41.992,0
1510145262.968,58.594,29.297,26.367,67.383,74.707,0
1510145262.972,55.664,25.879,30.273,67.383,-53.223,0
1510145262.975,65.430,29.785,28.809,66.406,-119.141,0
1510145262.979,61.035,38.086,20.996,63.477,42.969,0
1510145262.983,59.570,39.062,20.508,61.523,65.430,0
1510145262.987,66.895,37.109,22.461,66.406,-114.746,0
1510145262.991,62.500,37.109,26.367,66.895,-141.113,0
1510145262.995,60.059,40.527,28.809,68.848,64.453,0
1510145262.999,62.988,45.410,30.762,70.801,97.656,0
1510145263.003,68.848,44.922,31.738,68.848,47.363,0
1510145263.007,71.777,41.992,33.691,68.848,70.801,0
1510145263.011,67.871,42.480,39.551,65.918,118.164,0
1510145263.015,65.918,44.922,43.945,70.312,123.047,0
1510145263.018,60.059,36.621,48.340,78.613,54.199,0
1510145263.022,53.223,37.598,41.016,78.125,14.648,0
1510145263.026,52.246,45.410,38.574,69.824,71.777,0
1510145263.030,53.711,46.387,42.480,60.059,103.516,0
1510145263.034,49.805,41.504,47.852,61.035,-69.336,0
1510145263.038,53.223,41.016,40.039,62.012,-40.527,0
1510145263.042,54.688,42.480,32.227,53.711,110.352,0
1510145263.046,52.734,40.039,37.109,51.270,38.086,0
1510145263.050,49.805,41.504,40.039,57.129,-21.973,0
1510145263.054,54.199,42.969,41.016,56.152,78.613,0
1510145263.058,56.641,47.852,46.875,55.176,151.855,0
1510145263.061,50.293,39.551,43.945,61.523,93.262,0
1510145263.065,48.828,33.203,41.504,67.383,-2.930,0
1510145263.069,58.105,38.574,46.875,70.312,-18.555,0
1510145263.073,67.871,42.480,42.969,70.801,39.062,0
1510145263.077,59.570,41.992,41.992,68.359,-41.504,0
1510145263.081,55.176,34.180,43.945,64.453,-145.508,0
1510145263.085,62.012,32.227,42.969,62.988,18.555,0
1510145263.089,62.988,37.109,45.410,64.941,104.980,0
1510145263.093,59.082,43.945,45.410,67.871,18.555,0
1510145263.097,60.547,45.898,41.504,67.871,3.418,0
1510145263.100,59.570,46.875,41.504,66.895,4.395,0
1510145263.104,55.176,42.480,44.922,71.777,-64.453,0
1510145263.108,48.340,37.598,45.410,66.895,-104.004,0
1510145263.112,43.945,38.574,44.434,61.523,-132.324,0
1510145263.116,47.363,43.457,46.387,62.500,-134.766,0
1510145263.120,57.129,44.434,47.852,62.500,-97.656,0
1510145263.124,59.082,43.945,46.875,60.059,-204.590,0
1510145263.128,58.594,40.527,46.387,66.406,-187.500,0
1510145263.132,63.477,38.086,52.246,70.801,-11.719,0
1510145263.136,66.895,41.016,54.199,71.777,-69.824,0
1510145263.140,66.406,44.922,49.805,76.172,-102.539,0
1510145263.143,59.082,43.457,58.105,81.055,-51.758,0
1510145263.147,51.270,40.039,64.941,80.566,-49.805,0
1510145263.151,54.199,43.945,53.711,81.543,-94.727,0
1510145263.155,56.152,35.645,53.223,78.613,-146.484,0
1510145263.159,53.223,33.691,55.664,68.359,-151.367,0
1510145263.163,52.246,40.039,51.758,65.430,-177.246,0
1510145263.167,44.922,39.551,51.270,60.059,-276.367,0
1510145263.171,39.551,35.645,53.223,54.688,-268.555,0
1510145263.175,47.363,32.715,50.781,52.246,-128.906,0
1510145263.179,45.898,32.715,50.781,51.270,-91.797,0
1510145263.183,49.805,33.691,50.293,52.734,-245.605,0
1510145263.186,60.059,32.227,45.410,54.199,-348.633,0
1510145263.190,54.688,38.086,46.387,52.734,-183.105,0
1510145263.194,52.246,42.480,46.387,60.059,-122.559,0
1510145263.198,48.828,32.715,47.363,62.500,-187.988,0
1510145263.202,41.992,31.738,46.875,53.711,-197.266,0
1510145263.206,44.434,40.527,42.480,45.898,-217.773,0
1510145263.210,41.504,36.133,41.992,45.410,-249.512,0
1510145263.214,33.203,25.879,41.504,48.340,-336.426,0
1510145263.218,25.391,27.344,35.156,38.574,-272.461,0
1510145263.222,20.996,26.855,33.203,26.367,-140.137,0
1510145263.225,27.832,21.973,36.133,20.996,-196.777,0
1510145263.229,32.715,20.020,38.574,21.484,-246.582,0
1510145263.233,20.508,20.020,35.645,23.438,-146.484,0
1510145263.237,3.418,20.996,38.574,23.926,-41.992,0
1510145263.241,6.348,25.879,41.016,15.137,-120.605,0
1510145263.245,0.977,25.391,41.504,16.602,-147.949,0
1510145263.249,-10.742,27.344,40.039,14.160,-66.895,0
1510145263.253,6.348,33.691,41.992,16.602,-97.168,0
1510145263.257,15.625,38.086,52.246,24.414,-210.938,0
1510145263.261,1.953,35.645,49.316,23.438,-260.742,0
1510145263.265,3.418,36.133,40.039,34.668,-140.137,0
1510145263.268,6.836,41.504,41.504,37.598,-57.129,0
1510145263.272,7.812,39.551,44.922,31.738,-104.980,0
1510145263.276,18.555,33.691,42.480,35.156,-101.074,0
1510145263.280,16.113,36.621,36.133,35.645,-97.168,0
1510145263.284,15.625,41.016,39.551,33.203,-127.441,0
1510145263.288,26.367,43.457,41.992,32.715,-165.039,0
1510145263.292,39.062,47.852,39.062,32.715,-157.715,0
1510145263.296,46.875,51.270,39.062,38.086,-85.938,0
1510145263.300,36.133,52.734,40.527,46.387,-162.598,0
1510145263.304,25.879,48.828,38.086,51.270,-323.242,0
1510145263.308,32.715,48.340,40.039,54.199,-274.902,0
1510145263.311,39.551,51.758,42.480,60.547,-89.844,0
1510145263.315,54.688,49.805,41.016,55.176,-158.691,0
1510145263.319,68.848,47.363,43.945,48.828,-267.578,0
1510145263.323,62.988,44.434,41.992,55.664,-218.262,0
1510145263.327,54.199,41.992,43.457,61.523,-202.148,0
1510145263.331,53.223,44.434,48.828,65.430,-310.547,0
1510145263.335,64.941,46.875,47.363,71.289,-364.258,0
1510145263.339,68.359,43.457,48.828,68.359,-365.234,0
1510145263.343,62.012,36.621,50.781,65.430,-394.531,0
1510145263.347,63.477,29.297,53.223,74.707,-443.359,0
1510145263.350,68.359,27.344,53.223,79.102,-559.570,0
1510145263.354,66.406,33.691,52.246,80.566,-485.840,0
1510145263.358,72.266,41.016,50.781,82.520,-418.945,0
1510145263.362,71.777,40.527,54.199,83.496,-535.645,0
1510145263.366,75.195,37.109,51.758,85.938,-566.406,0
1510145263.370,84.961,39.551,46.875,88.867,-507.812,0
1510145263.374,77.148,42.969,53.223,94.727,-485.352,0
1510145263.378,76.172,44.434,52.734,97.168,-469.727,0
1510145263.382,91.309,31.738,54.199,103.516,-467.773,0
1510145263.386,99.121,25.879,57.617,102.051,-419.922,0
1510145263.390,96.680,37.109,53.711,86.914,-387.207,0
1510145263.393,90.332,37.109,53.711,85.938,-386.719,0
1510145263.397,95.703,33.203,54.199,96.191,-389.160,0
1510145263.401,102.051,37.598,47.363,97.656,-393.555,0
1510145263.405,98.633,48.340,40.039,92.773,-361.328,0
1510145263.409,93.750,54.199,36.621,86.914,-320.801,0
1510145263.413,78.125,45.410,32.715,81.055,-347.168,0
1510145263.417,79.590,26.367,37.598,75.195,-293.945,0
1510145263.421,89.355,23.438,40.527,79.102,-209.473,0
1510145263.425,74.707,35.645,39.551,80.566,-195.801,0
1510145263.429,72.266,37.598,43.457,73.730,-194.824,0
1510145263.433,78.613,41.016,46.875,80.078,-133.789,0
1510145263.436,80.566,45.898,53.711,82.520,-103.516,0
1510145263.440,82.031,53.223,59.082,79.590,-103.516,0
1510145263.444,82.031,58.105,61.035,84.473,-49.805,0
1510145263.448,91.797,33.691,68.359,83.496,16.113,0
1510145263.452,87.891,9.277,73.730,88.867,36.621,0
1510145263.456,72.266,36.133,69.336,82.520,13.672,0
1510145263.460,60.547,59.082,66.895,74.219,12.695,0
1510145263.464,57.617,62.500,64.941,76.172,105.469,0
1510145263.468,61.523,57.129,59.570,68.359,96.680,0
1510145263.472,74.707,39.062,59.082,62.012,79.590,0
1510145263.475,84.473,37.598,57.617,57.129,159.668,0
1510145263.479,68.359,41.016,54.199,53.711,164.062,0
1510145263.483,44.434,33.203,52.734,56.152,118.164,0
1510145263.487,38.574,33.203,51.270,53.223,98.633,0
1510145263.491,34.668,35.645,52.246,49.316,96.680,0
1510145263.495,39.551,36.133,51.270,50.293,143.555,0
1510145263.499,51.270,30.273,50.293,56.641,59.082,0
1510145263.503,57.617,28.320,54.688,62.500,82.520,0
1510145263.507,58.105,28.809,58.594,57.129,244.141,0
1510145263.511,53.223,27.344,62.500,53.223,229.492,0
1510145263.515,55.176,31.738,62.988,56.152,207.520,0
1510145263.518,51.758,38.086,63.965,51.758,236.816,0
1510145263.522,41.992,37.109,64.453,54.688,298.340,0
1510145263.526,48.340,30.273,59.570,56.641,249.023,0
1510145263.530,56.641,31.738,62.012,55.664,206.543,0
1510145263.534,42.969,39.551,61.523,58.105,230.957,0
1510145263.538,47.363,35.645,60.547,54.688,230.957,0
1510145263.542,65.430,35.645,65.430,50.781,195.312,0
1510145263.546,58.105,40.039,68.848,50.293,59.082,0
1510145263.550,45.898,36.621,68.359,55.664,208.008,0
1510145263.554,43.945,39.551,69.336,61.523,305.176,0
1510145263.558,38.574,39.551,75.684,66.895,222.168,0
1510145263.561,38.574,42.480,74.707,70.801,227.539,0
1510145263.565,49.316,36.621,69.824,74.219,256.836,0
1510145263.569,61.523,28.320,67.383,64.941,209.961,0
1510145263.573,65.430,28.320,63.965,57.129,161.621,0
1510145263.577,55.664,30.762,59.570,57.617,130.859,0
1510145263.581,40.039,43.945,52.734,56.641,71.289,0
1510145263.585,30.762,45.898,46.875,53.223,57.617,0
1510145263.589,31.738,44.434,39.551,43.457,-90.332,0
1510145263.593,36.621,41.504,29.785,40.039,-85.938,0
1510145263.597,42.480,30.273,24.902,47.363,79.590,0
1510145263.600,39.551,27.344,21.973,52.246,-16.113,0
1510145263.604,33.691,26.855,21.973,46.875,-97.168,0
1510145263.608,34.180,23.926,22.949,39.551,-45.410,0
1510145263.612,42.480,23.438,32.227,35.645,3.418,0
1510145263.616,48.828,25.879,53.223,41.992,-48.828,0
1510145263.620,42.480,15.137,69.336,49.805,-97.656,0
1510145263.624,39.551,15.137,70.801,41.992,-42.480,0
1510145263.628,44.922,30.762,62.500,34.180,-38.086,0
1510145263.632,45.898,31.250,55.664,42.969,-102.051,0
1510145263.636,42.969,31.738,44.922,59.082,-98.633,0
1510145263.640,29.785,40.039,28.320,72.754,81.543,0
1510145263.643,35.156,45.410,19.043,67.871,201.172,0
1510145263.647,52.734,47.852,17.090,65.918,101.074,0
1510145263.651,60.547,48.828,17.090,66.406,71.777,0
1510145263.655,56.152,48.828,25.391,66.406,248.047,0
1510145263.659,40.527,48.340,30.762,68.359,320.312,0
1510145263.663,34.668,47.852,35.645,68.848,307.129,0
1510145263.667,44.922,52.734,43.945,72.754,326.172,0
1510145263.671,59.082,50.293,47.363,80.078,352.051,0
1510145263.675,56.152,40.527,53.223,84.961,281.250,0
1510145263.679,50.781,39.062,54.688,78.613,104.004,0
1510145263.683,50.781,41.992,47.852,77.148,136.719,0
1510145263.686,45.410,42.480,46.387,71.777,323.730,0
1510145263.690,49.316,43.945,45.410,67.383,303.223,0
1510145263.694,56.641,47.363,41.992,65.918,225.586,0
1510145263.698,44.922,46.387,42.969,62.500,277.832,0
1510145263.702,28.320,45.410,41.992,56.152,350.098,0
1510145263.706,21.484,48.340,39.551,43.945,291.016,0
1510145263.710,31.738,44.922,40.527,45.898,273.438,0
1510145263.714,40.039,36.621,43.457,52.246,355.957,0
1510145263.718,40.527,39.551,43.945,54.688,403.809,0
1510145263.722,42.969,47.852,44.434,49.805,312.012,0
1510145263.725,37.109,45.410,43.945,47.852,262.695,0
1510145263.729,32.715,41.016,39.062,49.805,406.250,0
1510145263.733,41.504,31.738,38.086,47.363,428.223,0
1510145263.737,47.363,18.555,39.551,40.039,317.383,0
1510145263.741,31.250,27.344,39.062,29.297,317.871,0
1510145263.745,10.742,36.621,41.504,23.926,436.523,0
1510145263.749,2.930,37.109,48.340,28.809,425.293,0
1510145263.753,4.395,27.832,53.711,24.902,350.586,0
1510145263.757,15.625,12.207,56.152,23.926,348.633,0
1510145263.761,25.391,21.973,62.500,20.508,395.996,0
1510145263.765,8.301,31.250,70.801,15.625,372.070,0
1510145263.768,-5.859,29.785,77.148,23.438,223.633,0
1510145263.772,6.348,11.719,85.938,36.133,139.648,0
1510145263.776,12.695,1.953,91.309,39.551,241.211,0
1510145263.780,16.602,11.230,87.891,30.273,243.652,0
1510145263.784,31.250,19.531,87.402,28.809,83.496,0
1510145263.788,34.668,21.484,87.402,30.273,94.727,0
1510145263.792,24.414,17.090,81.055,29.785,195.312,0
1510145263.796,14.160,24.414,73.730,27.344,107.422,0
1510145263.800,26.367,16.113,70.801,25.391,48.828,0
1510145263.804,35.645,9.766,70.312,29.297,103.027,0
1510145263.808,31.250,24.902,65.430,27.832,123.535,0
1510145263.811,30.273,35.156,60.547,27.832,66.406,0
1510145263.815,19.531,31.738,60.059,32.715,-17.578,0
1510145263.819,16.113,21.484,58.594,41.504,-33.691,0
1510145263.823,20.508,16.602,55.176,42.969,-5.859,0
1510145263.827,24.902,10.742,53.223,32.227,-2.441,0
1510145263.831,34.180,9.277,49.805,32.715,0.000,0
1510145263.835,34.668,26.855,47.363,38.574,44.922,0
1510145263.839,32.715,41.504,43.457,37.109,76.660,0
1510145263.843,32.227,41.504,43.457,48.340,-93.262,0
1510145263.847,14.160,40.527,45.898,52.734,-208.496,0
1510145263.850,3.906,39.551,40.039,43.945,-19.043,0
1510145263.854,28.320,35.645,39.551,46.875,32.227,0
1510145263.858,46.387,33.203,41.504,51.270,-100.098,0
1510145263.862,34.180,33.691,37.109,43.945,-169.922,0
1510145263.866,25.879,37.598,35.156,42.480,-130.371,0
1510145263.870,31.250,39.062,40.039,47.363,-111.328,0
1510145263.874,34.180,36.621,41.992,47.363,-96.680,0
1510145263.878,39.551,36.133,39.551,47.852,-50.781,0
1510145263.882,39.551,35.645,39.062,48.828,-22.949,0
1510145263.886,33.691,38.574,41.504,50.781,-42.480,0
1510145263.890,24.902,41.992,39.551,48.828,-230.957,0
1510145263.893,40.527,39.062,32.715,44.922,-191.406,0
1510145263.897,48.340,35.156,27.832,42.969,-4.395,0
1510145263.901,36.621,33.691,26.367,45.898,-108.398,0
1510145263.905,39.062,31.738,23.926,43.945,-180.176,0
1510145263.909,44.434,36.621,21.484,40.039,-124.023,0
1510145263.913,37.598,42.480,20.508,44.434,-78.125,0
1510145263.917,42.480,35.645,20.020,54.199,-41.016,0
1510145263.921,57.129,29.785,24.414,60.059,-20.020,0
1510145263.925,45.898,34.668,27.344,61.035,84.961,0
1510145263.929,34.180,36.133,27.832,58.594,119.629,0
1510145263.933,40.527,42.480,32.227,53.711,-4.395,0
1510145263.936,55.176,36.133,32.715,54.688,-9.277,0
1510145263.940,64.941,26.367,29.785,53.711,214.844,0
1510145263.944,58.105,37.598,31.738,59.570,295.898,0
1510145263.948,47.852,44.434,31.250,66.895,209.961,0
1510145263.952,34.668,45.410,24.414,59.082,250.488,0
1510145263.956,30.273,46.387,18.555,43.945,338.867,0
1510145263.960,36.621,44.434,20.508,44.922,336.914,0
1510145263.964,37.109,38.086,27.344,50.781,250.977,0
1510145263.968,44.434,30.273,33.203,47.852,327.148,0
1510145263.972,43.945,37.109,35.645,47.363,567.871,0
1510145263.975,31.250,41.504,35.645,46.387,527.344,0
1510145263.979,16.602,33.691,36.133,45.898,482.910,0
1510145263.983,16.602,36.621,36.621,40.039,548.340,0
1510145263.987,30.273,37.598,37.598,44.434,583.496,0
1510145263.991,38.574,35.645,39.551,49.316,478.027,0
1510145263.995,49.316,31.250,37.109,39.062,436.523,0
1510145263.999,47.363,31.738,33.691,37.109,501.465,0
1510145264.003,27.344,37.109,36.133,41.992,475.586,0
1510145264.007,35.156,35.156,35.156,48.340,395.508,0
1510145264.011,38.086,34.180,37.109,49.805,325.195,0
1510145264.015,35.156,34.668,41.016,44.922,478.516,0
1510145264.018,37.109,41.992,37.109,49.316,548.340,0
1510145264.022,37.109,46.387,30.273,51.758,467.285,0
1510145264.026,28.809,38.574,28.320,34.668,481.445,0
1510145264.030,25.879,27.344,28.320,29.297,528.809,0
1510145264.034,37.109,21.973,31.250,40.527,479.492,0
1510145264.038,33.203,33.203,29.297,31.738,420.898,0
1510145264.042,23.926,38.574,24.414,20.020,397.949,0
1510145264.046,24.414,49.316,20.996,20.996,413.574,0
1510145264.050,30.762,59.082,18.555,12.695,351.562,0
1510145264.054,34.180,48.828,20.996,7.324,127.441,0
1510145264.058,25.879,44.922,20.996,1.953,126.465,0
1510145264.061,5.859,34.180,21.973,2.441,323.730,0
1510145264.065,-6.836,25.391,26.855,13.672,298.828,0
1510145264.069,-11.719,30.762,27.344,14.160,221.191,0
1510145264.073,-2.441,34.180,31.250,16.602,246.582,0
1510145264.077,1.465,29.297,29.297,20.508,262.207,0
1510145264.081,9.277,25.391,21.973,20.508,150.391,0
1510145264.085,21.484,23.438,19.531,18.066,13.184,0
1510145264.089,17.578,25.391,14.160,18.066,86.426,0
1510145264.093,6.348,30.762,10.254,19.531,141.602,0
1510145264.097,18.555,31.250,11.230,24.902,-13.184,0
1510145264.100,38.086,25.391,14.648,27.832,-76.172,0
1510145264.104,30.273,30.273,14.160,32.227,52.246,0
1510145264.108,15.137,49.316,8.789,31.738,45.898,0
1510145264.112,24.902,35.156,10.254,25.879,-87.891,0
1510145264.116,41.016,20.508,15.137,30.762,-123.047,0
1510145264.120,39.551,39.062,20.996,34.668,54.688,0
1510145264.124,39.062,58.105,26.855,48.340,87.402,0
1510145264.128,30.273,61.523,30.762,51.270,34.180,0
1510145264.132,39.551,50.781,32.227,51.270,72.754,0
1510145264.136,56.641,35.645,32.715,58.594,95.215,0
1510145264.140,58.105,39.551,33.203,52.246,88.379,0
1510145264.143,57.617,35.645,33.203,51.758,44.922,0
1510145264.147,55.176,23.926,40.527,60.547,-6.348,0
1510145264.151,47.363,43.945,41.016,55.176,35.645,0
1510145264.155,36.133,51.758,34.668,55.664,103.516,0
1510145264.159,41.016,51.758,36.621,51.758,-22.949,0
1510145264.163,41.992,57.129,34.180,50.293,20.020,0
1510145264.167,46.387,57.129,30.762,57.617,179.688,0
1510145264.171,47.363,36.133,30.762,51.270,156.738,0
1510145264.175,35.645,32.227,28.320,42.969,116.211,0
1510145264.179,44.434,40.039,27.344,50.293,203.613,0
1510145264.183,53.223,36.133,27.344,52.246,294.434,0
1510145264.186,37.109,36.621,30.273,52.734,257.812,0
1510145264.190,35.156,35.645,37.598,59.082,196.289,0
1510145264.194,59.082,31.738,39.062,54.688,195.801,0
1510145264.198,62.012,40.527,39.551,56.152,293.457,0
1510145264.202,46.875,41.992,39.062,50.781,288.574,0
1510145264.206,46.387,23.926,36.133,44.922,221.680,0
1510145264.210,46.875,17.090,36.133,43.457,361.328,0
1510145264.214,49.316,29.785,36.621,36.621,448.730,0
1510145264.218,39.551,40.039,35.156,41.992,414.551,0
1510145264.222,31.738,42.480,31.738,50.293,456.543,0
1510145264.225,36.133,38.086,35.156,51.758,512.207,0
1510145264.229,32.715,35.645,39.551,57.617,462.891,0
1510145264.233,38.574,29.297,41.992,62.500,441.895,0
1510145264.237,36.621,25.391,41.504,60.059,460.449,0
1510145264.241,45.410,34.180,41.016,51.758,532.227,0
1510145264.245,56.152,26.367,44.922,53.223,514.160,0
1510145264.249,55.176,23.438,44.922,63.477,495.117,0
1510145264.253,44.434,35.156,40.039,57.617,591.309,0
1510145264.257,28.809,23.926,29.297,34.668,685.059,0
1510145264.261,19.043,1.953,14.648,20.996,618.652,0
1510145264.265,-8.301,-22.461,-14.648,-3.418,485.352,0
1510145264.268,-33.203,-48.828,-46.875,-34.668,573.730,0
1510145264.272,-30.762,-67.383,-61.523,-53.223,650.879,0
1510145264.276,-47.363,-80.078,-66.895,-53.711,561.035,0
1510145264.280,-66.406,-83.496,-64.941,-52.246,510.254,0
1510145264.284,-68.359,-65.430,-62.988,-54.199,476.074,0
1510145264.288,-65.430,-60.059,-61.035,-47.852,396.484,0
1510145264.292,-54.199,-76.172,-57.617,-48.340,290.039,0
1510145264.296,-43.457,-72.266,-51.758,-46.875,227.051,0
1510145264.300,-31.250,-61.035,-49.316,-40.527,355.957,0
1510145264.304,-17.578,-54.199,-44.922,-21.973,421.875,0
1510145264.308,-20.020,-46.875,-42.480,-24.902,238.770,0
1510145264.311,-41.992,-47.852,-46.875,-47.363,177.734,0
1510145264.315,-52.734,-50.781,-44.922,-43.457,284.180,0
1510145264.319,-43.457,-54.199,-38.086,-40.039,237.793,0
1510145264.323,-34.668,-52.734,-39.551,-43.457,129.883,0
1510145264.327,-32.227,-46.387,-42.480,-36.133,127.441,0
1510145264.331,-36.621,-37.598,-42.969,-45.898,81.055,0
1510145264.335,-35.645,-39.551,-45.410,-54.688,-37.598,0
1510145264.339,-33.691,-41.016,-43.945,-47.852,-196.777,0
1510145264.343,-38.086,-26.367,-42.969,-42.969,-248.535,0
1510145264.347,-40.039,-16.602,-41.992,-44.922,-151.367,0
1510145264.350,-44.434,-31.250,-40.527,-45.410,-189.941,0
1510145264.354,-42.480,-33.203,-34.180,-36.621,-315.918,0
1510145264.358,-41.504,-12.695,-32.715,-40.039,-281.738,0
1510145264.362,-44.922,-9.277,-39.551,-60.059,-232.422,0
1510145264.366,-40.039,-8.301,-37.598,-64.453,-322.266,0
1510145264.370,-32.715,-23.438,-35.645,-61.035,-369.629,0
1510145264.374,-45.410,-18.066,-34.180,-67.383,-353.516,0
1510145264.378,-64.941,3.906,-34.180,-68.848,-400.879,0
1510145264.382,-60.059,4.395,-34.180,-68.848,-534.180,0
1510145264.386,-39.551,-6.348,-26.367,-65.918,-603.027,0
1510145264.390,-38.574,-10.254,-24.902,-60.059,-436.035,0
1510145264.393,-53.711,0.488,-24.902,-52.734,-327.637,0
1510145264.397,-54.688,16.602,-19.531,-51.758,-356.445,0
1510145264.401,-37.598,-10.254,-13.672,-44.434,-349.121,0
1510145264.405,-26.367,-16.602,-13.184,-46.387,-275.391,0
1510145264.409,-27.832,13.184,-14.160,-57.129,-166.016,0
1510145264.413,-25.879,21.484,-15.625,-56.152,-177.734,0
1510145264.417,-31.738,28.320,-17.090,-53.223,-129.395,0
1510145264.421,-41.504,27.344,-16.113,-47.852,-2.441,0
1510145264.425,-33.691,23.438,-16.602,-48.340,22.949,0
1510145264.429,-29.785,11.230,-15.137,-52.246,-53.711,0
1510145264.433,-35.645,4.395,-10.742,-47.363,59.570,0
1510145264.436,-26.367,13.184,-7.324,-40.527,311.523,0
1510145264.440,-20.996,15.625,-4.883,-41.504,363.281,0
1510145264.444,-21.484,17.578,-4.395,-37.598,373.535,0
1510145264.448,-21.484,29.785,-4.395,-25.879,477.051,0
1510145264.452,-16.113,37.598,0.977,-20.020,583.008,0
1510145264.456,-8.789,30.273,6.348,-19.531,599.609,0
1510145264.460,-7.324,28.809,10.742,-6.836,633.789,0
1510145264.464,5.371,26.855,12.207,4.883,682.617,0
1510145264.468,17.578,18.555,13.672,12.695,746.582,0
1510145264.472,11.230,18.066,17.090,14.648,703.125,0
1510145264.475,-2.930,23.438,21.973,14.648,600.098,0
1510145264.479,10.254,28.809,21.973,18.555,756.348,0
1510145264.483,27.832,26.367,25.391,20.508,887.695,0
1510145264.487,34.180,32.227,29.297,24.902,732.910,0
1510145264.491,33.203,39.551,21.484,23.926,666.016,0
1510145264.495,26.367,37.109,25.391,13.672,817.871,0
1510145264.499,20.508,30.762,30.273,16.602,833.008,0
1510145264.503,14.160,33.691,28.320,21.973,760.742,0
1510145264.507,21.973,39.062,27.832,19.531,755.859,0
1510145264.511,42.480,41.016,27.344,25.391,752.441,0
1510145264.515,51.758,43.945,32.715,35.156,677.734,0
1510145264.518,36.621,45.898,36.621,34.180,580.078,0
1510145264.522,26.367,46.875,34.180,29.297,487.305,0
1510145264.526,38.086,45.410,32.715,28.320,464.355,0
1510145264.530,44.922,52.246,33.203,32.715,455.566,0
1510145264.534,47.363,48.828,33.691,43.945,273.926,0
1510145264.538,40.039,37.109,36.133,48.340,273.926,0
1510145264.542,38.086,46.875,35.156,43.457,414.551,0
1510145264.546,54.688,57.129,29.785,36.621,276.855,0
1510145264.550,52.246,47.852,31.250,36.621,135.742,0
1510145264.554,40.527,44.434,32.715,36.621,181.152,0
1510145264.558,49.316,48.828,30.273,38.574,163.574,0
1510145264.561,46.387,50.781,35.156,37.109,68.848,0
1510145264.565,41.016,53.223,37.598,38.086,-64.453,0
1510145264.569,49.805,53.223,39.551,42.480,-169.922,0
1510145264.573,53.711,56.641,37.598,48.828,-111.816,0
1510145264.577,46.387,56.152,32.715,51.270,-203.125,0
1510145264.581,47.363,54.199,34.668,48.340,-394.531,0
1510145264.585,65.430,49.316,37.109,56.152,-298.340,0
1510145264.589,64.941,46.875,41.504,62.012,-224.121,0
1510145264.593,51.758,53.711,42.480,57.617,-372.559,0
1510145264.597,46.875,55.664,42.480,60.547,-444.336,0
1510145264.600,48.340,47.852,41.504,59.082,-375.000,0
1510145264.604,50.293,45.898,38.574,47.852,-440.430,0
1510145264.608,51.758,47.363,37.598,45.898,-501.465,0
1510145264.612,52.246,47.363,39.062,43.457,-548.340,0
1510145264.616,53.711,45.410,38.574,39.551,-581.055,0
1510145264.620,50.781,44.922,39.062,47.363,-541.016,0
1510145264.624,47.363,53.711,38.086,54.688,-697.266,0
1510145264.628,49.805,55.176,40.039,49.805,-719.238,0
1510145264.632,47.852,56.152,43.457,45.898,-580.078,0
1510145264.636,55.664,52.734,41.504,51.270,-620.605,0
1510145264.640,77.148,51.270,43.457,60.059,-678.223,0
1510145264.643,80.566,50.293,48.340,66.406,-638.184,0
1510145264.647,68.359,48.828,44.922,65.430,-551.758,0
1510145264.651,66.406,51.758,41.016,63.477,-632.812,0
1510145264.655,64.941,49.316,42.969,57.129,-690.918,0
1510145264.659,65.430,44.434,43.945,52.734,-651.367,0
1510145264.663,66.406,40.527,43.945,57.617,-689.453,0
1510145264.667,63.477,42.969,43.945,49.805,-767.090,0
1510145264.671,56.152,43.945,41.016,40.527,-818.359,0
1510145264.675,52.246,41.504,37.109,40.039,-648.926,0
1510145264.679,50.781,39.551,40.039,42.969,-490.234,0
1510145264.683,48.340,43.945,43.457,49.805,-620.117,0
1510145264.686,52.734,48.828,43.457,47.852,-666.504,0
1510145264.690,56.152,48.828,41.504,40.527,-455.078,0
1510145264.694,62.012,52.734,40.527,43.457,-394.531,0
1510145264.698,64.453,55.176,45.898,47.852,-473.145,0
1510145264.702,65.430,53.223,46.387,45.410,-434.082,0
1510145264.706,53.223,52.734,44.922,49.316,-354.492,0
1510145264.710,48.828,51.270,49.316,54.199,-352.539,0
1510145264.714,70.801,37.109,49.805,50.781,-430.664,0
1510145264.718,63.965,29.785,46.875,49.805,-385.742,0
1510145264.722,45.898,45.898,43.457,55.176,-134.277,0
1510145264.725,39.551,54.688,43.457,60.059,-106.934,0
1510145264.729,39.551,50.293,43.457,51.758,-241.699,0
1510145264.733,41.992,49.805,42.969,41.992,-149.902,0
1510145264.737,48.340,44.434,40.527,49.805,9.766,0
1510145264.741,52.246,39.062,39.062,52.734,-23.926,0
1510145264.745,53.223,33.691,43.457,46.875,-24.414,0
1510145264.749,45.898,32.715,41.504,41.504,65.430,0
1510145264.753,38.086,48.340,34.180,39.062,34.180,0
1510145264.757,34.180,58.105,33.203,39.551,-56.641,0
1510145264.761,37.109,46.875,39.062,46.875,-13.672,0
1510145264.765,42.480,38.086,42.480,56.152,90.332,0
1510145264.768,40.527,36.133,41.016,55.664,132.812,0
1510145264.772,36.133,41.992,40.527,47.363,-9.766,0
1510145264.776,34.180,50.781,42.480,54.688,-115.234,0
1510145264.780,39.551,43.945,45.898,59.570,50.781,0
1510145264.784,50.781,31.738,47.852,58.105,136.719,0
1510145264.788,55.176,40.039,44.434,56.641,-16.113,0
1510145264.792,51.758,51.758,44.434,52.734,-49.805,0
1510145264.796,56.152,55.664,47.852,54.688,56.641,0
1510145264.800,45.898,46.387,48.340,54.199,-52.246,0
1510145264.804,28.809,32.227,41.992,53.711,-179.688,0
1510145264.808,36.133,35.645,40.527,52.246,-101.562,0
1510145264.811,36.621,42.480,42.969,45.410,4.883,0
1510145264.815,35.156,50.781,41.016,41.504,-70.801,0
1510145264.819,42.480,43.457,39.551,35.645,-266.113,0
1510145264.823,46.875,40.039,41.992,42.480,-210.449,0
1510145264.827,56.641,42.480,49.805,54.199,-56.152,0
1510145264.831,63.477,35.645,48.828,50.781,-141.113,0
1510145264.835,47.363,45.898,41.504,48.340,-197.266,0
1510145264.839,40.527,50.781,42.969,50.293,-171.387,0
1510145264.843,47.363,41.504,41.016,55.176,-202.637,0
1510145264.847,46.387,43.945,39.062,50.293,-341.309,0
1510145264.850,46.875,40.527,40.527,47.363,-408.203,0
1510145264.854,49.316,34.668,41.504,44.922,-309.082,0
1510145264.858,42.480,36.133,42.969,45.410,-272.949,0
1510145264.862,34.668,35.645,45.410,53.223,-448.242,0
1510145264.866,35.156,40.039,46.875,54.199,-612.793,0
1510145264.870,39.062,36.133,48.340,56.641,-501.465,0
1510145264.874,43.945,32.227,45.898,44.922,-463.379,0
1510145264.878,49.316,36.621,45.898,28.809,-559.570,0
1510145264.882,39.062,37.109,47.363,37.109,-610.352,0
1510145264.886,33.691,37.109,50.781,50.781,-593.262,0
1510145264.890,43.457,34.180,52.734,48.828,-624.023,0
1510145264.893,48.828,41.504,50.781,51.270,-772.949,0
1510145264.897,40.039,41.504,52.246,55.664,-832.520,0
1510145264.901,37.598,26.367,53.223,56.641,-737.305,0
1510145264.905,39.551,35.645,53.711,64.453,-778.320,0
1510145264.909,41.992,45.410,49.805,60.059,-894.531,0
1510145264.913,42.969,37.109,48.340,48.828,-843.262,0
1510145264.917,36.133,42.480,48.340,41.992,-793.945,0
1510145264.921,39.062,40.527,46.875,41.504,-866.211,0
1510145264.925,51.270,32.715,45.410,43.457,-920.410,0
1510145264.929,54.199,34.180,47.852,46.875,-876.465,0
1510145264.933,42.480,36.133,52.246,51.270,-828.125,0
1510145264.936,40.039,41.992,51.270,53.711,-835.449,0
1510145264.940,55.176,41.016,49.805,54.688,-840.332,0
1510145264.944,58.105,34.668,51.270,61.523,-786.133,0
1510145264.948,46.875,35.645,55.176,65.918,-748.047,0
1510145264.952,43.457,32.227,57.617,61.523,-654.785,0
1510145264.956,48.340,11.719,56.641,61.035,-622.070,0
1510145264.960,47.852,21.973,49.316,58.105,-646.973,0
1510145264.964,51.758,54.199,39.551,52.246,-579.102,0
1510145264.968,51.270,62.012,38.086,52.246,-546.875,0
1510145264.972,46.875,56.641,43.945,59.570,-480.957,0
1510145264.975,48.340,52.734,40.527,61.035,-406.738,0
1510145264.979,49.316,44.434,35.156,46.875,-455.078,0
1510145264.983,53.711,35.645,40.527,41.504,-426.758,0
1510145264.987,45.410,36.133,42.969,47.363,-385.254,0
1510145264.991,40.039,32.715,39.062,49.316,-375.488,0
1510145264.995,40.527,33.203,40.039,50.781,-355.957,0
1510145264.999,47.852,34.668,44.922,47.363,-301.270,0
1510145265.003,53.223,37.598,46.875,50.293,-336.426,0
1510145265.007,42.969,42.969,45.898,45.410,-365.234,0
1510145265.011,40.039,31.738,45.898,38.086,-248.535,0
1510145265.015,54.199,24.902,49.316,48.340,-223.633,0
1510145265.018,58.594,42.969,53.223,61.035,-275.879,0
1510145265.022,39.062,40.527,52.734,60.059,-293.945,0
1510145265.026,30.762,30.762,51.270,63.477,-195.801,0
1510145265.030,47.363,37.109,52.734,78.125,-151.855,0
1510145265.034,55.176,38.086,51.758,80.566,-154.785,0
1510145265.038,50.781,39.062,51.270,72.754,-147.949,0
1510145265.042,55.176,41.992,55.176,67.383,-127.441,0
1510145265.046,59.570,36.621,57.129,59.570,-89.844,0
1510145265.050,56.641,34.180,54.688,56.641,-90.820,0
1510145265.054,58.594,41.016,51.270,62.012,-83.008,0
1510145265.058,56.152,41.504,55.176,70.312,-109.863,0
1510145265.061,53.223,42.480,56.152,73.730,-98.145,0
1510145265.065,58.105,38.086,56.152,73.730,-70.312,0
1510145265.069,65.430,26.855,59.082,74.219,-39.062,0
1510145265.073,70.312,28.320,60.547,70.801,-45.410,0
1510145265.077,62.988,34.180,58.594,61.523,-23.438,0
1510145265.081,66.895,30.273,56.152,57.129,50.293,0
1510145265.085,75.195,28.809,52.734,59.082,99.609,0
1510145265.089,59.570,41.992,52.246,63.477,99.609,0
1510145265.093,54.199,35.645,54.199,73.242,157.715,0
1510145265.097,57.129,29.297,52.734,70.801,337.891,0
1510145265.100,57.129,34.180,51.758,58.594,376.465,0
1510145265.104,67.383,31.738,47.852,53.223,329.102,0
1510145265.108,74.707,35.156,47.363,50.781,440.430,0
1510145265.112,57.617,31.738,47.852,53.711,505.371,0
1510145265.116,48.828,29.785,50.293,56.152,414.062,0
1510145265.120,54.688,30.762,55.176,63.965,450.195,0
1510145265.124,48.828,22.949,58.105,64.941,571.289,0
1510145265.128,43.457,22.949,57.129,48.340,526.855,0
1510145265.132,44.922,28.320,53.711,37.109,421.387,0
1510145265.136,51.758,23.438,55.176,42.969,346.680,0
1510145265.140,50.781,19.043,58.594,49.316,471.191,0
1510145265.143,40.039,18.555,58.594,55.664,568.359,0
1510145265.147,39.062,13.184,56.152,58.594,441.406,0
1510145265.151,46.875,19.531,55.176,50.293,365.723,0
1510145265.155,37.109,34.180,54.688,50.293,483.887,0
1510145265.159,27.344,36.621,55.176,50.293,497.070,0
1510145265.163,34.180,35.156,50.781,40.039,420.410,0
1510145265.167,37.109,34.180,49.316,42.969,412.109,0
1510145265.171,34.668,32.227,51.758,49.805,410.156,0
1510145265.175,41.504,29.785,53.223,48.340,329.590,0
1510145265.179,46.875,25.879,52.246,49.316,163.086,0
1510145265.183,40.039,21.484,50.781,51.758,178.711,0
1510145265.186,30.273,12.207,53.223,50.781,364.258,0
1510145265.190,27.344,21.973,53.711,48.340,301.758,0
1510145265.194,31.738,38.574,50.293,47.363,219.238,0
1510145265.198,42.480,28.320,46.387,41.504,274.902,0
1510145265.202,43.457,18.066,42.969,38.086,319.824,0
1510145265.206,33.691,17.090,41.992,36.621,236.328,0
1510145265.210,44.434,26.367,43.945,33.691,94.238,0
1510145265.214,45.898,29.785,42.969,35.645,175.781,0
1510145265.218,40.039,32.227,41.016,40.039,242.676,0
1510145265.222,39.551,42.480,41.504,38.086,86.914,0
1510145265.225,22.949,42.969,41.504,41.504,24.414,0
1510145265.229,14.648,39.062,41.016,38.086,145.996,0
1510145265.233,25.391,35.645,44.922,35.156,156.250,0
1510145265.237,34.180,27.344,49.316,41.992,11.230,0
1510145265.241,35.156,27.832,49.805,32.715,-56.641,0
1510145265.245,29.297,41.016,47.363,28.320,100.586,0
1510145265.249,32.227,46.387,47.363,37.109,152.832,0
1510145265.253,41.992,35.645,48.340,47.852,98.633,0
1510145265.257,52.246,29.297,45.410,61.035,72.266,0
1510145265.261,60.059,36.621,44.922,51.270,117.188,0
1510145265.265,55.176,44.434,42.969,36.621,57.129,0
1510145265.268,51.758,48.340,42.480,41.992,-68.848,0
1510145265.272,49.805,38.086,45.410,39.062,-48.340,0
1510145265.276,54.688,34.180,47.363,47.852,51.270,0
1510145265.280,48.340,31.738,47.852,56.641,54.199,0
1510145265.284,36.621,23.926,46.875,47.852,-123.047,0
1510145265.288,39.062,25.879,45.898,37.109,-95.703,0
1510145265.292,37.598,31.738,47.363,32.227,59.082,0
1510145265.296,34.180,32.227,44.922,33.203,-10.254,0
1510145265.300,23.926,28.809,42.480,31.738,-76.172,0
1510145265.304,22.949,26.367,42.969,34.180,-16.113,0
1510145265.308,32.227,26.855,45.410,43.945,33.691,0
1510145265.311,25.879,29.297,46.875,44.922,-13.672,0
1510145265.315,25.391,35.156,48.340,49.316,-100.098,0
1510145265.319,34.668,32.715,46.875,47.363,-97.656,0
1510145265.323,36.621,29.297,43.945,46.387,-17.578,0
1510145265.327,33.203,24.414,47.363,52.246,-36.621,0
1510145265.331,36.621,17.090,52.246,47.852,-61.035,0
1510145265.335,39.062,22.461,50.781,41.016,28.320,0
1510145265.339,34.668,32.715,43.945,42.480,53.711,0
1510145265.343,41.504,32.715,42.480,41.992,-60.547,0
1510145265.347,51.758,28.809,46.387,47.852,-56.641,0
1510145265.350,51.270,32.715,48.828,63.477,55.176,0
1510145265.354,53.711,31.250,47.852,51.270,66.895,0
1510145265.358,47.852,26.367,48.828,27.344,59.082,0
1510145265.362,38.086,31.738,53.223,24.902,13.672,0
1510145265.366,40.527,28.809,55.664,32.227,49.316,0
1510145265.370,43.457,27.344,56.641,34.180,82.520,0
1510145265.374,38.574,32.227,58.105,39.062,107.910,0
1510145265.378,33.203,18.066,57.129,38.574,160.156,0
1510145265.382,35.645,17.090,57.129,38.086,224.121,0
1510145265.386,46.875,31.738,57.129,45.410,192.871,0
1510145265.390,45.898,35.645,56.641,41.504,134.277,0
1510145265.393,38.574,36.133,57.617,41.504,209.961,0
1510145265.397,41.016,34.180,57.129,43.457,233.887,0
1510145265.401,48.340,37.109,57.129,42.480,203.125,0
1510145265.405,40.527,35.156,56.152,47.852,210.449,0
1510145265.409,28.809,28.809,54.688,51.758,244.141,0
1510145265.413,40.039,33.203,57.617,56.641,243.164,0
1510145265.417,48.828,26.367,58.105,60.059,186.035,0
1510145265.421,46.875,21.484,58.594,51.758,166.016,0
1510145265.425,47.852,29.297,58.594,47.852,293.457,0
1510145265.429,48.340,35.156,57.129,56.641,342.285,0
1510145265.433,53.223,34.668,59.570,58.105,306.641,0
1510145265.436,51.270,35.645,57.129,53.223,333.496,0
1510145265.440,39.062,34.668,52.246,53.223,398.926,0
1510145265.444,34.180,33.691,51.270,58.594,408.203,0
1510145265.448,41.992,31.250,53.223,62.988,272.461,0
1510145265.452,58.594,25.879,57.129,62.988,249.512,0
1510145265.456,59.082,27.832,55.664,62.988,400.391,0
1510145265.460,43.945,28.320,54.688,66.406,366.699,0
1510145265.464,41.016,27.344,58.594,69.336,254.395,0
1510145265.468,43.945,32.227,60.547,74.219,228.027,0
1510145265.472,44.434,35.156,53.711,68.848,274.414,0
1510145265.475,42.480,40.039,47.363,49.316,190.918,0
1510145265.479,44.434,40.039,50.781,43.457,80.566,0
1510145265.483,48.828,38.574,54.688,52.734,62.012,0
1510145265.487,38.574,40.039,52.246,46.875,16.113,0
1510145265.491,30.762,33.203,50.293,40.527,-94.238,0
1510145265.495,40.527,27.344,48.828,41.016,-162.598,0
1510145265.499,38.086,38.574,44.922,31.738,-176.270,0
1510145265.503,38.086,43.945,49.316,27.832,-231.934,0
1510145265.507,32.715,26.855,52.734,33.691,-327.148,0
1510145265.511,17.578,30.762,48.340,38.574,-460.449,0
1510145265.515,23.926,46.875,49.316,35.645,-418.457,0
1510145265.518,30.762,44.922,47.852,25.391,-317.871,0
1510145265.522,30.273,38.086,43.457,26.367,-448.242,0
1510145265.526,40.039,35.156,49.316,34.180,-577.148,0
1510145265.530,46.875,36.133,53.223,38.086,-438.477,0
1510145265.534,50.781,32.227,54.688,44.922,-362.305,0
1510145265.538,53.223,26.367,61.035,57.129,-495.117,0
1510145265.542,45.898,26.855,61.035,63.477,-530.273,0
1510145265.546,53.711,28.320,58.105,70.312,-300.781,0
1510145265.550,56.152,31.738,54.688,57.129,-301.758,0
1510145265.554,55.664,36.621,49.805,29.297,-752.441,0
1510145265.558,59.570,40.527,51.758,32.227,-991.699,0
1510145265.561,54.199,40.039,50.293,37.598,-956.543,0
1510145265.565,59.570,32.715,52.734,47.363,-919.434,0
1510145265.569,59.570,31.250,56.152,55.176,-814.453,0
1510145265.573,44.922,37.109,56.641,45.410,-765.625,0
1510145265.577,39.551,35.156,55.176,39.551,-689.941,0
1510145265.581,54.199,33.203,53.711,33.203,-577.637,0
1510145265.585,61.523,34.180,56.641,33.203,-541.504,0
1510145265.589,53.223,22.461,57.129,35.645,-563.477,0
1510145265.593,44.922,20.996,55.176,40.039,-539.551,0
1510145265.597,33.691,35.156,54.199,48.828,-428.711,0
1510145265.600,26.367,35.645,54.199,51.758,-382.324,0
1510145265.604,30.762,34.668,52.246,44.922,-436.035,0
1510145265.608,27.832,35.645,49.805,32.227,-433.105,0
1510145265.612,32.227,30.762,51.270,34.180,-315.430,0
1510145265.616,37.109,29.785,50.781,47.363,-278.320,0
1510145265.620,41.504,32.227,52.734,55.176,-312.988,0
1510145265.624,52.734,37.109,55.176,60.059,-304.199,0
1510145265.628,53.711,40.527,54.688,69.336,-283.691,0
1510145265.632,46.875,33.203,56.152,68.359,-232.422,0
1510145265.636,46.387,33.691,50.781,53.711,-227.051,0
1510145265.640,54.199,41.504,48.340,50.781,-220.215,0
1510145265.643,42.969,38.086,48.828,50.293,-160.645,0
1510145265.647,26.855,34.180,46.875,43.457,-206.055,0
1510145265.651,22.949,36.133,45.410,39.551,-199.219,0
1510145265.655,25.391,35.645,47.852,36.621,-114.258,0
1510145265.659,35.645,33.691,47.363,36.621,-72.266,0
1510145265.663,44.434,33.691,48.828,38.574,-101.074,0
1510145265.667,52.734,37.109,48.340,32.715,-113.770,0
1510145265.671,62.988,35.156,46.875,35.645,-88.379,0
1510145265.675,59.570,35.156,50.293,41.016,-76.172,0
1510145265.679,44.434,38.086,48.340,39.551,-121.582,0
1510145265.683,38.086,39.062,45.410,40.527,-97.656,0
1510145265.686,48.828,38.086,45.898,50.781,-93.750,0
1510145265.690,51.758,42.969,44.922,55.664,-67.383,0
1510145265.694,51.758,54.199,44.922,56.641,-28.320,0
1510145265.698,54.199,47.852,45.898,55.664,-49.316,0
1510145265.702,58.594,48.340,48.828,58.594,-22.949,0
1510145265.706,64.453,55.176,51.270,67.871,-43.457,0
1510145265.710,62.988,54.688,52.734,71.777,-45.898,0
1510145265.714,61.523,42.480,55.664,75.195,-29.785,0
1510145265.718,47.363,34.180,53.711,64.941,-7.812,0
1510145265.722,27.832,36.133,51.758,47.852,-14.648,0
1510145265.725,33.691,39.062,53.223,44.922,-42.969,0
1510145265.729,44.922,39.062,52.734,42.969,-38.574,0
1510145265.733,37.598,35.156,51.270,42.480,-0.977,0
1510145265.737,31.250,29.785,56.152,33.691,3.906,0
1510145265.741,37.109,22.949,56.641,26.855,-31.738,0
1510145265.745,38.086,23.438,53.711,37.598,-52.734,0
1510145265.749,27.832,20.020,57.617,49.805,-89.844,0
1510145265.753,19.531,16.113,58.594,54.688,-39.551,0
1510145265.757,29.785,23.926,55.664,47.363,-62.012,0
1510145265.761,37.109,26.367,57.129,43.945,-71.289,0
1510145265.765,38.574,28.320,58.105,51.270,-53.223,0
1510145265.768,42.480,29.297,55.176,58.105,-40.527,0
1510145265.772,42.969,29.297,54.688,58.594,24.902,0
1510145265.776,42.480,29.297,52.734,52.246,58.594,0
1510145265.780,40.039,27.832,53.223,54.199,61.035,0
1510145265.784,39.551,37.598,52.246,54.688,48.340,0
1510145265.788,42.480,38.086,50.293,43.457,23.926,0
1510145265.792,42.480,35.645,50.781,41.016,15.625,0
1510145265.796,36.621,39.062,51.758,39.062,78.125,0
1510145265.800,30.762,30.273,53.711,33.691,45.410,0
1510145265.804,20.508,33.691,48.828,25.879,22.949,0
1510145265.808,19.531,44.434,48.340,31.250,42.480,0
1510145265.811,29.297,38.574,49.805,39.551,37.598,0
1510145265.815,40.039,33.691,49.316,36.621,89.844,0
1510145265.819,36.621,37.598,48.828,49.316,168.457,0
1510145265.823,31.738,35.156,52.734,58.594,175.293,0
1510145265.827,46.387,33.203,51.758,53.711,250.000,0
1510145265.831,51.758,35.645,49.805,48.340,296.875,0
1510145265.835,49.316,31.250,50.293,46.387,296.387,0
1510145265.839,44.434,24.414,52.246,55.176,358.887,0
1510145265.843,31.250,20.508,54.688,66.406,495.605,0
1510145265.847,28.809,20.996,51.270,56.152,628.906,0
1510145265.850,25.879,22.949,49.805,52.734,628.906,0
1510145265.854,21.973,33.203,49.316,41.504,575.195,0
1510145265.858,20.508,35.645,48.340,23.438,687.012,0
1510145265.862,15.137,28.320,49.316,21.484,812.988,0
1510145265.866,24.414,34.180,47.852,28.809,777.832,0
1510145265.870,48.828,39.062,50.293,41.016,674.316,0
1510145265.874,56.152,37.598,55.176,55.176,799.316,0
1510145265.878,43.945,35.156,56.641,60.547,832.520,0
1510145265.882,43.945,32.227,55.664,53.223,749.512,0
1510145265.886,57.129,41.504,48.340,41.016,602.539,0
1510145265.890,62.012,44.922,46.387,32.715,601.562,0
1510145265.893,46.875,42.969,47.363,39.551,732.910,0
1510145265.897,28.809,40.527,46.387,51.758,617.188,0
1510145265.901,20.996,28.809,46.875,48.340,525.391,0
1510145265.905,27.344,27.344,46.875,45.898,732.910,0
1510145265.909,35.156,29.785,46.387,40.527,828.613,0
1510145265.913,33.691,22.949,47.363,32.227,742.188,0
1510145265.917,31.250,23.438,48.340,35.156,788.574,0
1510145265.921,34.668,32.715,47.363,43.945,891.602,0
1510145265.925,41.504,33.203,47.363,56.641,794.434,0
1510145265.929,37.109,30.762,44.434,57.129,743.652,0
1510145265.933,33.691,28.320,38.086,55.176,795.410,0
1510145265.936,33.691,27.344,31.250,48.828,791.992,0
1510145265.940,42.969,29.785,22.949,41.992,688.965,0
1510145265.944,53.711,23.438,21.484,42.969,492.188,0
1510145265.948,46.387,15.625,27.344,50.293,471.191,0
1510145265.952,42.480,17.578,32.227,59.082,482.910,0
1510145265.956,57.129,18.066,42.969,69.336,322.754,0
1510145265.960,71.777,20.508,62.500,77.637,156.738,0
1510145265.964,65.918,17.578,73.242,60.547,144.043,0
1510145265.968,45.898,8.789,76.660,32.715,136.230,0
1510145265.972,28.320,14.648,80.566,29.297,-45.898,0
1510145265.975,25.391,12.695,78.613,43.457,-272.949,0
1510145265.979,31.738,4.395,72.754,48.828,-200.684,0
1510145265.983,41.504,4.883,68.359,42.969,-117.676,0
1510145265.987,41.504,13.184,62.012,36.133,-280.762,0
1510145265.991,39.062,24.414,57.129,34.180,-409.180,0
1510145265.995,37.598,29.785,50.781,35.645,-385.742,0
1510145265.999,36.133,34.668,50.293,36.621,-444.336,0
1510145266.003,47.852,37.598,53.223,41.504,-637.695,0
1510145266.007,48.340,36.621,52.246,40.527,-729.980,0
1510145266.011,46.875,34.180,53.223,44.434,-616.699,0
1510145266.015,42.480,29.297,51.270,53.711,-627.930,0
1510145266.018,30.762,35.156,48.340,45.898,-802.246,0
1510145266.022,33.203,36.133,49.316,42.480,-883.789,0
1510145266.026,46.387,31.250,45.410,44.922,-862.305,0
1510145266.030,51.758,30.273,42.969,51.270,-855.957,0
1510145266.034,41.992,27.344,43.457,47.852,-825.195,0
1510145266.038,27.832,26.367,44.922,33.203,-863.281,0
1510145266.042,24.414,25.879,46.875,19.531,-811.523,0
1510145266.046,24.414,19.043,50.293,20.508,-759.766,0
1510145266.050,24.902,13.672,58.594,26.367,-758.301,0
1510145266.054,26.367,12.207,61.523,20.996,-752.930,0
1510145266.058,21.484,12.207,62.500,20.020,-674.316,0
1510145266.061,27.344,18.555,67.871,28.320,-577.148,0
1510145266.065,40.039,18.555,73.730,30.273,-560.547,0
1510145266.069,46.875,14.160,75.684,27.832,-566.895,0
1510145266.073,37.109,17.090,76.660,22.461,-545.898,0
1510145266.077,35.645,20.996,78.613,21.484,-436.035,0
1510145266.081,42.480,20.020,77.637,33.691,-441.406,0
1510145266.085,37.598,16.602,75.195,36.621,-416.992,0
1510145266.089,20.996,13.672,71.777,34.180,-345.703,0
1510145266.093,2.441,21.484,68.848,29.785,-340.332,0
1510145266.097,12.695,26.367,66.406,38.086,-276.855,0
1510145266.100,21.484,17.578,65.430,42.969,-248.047,0
1510145266.104,22.949,17.090,62.988,41.992,-257.324,0
1510145266.108,29.785,18.066,62.500,48.340,-261.230,0
1510145266.112,37.109,17.578,62.012,52.246,-225.098,0
1510145266.116,48.828,22.949,62.012,52.246,-182.129,0
1510145266.120,55.176,23.438,60.547,42.480,-169.922,0
1510145266.124,42.969,20.508,62.012,44.922,-135.254,0
1510145266.128,36.621,22.949,63.477,46.875,-137.207,0
1510145266.132,29.785,25.879,62.988,40.527,-156.250,0
1510145266.136,23.926,30.273,62.500,40.039,-99.609,0
1510145266.140,31.738,33.691,63.965,48.828,-90.820,0
1510145266.143,59.082,32.715,62.988,54.199,-182.129,0
1510145266.147,60.547,29.297,57.617,54.688,-201.172,0
1510145266.151,34.180,33.691,57.617,49.805,-93.750,0
1510145266.155,20.508,35.645,56.152,40.039,-57.617,0
1510145266.159,29.297,41.016,52.246,37.109,-93.750,0
1510145266.163,37.109,42.480,49.316,42.480,-73.242,0
1510145266.167,35.156,34.180,47.363,67.383,-20.020,0
1510145266.171,34.180,38.574,50.293,90.820,-7.812,0
1510145266.175,28.809,37.598,46.875,77.148,-19.531,0
1510145266.179,43.457,36.621,42.480,48.828,-0.488,0
1510145266.183,49.316,43.945,46.875,44.434,35.645,0
1510145266.186,26.855,45.410,44.434,39.551,-1.465,0
1510145266.190,17.090,43.457,41.992,33.203,-12.207,0
1510145266.194,20.020,40.039,43.945,33.203,40.039,0
1510145266.198,42.969,38.086,47.852,43.457,3.906,0
1510145266.202,53.711,41.016,50.293,58.594,-64.941,0
1510145266.206,37.109,39.062,50.293,68.848,-52.246,0
1510145266.210,32.227,35.645,49.316,62.500,33.691,0
1510145266.214,42.480,40.527,46.875,54.199,79.590,0
1510145266.218,57.617,47.852,40.527,58.594,-11.719,0
1510145266.222,58.594,52.246,41.504,63.477,-29.785,0
1510145266.225,59.570,50.293,48.340,66.895,33.691,0
1510145266.229,65.430,50.781,50.293,63.477,0.488,0
1510145266.233,69.336,48.828,52.734,62.500,-20.020,0
1510145266.237,75.684,43.457,50.781,68.359,-32.227,0
1510145266.241,64.941,42.480,48.828,61.523,-33.203,0
1510145266.245,41.504,36.133,52.246,57.129,-42.969,0
1510145266.249,40.527,34.668,51.758,50.781,-34.180,0
1510145266.253,52.246,34.180,49.805,36.621,15.137,0
1510145266.257,50.781,32.227,51.270,26.855,21.484,0
1510145266.261,46.387,28.320,56.641,29.297,-7.812,0
1510145266.265,49.316,25.879,60.059,39.062,-25.879,0
1510145266.268,52.734,28.320,60.059,45.898,-48.828,0
1510145266.272,54.199,26.855,62.500,45.898,-39.062,0
1510145266.276,41.504,23.438,66.895,52.246,-14.160,0
1510145266.280,28.809,24.414,68.848,62.988,-15.625,0
1510145266.284,33.203,28.809,67.383,65.430,-41.016,0
1510145266.288,42.480,31.250,63.477,56.152,-0.488,0
1510145266.292,54.688,33.691,61.523,49.316,-0.488,0
1510145266.296,67.383,32.715,60.059,46.875,-38.086,0
1510145266.300,65.918,32.227,58.594,53.223,6.348,0
1510145266.304,39.551,30.273,62.500,66.406,23.926,0
1510145266.308,28.809,34.180,63.477,61.035,45.898,0
1510145266.311,31.738,37.598,60.547,57.129,7.812,0
1510145266.315,35.156,30.762,57.617,53.223,-14.160,0
1510145266.319,28.320,24.902,59.570,46.875,29.297,0
1510145266.323,23.926,21.484,59.082,49.316,20.996,0
1510145266.327,27.344,25.879,55.664,45.898,25.391,0
1510145266.331,26.855,26.367,57.617,36.133,54.688,0
1510145266.335,27.344,17.090,58.594,32.227,105.957,0
1510145266.339,20.020,13.672,57.617,36.133,46.387,0
1510145266.343,12.695,13.184,62.012,41.016,20.996,0
1510145266.347,29.297,17.578,62.012,32.715,14.648,0
1510145266.350,32.227,18.555,55.176,13.672,-32.227,0
1510145266.354,23.438,18.555,54.199,14.648,-34.180,0
1510145266.358,20.996,30.273,51.758,28.320,15.137,0
1510145266.362,17.578,35.156,47.852,31.250,33.691,0
1510145266.366,29.297,38.086,48.340,40.527,-18.066,0
1510145266.370,30.273,39.551,51.758,51.758,-5.371,0
1510145266.374,31.738,31.738,50.781,47.363,64.453,0
1510145266.378,47.852,31.250,46.387,46.875,59.082,0
1510145266.382,53.223,42.480,47.852,51.758,20.508,0
1510145266.386,54.688,45.898,46.875,50.781,49.316,0
1510145266.390,46.387,45.898,47.363,41.992,70.801,0
1510145266.393,27.832,42.480,52.246,41.992,68.359,0
1510145266.397,12.695,25.879,51.758,48.340,55.664,0
1510145266.401,9.277,28.809,48.340,50.781,48.340,0
1510145266.405,17.578,33.691,47.363,49.805,83.984,0
1510145266.409,28.320,29.785,45.410,45.898,126.465,0
1510145266.413,36.621,37.598,41.016,40.039,126.953,0
1510145266.417,39.551,36.621,42.480,33.691,168.945,0
1510145266.421,29.785,28.320,42.480,30.762,245.605,0
1510145266.425,20.508,25.391,43.945,38.574,188.477,0
1510145266.429,27.832,29.785,42.969,44.434,234.863,0
1510145266.433,26.855,36.621,45.410,48.340,388.184,0
1510145266.436,14.160,45.410,49.805,47.852,383.301,0
1510145266.440,15.625,44.434,42.969,51.758,326.660,0
1510145266.444,36.621,40.527,42.969,50.781,396.973,0
1510145266.448,49.316,44.922,46.875,36.621,539.062,0
1510145266.452,46.387,45.410,51.758,41.504,487.793,0
1510145266.456,37.109,40.527,52.734,56.641,398.926,0
1510145266.460,43.945,42.480,51.270,57.129,564.941,0
1510145266.464,47.363,36.133,52.246,51.758,624.512,0
1510145266.468,37.109,25.879,53.223,53.223,589.844,0
1510145266.472,30.273,31.250,56.152,49.805,598.145,0
1510145266.475,23.926,32.227,55.664,42.480,638.672,0
1510145266.479,15.137,26.367,44.922,34.668,693.848,0
1510145266.483,8.789,13.184,30.273,25.391,590.332,0
1510145266.487,13.184,5.371,25.879,24.414,520.996,0
1510145266.491,10.254,3.418,22.949,13.184,546.875,0
1510145266.495,-11.230,-4.395,18.555,-1.953,549.805,0
1510145266.499,-25.879,-14.648,11.719,-13.672,475.586,0
1510145266.503,-26.367,-20.996,7.324,-12.207,476.562,0
1510145266.507,-10.254,-24.902,6.348,0.000,562.988,0
1510145266.511,-3.418,-28.320,8.301,2.930,500.488,0
1510145266.515,-8.301,-25.391,10.254,12.207,401.855,0
1510145266.518,5.859,-18.555,6.348,23.926,424.805,0
1510145266.522,12.207,-13.184,6.348,21.484,454.590,0
1510145266.526,4.883,-5.859,7.812,11.230,390.137,0
1510145266.530,9.766,2.441,8.789,3.906,289.062,0
1510145266.534,18.066,2.441,10.742,-2.930,204.102,0
1510145266.538,20.508,-0.488,14.160,-1.953,164.551,0
1510145266.542,14.648,3.418,20.508,9.277,51.758,0
1510145266.546,6.836,6.348,20.020,10.742,-141.602,0
1510145266.550,-5.371,3.906,18.066,10.254,-67.383,0
1510145266.554,-12.207,2.441,21.973,18.555,-65.918,0
1510145266.558,-0.977,3.906,25.391,12.695,-280.273,0
1510145266.561,14.160,4.395,27.344,-6.348,-397.949,0
1510145266.565,11.719,5.859,29.785,3.906,-433.105,0
1510145266.569,9.766,6.348,32.715,18.555,-580.078,0
1510145266.573,18.066,4.395,32.715,20.508,-721.191,0
1510145266.577,11.230,9.766,33.691,25.879,-729.980,0
1510145266.581,7.324,10.254,34.180,27.344,-730.469,0
1510145266.585,21.973,8.301,36.133,28.320,-694.336,0
1510145266.589,21.973,4.883,35.645,32.715,-580.566,0
1510145266.593,36.133,9.277,37.109,44.922,-541.504,0
1510145266.597,53.223,24.902,38.574,55.176,-577.637,0
1510145266.600,34.180,26.367,36.133,41.504,-531.250,0
1510145266.604,13.184,18.066,33.691,12.207,-496.582,0
1510145266.608,11.230,12.695,30.762,-6.836,-449.707,0
1510145266.612,8.789,18.066,29.785,11.719,-409.180,0
1510145266.616,4.395,23.438,30.762,28.809,-378.906,0
1510145266.620,8.789,17.090,33.203,27.832,-328.613,0
1510145266.624,9.277,16.602,34.668,15.625,-359.375,0
1510145266.628,15.625,20.996,28.809,-3.418,-311.035,0
1510145266.632,15.625,20.020,25.391,-0.488,-226.562,0
1510145266.636,12.695,24.414,24.414,15.137,-283.691,0
1510145266.640,18.066,29.297,24.414,17.578,-280.762,0
1510145266.643,23.438,39.551,26.367,26.367,-148.926,0
1510145266.647,41.016,47.363,26.855,37.598,-112.793,0
1510145266.651,51.270,44.922,28.320,38.086,-45.410,0
1510145266.655,40.527,43.945,26.855,35.645,138.184,0
1510145266.659,28.809,36.621,26.855,32.715,402.832,0
1510145266.663,37.109,23.438,27.832,28.320,424.316,0
1510145266.667,46.875,20.508,28.320,26.855,521.973,0
1510145266.671,46.875,21.973,30.762,30.762,868.164,0
1510145266.675,43.945,22.461,33.203,32.227,957.031,0
1510145266.679,25.879,22.949,32.715,30.762,951.172,0
1510145266.683,21.973,25.879,32.227,36.133,979.492,0
