timestamps,TP9,AF7,AF8,TP10,Right AUX,Marker0
1508216389.635,18.555,63.477,29.297,16.602,39.551,0
1508216389.639,22.461,46.875,31.250,20.020,24.414,0
1508216389.643,26.855,44.434,40.527,23.926,25.391,0
1508216389.647,27.344,36.621,32.227,26.367,21.484,0
1508216389.651,34.180,20.020,27.832,32.227,18.555,0
1508216389.654,32.227,44.434,33.691,39.551,30.273,0
1508216389.658,33.691,51.758,32.227,43.457,5.859,0
1508216389.662,36.621,35.156,32.715,41.016,8.301,0
1508216389.666,23.438,32.715,32.227,33.691,30.762,0
1508216389.670,25.391,30.273,32.227,37.598,22.461,0
1508216389.674,29.785,29.785,31.250,39.551,13.184,0
1508216389.678,29.785,40.527,29.785,32.715,-8.789,0
1508216389.682,32.715,45.410,29.297,35.156,37.109,0
1508216389.686,32.715,34.668,35.645,33.691,41.504,0
1508216389.690,32.227,27.344,32.715,28.320,5.371,0
1508216389.693,26.367,43.457,22.461,28.320,12.695,0
1508216389.697,35.156,49.805,27.344,39.062,15.625,0
1508216389.701,52.734,45.898,33.203,50.781,42.969,0
1508216389.705,44.922,42.969,28.320,38.574,13.672,0
1508216389.709,37.109,45.410,26.367,20.508,-9.277,0
1508216389.713,36.133,37.598,28.320,27.832,43.945,0
1508216389.717,33.691,24.902,32.715,45.898,61.035,0
1508216389.721,35.156,26.855,35.645,42.480,45.898,0
1508216389.725,37.109,42.480,35.156,31.250,32.715,0
1508216389.729,41.992,54.688,29.785,32.227,49.805,0
1508216389.733,49.316,35.156,29.785,40.527,40.527,0
1508216389.736,48.340,18.555,38.574,46.387,16.113,0
1508216389.740,45.898,42.480,42.480,47.852,27.344,0
1508216389.744,55.664,51.758,41.992,50.293,39.062,0
1508216389.748,60.547,39.062,38.574,52.246,30.762,0
1508216389.752,68.848,41.992,45.410,52.734,-3.906,0
1508216389.756,69.824,50.781,46.875,54.199,-22.461,0
1508216389.760,65.430,53.223,36.133,59.082,9.277,0
1508216389.764,65.918,46.875,37.109,67.871,29.297,0
1508216389.768,54.199,44.922,40.039,61.523,6.348,0
1508216389.772,56.641,33.691,36.621,53.223,19.531,0
1508216389.776,64.941,24.414,44.922,61.035,4.883,0
1508216389.779,61.035,37.598,45.898,62.012,7.324,0
1508216389.783,53.711,30.273,40.039,55.664,23.438,0
1508216389.787,46.875,24.414,41.504,60.059,17.090,0
1508216389.791,52.246,47.363,38.086,63.477,37.109,0
1508216389.795,58.105,51.758,34.668,58.594,40.039,0
1508216389.799,42.480,45.410,39.551,48.828,12.695,0
1508216389.803,34.180,44.922,53.711,51.270,14.160,0
1508216389.807,32.715,32.715,48.828,51.758,-6.836,0
1508216389.811,33.691,28.809,34.180,38.086,-25.879,0
1508216389.815,34.668,23.926,25.879,33.691,17.578,0
1508216389.818,32.227,18.066,26.367,35.156,46.387,0
1508216389.822,36.133,29.297,33.203,39.551,40.527,0
1508216389.826,36.133,42.969,31.738,43.945,42.480,0
1508216389.830,33.691,42.480,40.039,50.293,26.367,0
1508216389.834,40.527,30.762,46.387,49.316,19.043,0
1508216389.838,38.574,33.691,40.039,39.062,42.969,0
1508216389.842,36.133,41.016,34.180,38.086,25.879,0
1508216389.846,41.992,41.016,32.227,43.945,45.410,0
1508216389.850,41.992,38.086,35.156,46.875,73.242,0
1508216389.854,42.969,23.438,36.621,46.387,27.832,0
1508216389.858,50.293,25.879,36.133,50.293,6.348,0
1508216389.861,59.082,52.246,40.039,57.617,1.953,0
1508216389.865,52.734,31.738,35.156,57.617,18.555,0
1508216389.869,48.828,8.789,29.297,56.152,33.203,0
1508216389.873,51.758,39.062,29.785,47.363,6.348,0
1508216389.877,54.199,49.805,27.832,51.758,28.809,0
1508216389.881,52.734,41.016,30.762,62.988,55.176,0
1508216389.885,45.410,39.062,35.156,59.570,39.062,0
1508216389.889,45.898,40.527,37.598,43.457,17.090,0
1508216389.893,49.316,39.062,41.504,41.016,-16.113,0
1508216389.897,51.758,40.527,35.156,48.340,21.973,0
1508216389.901,54.199,45.410,27.344,50.781,17.578,0
1508216389.904,60.547,48.340,41.016,61.035,-22.949,0
1508216389.908,59.570,39.551,50.781,70.801,23.926,0
1508216389.912,54.199,21.973,50.293,70.312,48.828,0
1508216389.916,43.945,25.391,48.340,59.082,41.992,0
1508216389.920,41.504,27.832,46.875,53.223,44.434,0
1508216389.924,54.199,29.785,46.875,62.500,3.418,0
1508216389.928,56.152,26.367,44.434,58.594,2.441,0
1508216389.932,47.363,26.367,42.969,51.270,23.438,0
1508216389.936,44.922,23.438,47.363,55.664,24.414,0
1508216389.940,52.246,16.602,48.340,57.129,20.508,0
1508216389.943,52.246,28.809,39.062,55.176,24.414,0
1508216389.947,48.828,32.227,38.086,54.688,9.766,0
1508216389.951,52.246,29.297,41.504,58.594,-0.488,0
1508216389.955,54.688,20.996,44.922,63.965,24.902,0
1508216389.959,54.688,22.461,52.246,74.707,46.387,0
1508216389.963,47.363,26.855,52.246,72.754,41.992,0
1508216389.967,54.688,24.902,50.781,66.406,37.109,0
1508216389.971,60.059,28.809,50.293,67.871,30.762,0
1508216389.975,51.758,27.344,46.875,70.801,24.414,0
1508216389.979,51.758,27.344,42.480,74.219,55.664,0
1508216389.983,54.688,23.926,45.898,73.730,67.871,0
1508216389.986,51.270,29.785,52.246,69.336,48.828,0
1508216389.990,52.734,34.180,50.781,71.777,-3.418,0
1508216389.994,61.523,23.438,45.898,73.242,-20.996,0
1508216389.998,59.082,25.879,44.922,69.824,43.945,0
1508216390.002,51.270,29.785,50.781,70.312,39.551,0
1508216390.006,49.316,18.066,53.223,69.336,0.977,0
1508216390.010,44.922,-4.395,55.176,71.777,9.766,0
1508216390.014,46.387,18.066,58.594,76.660,59.570,0
1508216390.018,42.969,47.852,49.805,67.383,82.031,0
1508216390.022,28.809,35.645,43.945,65.918,18.066,0
1508216390.026,32.227,36.133,49.316,69.336,-4.883,0
1508216390.029,32.715,36.621,45.898,64.453,25.879,0
1508216390.033,35.645,31.250,44.434,66.406,61.523,0
1508216390.037,39.551,29.785,48.340,64.453,44.922,0
1508216390.041,37.598,34.180,48.340,60.059,3.906,0
1508216390.045,41.992,34.668,46.875,59.570,16.602,0
1508216390.049,39.062,31.738,46.875,56.152,39.062,0
1508216390.053,34.668,27.344,42.969,58.594,16.113,0
1508216390.057,41.504,22.461,40.039,64.453,8.301,0
1508216390.061,38.574,24.902,42.969,63.965,20.996,0
1508216390.065,41.016,34.668,48.340,67.383,23.438,0
1508216390.068,39.551,40.039,53.711,70.801,24.902,0
1508216390.072,26.855,40.527,49.805,66.406,28.320,0
1508216390.076,27.344,32.715,44.434,58.105,37.109,0
1508216390.080,35.156,25.391,43.457,54.199,6.348,0
1508216390.084,35.645,27.832,46.875,51.270,-10.254,0
1508216390.088,32.227,32.715,46.387,52.734,34.668,0
1508216390.092,35.156,29.297,46.387,61.523,22.949,0
1508216390.096,32.227,29.785,46.387,58.594,30.273,0
1508216390.100,31.250,39.062,44.922,54.199,31.250,0
1508216390.104,27.832,37.598,43.457,56.641,8.789,0
1508216390.108,30.273,38.574,47.363,54.688,26.367,0
1508216390.111,47.363,39.551,52.246,62.012,33.691,0
1508216390.115,45.898,41.504,47.852,70.312,28.809,0
1508216390.119,35.156,40.039,45.410,68.848,42.480,0
1508216390.123,36.621,24.902,45.898,71.777,10.742,0
1508216390.127,41.504,24.414,44.922,69.336,-14.160,0
1508216390.131,42.480,31.250,40.527,60.059,-1.465,0
1508216390.135,41.504,32.227,36.621,51.270,-1.465,0
1508216390.139,44.922,30.273,39.062,57.617,-40.039,0
1508216390.143,46.875,36.621,38.086,53.711,-38.086,0
1508216390.147,46.875,39.551,35.645,41.504,33.691,0
1508216390.151,49.805,36.621,36.621,47.363,35.645,0
1508216390.154,49.805,26.367,36.621,51.270,8.301,0
1508216390.158,47.363,27.832,36.133,51.270,28.320,0
1508216390.162,50.781,45.898,36.133,43.457,34.180,0
1508216390.166,66.895,51.270,36.621,50.781,51.270,0
1508216390.170,59.082,50.293,37.109,64.453,5.859,0
1508216390.174,32.227,41.992,33.203,49.805,-22.949,0
1508216390.178,29.785,38.086,28.809,32.227,5.371,0
1508216390.182,26.855,34.668,32.227,22.949,14.160,0
1508216390.186,21.484,33.203,34.180,24.902,19.043,0
1508216390.190,23.438,36.621,32.227,34.180,26.367,0
1508216390.193,20.508,27.832,36.621,30.273,33.691,0
1508216390.197,18.555,29.785,33.203,29.297,28.809,0
1508216390.201,14.160,34.668,34.180,27.832,24.902,0
1508216390.205,11.719,33.203,35.156,19.043,0.488,0
1508216390.209,17.578,27.832,31.738,20.020,7.324,0
1508216390.213,25.391,31.738,31.250,23.438,10.254,0
1508216390.217,20.020,24.902,21.973,14.160,24.902,0
1508216390.221,15.137,26.855,21.973,12.695,18.066,0
1508216390.225,19.531,31.738,28.809,26.855,0.977,0
1508216390.229,26.855,31.738,26.367,28.320,11.230,0
1508216390.233,34.668,38.086,28.320,26.855,0.488,0
1508216390.236,36.621,40.527,35.156,33.203,0.488,0
1508216390.240,33.203,51.758,26.855,34.180,28.809,1
1508216390.244,32.227,59.082,21.484,31.250,18.066,0
1508216390.248,33.691,52.246,16.602,32.227,16.113,0
1508216390.252,39.062,39.551,20.020,42.969,41.992,0
1508216390.256,44.922,37.598,32.227,46.875,12.207,0
1508216390.260,51.270,35.645,37.598,45.410,-5.859,0
1508216390.264,49.316,27.832,41.016,37.109,15.625,0
1508216390.268,46.875,31.250,34.668,37.109,21.484,0
1508216390.272,46.875,36.621,28.320,45.410,48.340,0
1508216390.276,41.016,29.297,33.203,54.199,28.320,0
1508216390.279,38.086,31.738,37.109,50.293,0.000,0
1508216390.283,39.551,26.855,45.410,51.270,35.645,0
1508216390.287,39.551,19.043,46.387,59.570,29.785,0
1508216390.291,38.574,31.738,35.156,54.688,14.160,0
1508216390.295,32.715,35.645,40.039,48.828,-2.441,0
1508216390.299,26.367,26.367,47.852,53.223,9.766,0
1508216390.303,18.555,26.855,36.621,50.781,39.062,0
1508216390.307,16.113,36.133,34.668,50.293,20.996,0
1508216390.311,17.090,30.273,44.922,45.410,8.789,0
1508216390.315,14.648,30.273,39.062,33.203,16.602,0
1508216390.318,4.395,37.109,26.367,27.344,19.531,0
1508216390.322,2.930,28.320,26.855,22.949,-2.930,0
1508216390.326,6.836,27.832,26.367,20.996,-8.789,0
1508216390.330,3.906,27.832,23.926,20.508,38.574,0
1508216390.334,10.742,34.180,29.785,24.902,14.648,0
1508216390.338,16.602,43.457,27.832,20.020,-1.465,0
1508216390.342,18.066,45.410,22.461,10.254,33.203,0
1508216390.346,13.184,52.734,22.461,18.066,43.457,0
1508216390.350,20.508,50.293,20.508,18.555,44.434,0
1508216390.354,28.320,25.879,25.391,18.555,4.395,0
1508216390.358,33.203,36.621,32.227,35.645,9.277,0
1508216390.361,29.297,51.270,24.414,25.879,43.945,0
1508216390.365,17.578,37.109,16.113,11.719,30.273,0
1508216390.369,20.020,27.832,19.043,27.344,3.418,0
1508216390.373,26.855,30.762,22.461,31.738,45.410,0
1508216390.377,29.297,50.781,23.438,18.066,46.875,0
1508216390.381,31.738,53.711,21.973,21.484,23.926,0
1508216390.385,31.738,28.809,20.996,29.297,40.527,0
1508216390.389,25.879,24.902,29.297,30.762,49.805,0
1508216390.393,23.926,41.016,31.738,33.203,34.668,0
1508216390.397,26.855,50.293,28.809,27.832,36.621,0
1508216390.401,24.902,61.035,26.367,27.832,61.523,0
1508216390.404,29.785,63.477,25.879,43.945,41.016,0
1508216390.408,29.297,30.762,22.949,38.086,13.184,0
1508216390.412,13.672,7.812,24.414,28.809,0.000,0
1508216390.416,15.625,37.598,28.320,34.668,3.418,0
1508216390.420,22.461,47.852,28.809,39.062,36.133,0
1508216390.424,19.531,47.363,27.344,33.691,20.996,0
1508216390.428,21.973,37.598,26.855,35.156,13.184,0
1508216390.432,19.531,32.715,28.320,35.156,42.969,0
1508216390.436,26.855,46.387,28.809,33.203,41.504,0
1508216390.440,34.180,42.480,31.250,39.551,15.625,0
1508216390.443,33.203,58.594,38.574,47.852,21.973,0
1508216390.447,26.855,63.965,37.109,37.598,43.945,0
1508216390.451,7.812,29.297,32.715,26.855,48.340,0
1508216390.455,2.930,32.715,31.250,32.715,14.160,0
1508216390.459,6.836,57.617,24.414,22.949,-15.625,0
1508216390.463,4.883,62.012,29.297,17.578,51.758,0
1508216390.467,19.531,44.434,39.062,25.391,85.938,0
1508216390.471,27.344,17.090,43.945,24.414,52.734,0
1508216390.475,23.438,35.645,34.668,20.508,37.598,0
1508216390.479,34.668,54.688,26.367,34.180,53.223,0
1508216390.483,41.016,30.273,38.574,54.688,51.758,0
1508216390.486,40.039,28.809,54.199,57.617,53.711,0
1508216390.490,41.504,59.082,51.270,51.270,30.762,0
1508216390.494,49.316,47.852,45.898,52.246,20.996,0
1508216390.498,58.105,33.691,47.363,60.547,53.711,0
1508216390.502,66.895,24.414,47.852,69.336,23.438,0
1508216390.506,72.266,14.648,46.387,68.848,-0.977,0
1508216390.510,65.430,36.133,52.734,64.941,27.832,0
1508216390.514,62.012,40.039,59.570,65.918,26.855,0
1508216390.518,59.570,28.320,55.664,69.336,11.230,0
1508216390.522,59.570,42.969,49.805,68.848,0.488,0
1508216390.526,71.777,47.852,52.734,75.684,-5.859,0
1508216390.529,87.891,28.320,70.312,90.820,26.367,0
1508216390.533,85.449,22.949,70.312,97.656,56.152,0
1508216390.537,75.195,30.762,57.617,92.773,29.785,0
1508216390.541,80.078,21.973,55.664,89.355,13.672,0
1508216390.545,90.820,20.020,62.500,101.074,15.137,0
1508216390.549,94.727,21.484,68.848,106.934,14.648,0
1508216390.553,96.191,13.184,58.594,110.352,33.691,0
1508216390.557,105.957,29.297,54.199,116.699,21.973,0
1508216390.561,103.516,42.480,67.383,113.770,22.461,0
1508216390.565,89.355,29.785,78.125,106.445,48.340,0
1508216390.568,84.473,33.203,77.148,105.957,49.316,0
1508216390.572,79.590,23.438,74.707,114.746,24.902,0
1508216390.576,84.473,6.348,79.590,119.141,5.859,0
1508216390.580,96.191,30.762,77.637,117.188,16.602,0
1508216390.584,103.027,17.578,78.613,118.652,45.898,0
1508216390.588,104.492,-7.324,81.543,123.047,61.523,0
1508216390.592,101.074,16.602,80.078,126.465,28.320,0
1508216390.596,98.633,29.297,78.125,135.254,2.441,0
1508216390.600,107.910,26.367,83.496,141.113,37.598,0
1508216390.604,121.094,24.414,99.121,145.508,47.363,0
1508216390.608,126.465,17.090,89.355,132.324,8.301,0
1508216390.611,111.816,11.230,69.824,114.258,11.230,0
1508216390.615,100.586,22.461,74.707,116.211,46.387,0
1508216390.619,107.422,32.715,79.102,119.629,24.902,0
1508216390.623,108.887,33.203,74.219,123.535,-7.324,0
1508216390.627,105.469,28.320,72.266,126.953,27.832,0
1508216390.631,103.027,28.809,71.777,124.512,41.992,0
1508216390.635,104.004,35.645,60.547,118.164,30.273,0
1508216390.639,107.910,34.668,69.336,122.070,-0.488,0
1508216390.643,104.980,39.551,80.078,122.559,-2.441,0
1508216390.647,102.539,24.414,72.754,122.559,64.453,0
1508216390.651,104.492,23.438,68.848,134.766,65.430,0
1508216390.654,108.887,26.367,66.406,125.000,11.230,0
1508216390.658,108.398,5.859,66.895,116.699,26.855,0
1508216390.662,97.656,29.297,66.895,122.559,14.160,0
1508216390.666,93.750,53.223,64.941,118.164,23.438,0
1508216390.670,92.285,44.434,55.176,106.934,35.156,0
1508216390.674,88.379,54.199,46.387,101.562,31.738,0
1508216390.678,90.820,43.945,58.105,104.980,55.176,0
1508216390.682,87.402,33.691,64.941,113.770,49.805,0
1508216390.686,80.566,44.922,59.570,104.492,-1.465,0
1508216390.690,74.219,32.227,54.199,94.238,-21.973,0
1508216390.693,71.777,15.625,55.176,103.027,-2.441,0
1508216390.697,69.824,27.344,54.199,104.004,7.812,0
1508216390.701,70.312,40.527,49.805,101.074,43.457,0
1508216390.705,68.848,42.969,47.363,88.867,47.363,0
1508216390.709,60.547,35.156,51.758,83.496,39.551,0
1508216390.713,67.383,28.320,57.129,90.820,16.113,0
1508216390.717,81.055,31.250,54.688,88.379,6.836,0
1508216390.721,77.637,38.086,54.199,80.566,61.523,0
1508216390.725,66.895,43.457,53.223,70.801,20.020,0
1508216390.729,72.266,41.992,63.477,78.125,-30.273,0
1508216390.733,71.777,37.109,62.500,75.195,-0.488,0
1508216390.736,56.641,21.484,42.480,60.059,-8.301,0
1508216390.740,56.152,31.738,43.945,64.941,-30.762,0
1508216390.744,58.105,38.574,50.293,68.359,-26.367,0
1508216390.748,50.293,34.668,48.340,62.500,12.207,0
1508216390.752,50.781,38.086,46.387,66.895,37.598,0
1508216390.756,59.570,39.551,41.992,73.730,6.348,0
1508216390.760,64.941,29.785,45.410,65.918,-6.348,0
1508216390.764,62.500,7.324,43.457,60.547,55.664,0
1508216390.768,64.453,9.277,47.363,73.242,62.988,0
1508216390.772,58.105,26.855,49.805,74.707,13.672,0
1508216390.776,49.805,43.945,42.969,67.383,6.348,0
1508216390.779,52.246,60.547,42.480,63.965,42.480,0
1508216390.783,49.316,45.410,44.434,57.617,56.641,0
1508216390.787,45.410,37.598,46.387,59.082,18.066,0
1508216390.791,47.363,40.039,41.016,63.477,-14.648,0
1508216390.795,47.852,38.086,36.621,49.316,23.926,0
1508216390.799,42.969,44.922,33.691,33.691,34.668,0
1508216390.803,33.691,50.781,35.645,36.133,17.090,0
1508216390.807,31.738,46.387,37.598,38.086,22.461,0
1508216390.811,39.551,20.020,42.480,46.387,47.363,0
1508216390.815,36.621,30.273,41.016,52.734,38.086,0
1508216390.818,24.902,59.082,34.180,36.133,13.184,0
1508216390.822,29.297,56.641,38.574,37.598,36.621,0
1508216390.826,38.574,31.250,38.574,49.316,34.180,0
1508216390.830,38.574,43.945,35.156,42.969,17.578,0
1508216390.834,41.016,56.152,35.156,44.922,41.016,0
1508216390.838,36.621,39.062,32.227,30.762,45.898,0
1508216390.842,29.785,29.297,37.109,23.926,18.066,0
1508216390.846,30.762,38.086,37.109,37.109,14.648,0
1508216390.850,31.738,46.387,35.645,35.645,6.348,0
1508216390.854,28.320,28.809,40.039,29.785,-2.930,0
1508216390.858,29.785,42.969,41.016,29.785,22.949,0
1508216390.861,35.645,53.223,37.109,34.668,42.969,0
1508216390.865,31.250,41.016,31.738,39.551,47.852,0
1508216390.869,34.668,39.062,37.109,45.410,46.875,0
1508216390.873,34.668,47.363,40.527,41.504,19.043,0
1508216390.877,23.438,41.992,41.016,37.598,-6.348,0
1508216390.881,25.879,42.969,42.480,48.340,35.156,0
1508216390.885,17.578,45.898,41.992,43.945,62.988,0
1508216390.889,12.695,41.016,40.527,38.086,24.902,0
1508216390.893,13.672,39.062,38.574,30.273,-6.836,0
1508216390.897,13.184,36.133,37.598,21.973,8.301,0
1508216390.901,7.324,41.504,35.645,21.484,36.133,0
1508216390.904,-0.977,52.734,33.691,12.207,28.320,0
1508216390.908,-11.230,52.734,35.156,6.348,15.137,0
1508216390.912,-19.043,53.711,41.504,5.859,22.949,0
1508216390.916,-20.508,53.711,33.691,-9.766,33.203,0
1508216390.920,-40.039,61.035,18.066,-32.715,14.160,0
1508216390.924,-64.941,67.383,10.742,-49.316,1.953,0
1508216390.928,-70.801,65.430,7.324,-69.824,17.090,0
1508216390.932,-73.730,34.668,3.906,-84.961,40.527,0
1508216390.936,-90.332,36.621,0.488,-91.309,23.926,0
1508216390.940,-99.609,58.594,-2.441,-97.168,-6.348,0
1508216390.943,-102.051,71.289,-10.254,-100.586,43.945,0
1508216390.947,-100.586,95.703,-17.578,-107.422,86.426,0
1508216390.951,-100.586,78.125,-7.324,-99.609,25.879,0
1508216390.955,-102.539,47.363,-2.930,-90.820,-7.324,0
1508216390.959,-90.820,59.570,-13.672,-89.844,19.531,0
1508216390.963,-83.008,67.383,-19.531,-88.379,61.035,0
1508216390.967,-81.543,68.359,-19.531,-89.355,40.039,0
1508216390.971,-72.266,66.895,-17.090,-73.730,-13.184,0
1508216390.975,-63.965,75.684,-21.484,-63.477,1.953,0
1508216390.979,-58.105,70.801,-22.461,-64.941,40.039,0
1508216390.983,-53.223,35.645,-13.672,-59.082,50.781,0
1508216390.986,-58.105,60.547,-8.301,-62.500,7.324,0
1508216390.990,-40.039,81.543,7.812,-47.852,-1.465,0
1508216390.994,-15.137,39.551,8.789,-20.996,1.953,0
1508216390.998,-11.719,45.410,1.953,-11.719,-14.648,0
1508216391.002,-2.441,99.121,8.789,0.977,22.949,0
1508216391.006,13.184,82.520,13.672,17.090,52.246,0
1508216391.010,20.508,33.203,20.996,28.809,38.574,0
1508216391.014,30.762,5.859,31.250,41.016,39.062,0
1508216391.018,35.645,22.461,23.926,47.363,66.895,0
1508216391.022,44.922,35.645,20.020,63.965,65.918,0
1508216391.026,65.918,46.387,32.227,74.707,41.992,0
1508216391.029,68.848,57.129,36.621,70.312,30.273,0
1508216391.033,66.406,37.109,47.852,88.867,62.012,0
1508216391.037,82.520,24.902,58.594,109.375,35.156,0
1508216391.041,94.238,33.203,60.547,104.004,8.301,0
1508216391.045,91.797,40.039,54.199,96.680,28.809,0
1508216391.049,92.773,22.949,55.664,110.352,29.785,0
1508216391.053,101.562,9.766,67.871,120.117,20.996,0
1508216391.057,115.234,-11.719,76.172,125.977,-1.953,0
1508216391.061,115.234,2.441,66.406,123.047,-10.742,0
1508216391.065,123.535,16.113,63.965,126.953,12.207,0
1508216391.068,123.047,37.109,67.871,133.301,19.043,0
1508216391.072,117.676,58.594,67.383,121.582,1.465,0
1508216391.076,118.652,46.875,64.453,119.141,9.277,0
1508216391.080,115.234,22.461,65.918,118.164,27.832,0
1508216391.084,117.188,5.371,68.359,120.117,12.207,0
1508216391.088,119.629,7.324,67.383,122.559,-0.488,0
1508216391.092,114.258,7.324,68.359,114.258,6.348,0
1508216391.096,107.910,12.207,66.406,109.375,42.969,0
1508216391.100,114.746,1.953,63.965,112.793,41.992,0
1508216391.104,117.188,19.531,69.336,114.258,4.395,0
1508216391.108,104.492,49.316,66.406,107.910,2.930,0
1508216391.111,108.887,38.086,62.988,105.957,-3.906,0
1508216391.115,116.699,1.465,66.406,118.652,2.930,0
1508216391.119,111.328,0.488,67.383,122.070,-24.414,0
1508216391.123,102.051,32.715,54.688,109.375,-15.625,0
1508216391.127,102.051,18.555,55.176,112.305,10.254,0
1508216391.131,108.887,24.902,62.988,115.234,-28.809,0
1508216391.135,94.727,41.992,56.641,111.328,-12.695,0
1508216391.139,92.773,28.809,53.223,111.328,29.785,0
1508216391.143,89.355,33.691,46.875,102.051,37.598,0
1508216391.147,88.379,43.945,46.387,100.098,39.062,0
1508216391.151,91.309,22.461,52.246,105.957,41.016,0
1508216391.154,77.148,4.395,56.152,102.051,11.230,0
1508216391.158,75.195,17.578,59.082,92.773,-4.883,0
1508216391.162,68.359,17.578,55.664,90.332,-1.953,0
1508216391.166,59.082,25.391,54.199,90.820,-4.395,0
1508216391.170,69.824,45.410,58.594,86.914,14.160,0
1508216391.174,66.406,39.551,56.641,80.566,14.160,0
1508216391.178,54.688,32.715,51.270,82.031,22.461,0
1508216391.182,47.363,38.086,47.363,74.707,28.320,0
1508216391.186,48.828,31.250,48.340,72.266,18.555,0
1508216391.190,57.129,-10.254,51.270,80.566,20.020,0
1508216391.193,52.734,7.812,49.805,74.707,33.691,0
1508216391.197,50.781,63.477,43.457,60.059,43.457,0
1508216391.201,52.734,30.273,41.016,62.012,44.922,0
1508216391.205,51.270,28.809,45.410,70.801,11.230,0
1508216391.209,51.270,51.758,44.922,70.312,-9.766,0
1508216391.213,48.828,50.781,41.992,62.988,24.902,0
1508216391.217,49.805,55.664,50.293,77.637,19.531,0
1508216391.221,54.688,49.805,51.758,80.078,4.883,0
1508216391.225,55.664,39.551,45.410,64.941,3.906,0
1508216391.229,58.594,51.758,31.738,67.871,31.250,0
1508216391.233,59.570,23.438,28.320,74.707,63.477,0
1508216391.236,62.012,-4.395,41.992,74.707,45.410,0
1508216391.240,64.453,16.602,44.922,73.730,22.461,0
1508216391.244,52.246,48.340,41.016,65.430,38.574,0
1508216391.248,51.758,48.828,39.551,62.012,63.477,0
1508216391.252,54.688,28.320,42.480,71.777,17.090,0
1508216391.256,52.246,26.855,48.340,74.219,-31.738,0
1508216391.260,56.152,37.109,56.641,73.730,41.016,0
1508216391.264,48.828,50.781,47.363,63.477,42.480,0
1508216391.268,44.434,41.016,34.668,57.129,4.883,0
1508216391.272,38.086,32.227,41.016,56.152,10.254,0
1508216391.276,35.645,41.504,43.457,54.199,8.789,0
1508216391.279,31.250,37.109,40.527,52.734,50.781,0
1508216391.283,32.227,18.066,42.480,51.758,74.707,0
1508216391.287,40.039,15.137,42.969,46.387,25.879,0
1508216391.291,33.203,38.574,47.363,37.598,25.879,0
1508216391.295,32.227,50.781,53.223,40.527,26.367,0
1508216391.299,39.551,33.691,43.457,44.922,6.348,0
1508216391.303,41.992,40.527,29.297,42.969,42.969,0
1508216391.307,42.969,56.152,29.297,44.922,64.941,0
1508216391.311,47.363,54.688,40.527,46.387,43.457,0
1508216391.315,57.129,42.969,45.410,37.598,43.457,0
1508216391.318,52.734,29.785,45.898,44.922,49.316,0
1508216391.322,37.109,45.898,49.316,42.480,22.949,0
1508216391.326,37.109,52.734,45.410,37.109,26.855,0
1508216391.330,41.504,40.527,40.039,42.480,27.344,0
1508216391.334,45.410,38.086,45.410,48.340,43.457,0
1508216391.338,52.734,36.621,52.246,56.641,43.945,0
1508216391.342,54.199,38.574,49.805,58.594,35.156,0
1508216391.346,47.852,39.062,46.387,56.152,41.016,0
1508216391.350,47.852,45.410,42.480,56.152,40.527,0
1508216391.354,50.293,41.504,37.598,54.688,-1.465,0
1508216391.358,54.199,39.062,35.156,54.688,-18.555,0
1508216391.361,59.082,56.641,40.527,63.965,19.531,0
1508216391.365,54.688,58.105,41.016,59.082,45.898,0
1508216391.369,55.176,45.410,38.086,52.246,31.250,0
1508216391.373,57.617,40.039,40.039,48.340,-18.066,0
1508216391.377,51.270,31.738,39.551,51.758,-7.324,0
1508216391.381,46.387,33.203,39.551,68.359,7.812,0
1508216391.385,43.945,37.109,41.016,57.617,-8.301,0
1508216391.389,44.922,40.039,42.969,54.199,-28.320,0
1508216391.393,46.387,50.293,48.828,71.289,-13.672,0
1508216391.397,51.758,30.762,46.387,65.918,6.836,0
1508216391.401,46.875,29.785,48.828,61.035,-22.949,0
1508216391.404,35.645,48.828,48.828,53.223,-19.531,0
1508216391.408,34.668,42.480,41.992,37.109,2.441,0
1508216391.412,39.062,38.574,46.387,41.016,29.297,0
1508216391.416,41.504,42.480,48.828,52.246,24.414,0
1508216391.420,39.551,47.363,43.457,54.688,7.324,0
1508216391.424,33.691,28.809,39.062,46.875,18.555,0
1508216391.428,33.691,25.879,41.016,41.504,23.926,0
1508216391.432,35.156,43.457,37.109,38.086,27.832,0
1508216391.436,36.133,39.551,38.086,35.156,20.020,0
1508216391.440,33.691,34.180,43.457,38.086,7.324,0
1508216391.443,33.691,33.691,46.875,44.434,0.488,0
1508216391.447,33.691,41.504,44.434,46.387,-10.254,0
1508216391.451,39.062,27.344,41.992,44.434,6.348,0
1508216391.455,47.363,19.043,44.922,54.199,26.855,0
1508216391.459,46.875,39.551,39.551,51.270,-1.953,0
1508216391.463,43.945,33.691,31.250,49.805,7.324,0
1508216391.467,38.086,46.875,38.086,47.363,32.715,0
1508216391.471,37.109,59.570,49.316,48.828,11.719,0
1508216391.475,34.180,49.805,42.969,51.758,-19.531,0
1508216391.479,32.227,43.457,38.574,41.504,-15.137,0
1508216391.483,41.504,49.316,43.945,41.992,-1.465,0
1508216391.486,45.410,43.457,42.969,38.086,4.395,0
1508216391.490,38.086,29.785,39.551,38.574,-17.578,0
1508216391.494,41.992,24.414,33.203,37.109,-29.785,0
1508216391.498,38.574,31.738,37.598,28.809,0.977,0
1508216391.502,23.926,36.621,37.598,33.691,19.531,0
1508216391.506,21.484,34.180,40.527,41.992,-5.371,2
1508216391.510,24.902,33.203,46.875,40.527,-36.133,0
1508216391.514,22.949,41.504,42.969,36.133,6.836,0
1508216391.518,27.344,48.340,38.574,34.180,4.883,0
1508216391.522,18.066,46.387,32.715,32.227,-27.832,0
1508216391.526,15.137,41.504,31.250,21.973,-19.043,0
1508216391.529,16.602,19.531,35.645,20.508,-7.324,0
1508216391.533,12.207,13.184,37.598,32.715,14.160,0
1508216391.537,26.855,43.457,33.691,42.969,-28.809,0
1508216391.541,32.715,41.504,29.785,44.922,-48.340,0
1508216391.545,30.273,25.391,36.621,47.852,6.836,0
1508216391.549,43.457,41.504,41.016,48.340,0.488,0
1508216391.553,51.758,41.504,43.457,46.875,-8.301,0
1508216391.557,39.551,26.367,41.992,44.922,34.180,0
1508216391.561,36.133,30.762,36.621,41.016,40.527,0
1508216391.565,38.086,44.434,29.297,40.527,35.156,0
1508216391.568,49.316,45.898,33.203,49.316,12.695,0
1508216391.572,62.500,40.039,33.203,57.617,6.836,0
1508216391.576,56.152,42.969,28.809,53.223,13.184,0
1508216391.580,50.293,53.223,32.227,48.828,15.137,0
1508216391.584,45.898,54.199,40.527,47.363,15.625,0
1508216391.588,46.875,50.781,44.434,49.805,24.414,0
1508216391.592,51.270,52.246,40.527,61.035,31.250,0
1508216391.596,39.062,44.434,40.039,53.711,22.949,0
1508216391.600,33.203,36.133,41.504,44.434,18.555,0
1508216391.604,46.875,17.578,48.340,54.199,46.875,0
1508216391.608,51.270,25.879,49.316,54.688,54.688,0
1508216391.611,36.621,48.828,46.875,55.176,29.785,0
1508216391.615,29.297,51.758,43.945,56.152,24.414,0
1508216391.619,30.762,35.156,40.039,52.734,23.438,0
1508216391.623,30.273,29.297,41.504,59.082,22.461,0
1508216391.627,33.691,36.621,46.387,61.523,-14.160,0
1508216391.631,22.461,40.527,40.527,47.852,-14.160,0
1508216391.635,14.648,46.387,36.621,40.527,24.902,0
1508216391.639,22.949,48.340,39.551,43.457,-0.977,0
1508216391.643,33.203,38.086,39.062,53.223,15.625,0
1508216391.647,23.438,25.879,45.410,49.805,17.578,0
1508216391.651,5.859,13.672,47.363,44.434,33.203,0
1508216391.654,4.883,19.531,43.457,43.457,16.113,0
1508216391.658,4.883,21.484,40.039,37.109,-29.785,0
1508216391.662,9.766,17.090,43.457,33.203,8.301,0
1508216391.666,8.789,38.086,51.270,28.320,35.156,0
1508216391.670,4.395,39.551,53.223,32.715,16.602,0
1508216391.674,5.371,18.066,53.223,35.156,-0.977,0
1508216391.678,16.113,18.066,55.176,40.527,20.508,0
1508216391.682,20.508,31.250,49.316,46.875,44.922,0
1508216391.686,13.672,29.297,43.945,43.945,32.227,0
1508216391.690,19.043,26.855,48.340,42.969,24.902,0
1508216391.693,33.203,30.762,50.293,46.875,20.020,0
1508216391.697,35.645,25.391,46.875,49.805,20.996,0
1508216391.701,30.273,29.785,47.852,46.387,20.996,0
1508216391.705,37.598,35.156,50.293,44.922,14.160,0
1508216391.709,40.039,25.879,45.898,52.246,41.504,0
1508216391.713,41.016,34.180,41.016,55.176,60.059,0
1508216391.717,40.039,42.969,39.062,52.734,31.738,0
1508216391.721,38.574,40.039,41.992,55.664,15.137,0
1508216391.725,41.016,37.598,50.293,52.246,29.785,0
1508216391.729,45.410,34.180,53.223,54.688,48.340,0
1508216391.733,52.246,34.180,48.828,67.871,19.043,0
1508216391.736,44.434,15.137,41.016,56.641,21.973,0
1508216391.740,37.598,15.625,42.480,48.828,41.504,0
1508216391.744,37.109,37.109,49.316,56.152,34.180,0
1508216391.748,40.039,38.086,54.688,57.129,49.316,0
1508216391.752,48.828,28.809,54.688,66.895,39.062,0
1508216391.756,44.434,12.695,55.664,71.777,39.062,0
1508216391.760,34.180,19.531,53.711,60.059,43.945,0
1508216391.764,33.203,42.480,47.852,51.758,23.438,0
1508216391.768,37.109,51.758,46.387,50.293,20.996,0
1508216391.772,31.738,38.574,43.945,51.758,54.688,0
1508216391.776,36.133,38.086,46.387,48.828,57.617,0
1508216391.779,43.457,49.805,50.293,52.734,54.199,0
1508216391.783,39.062,41.504,46.875,60.059,75.684,0
1508216391.787,29.785,34.668,42.969,58.105,45.898,0
1508216391.791,21.484,32.227,38.574,50.781,32.715,0
1508216391.795,25.391,29.297,34.668,42.480,50.293,0
1508216391.799,25.391,29.785,40.527,37.598,72.754,0
1508216391.803,23.926,34.180,41.016,33.203,53.223,0
1508216391.807,23.438,43.457,35.156,31.250,24.902,0
1508216391.811,37.598,43.945,38.086,37.109,32.715,0
1508216391.815,47.363,33.691,32.715,41.992,28.320,0
1508216391.818,49.316,30.273,37.109,46.387,46.875,0
1508216391.822,52.246,40.039,42.969,47.363,20.996,0
1508216391.826,46.387,58.105,43.457,43.457,7.324,0
1508216391.830,47.852,61.035,42.969,49.316,52.246,0
1508216391.834,46.875,51.758,38.574,46.875,62.500,0
1508216391.838,46.875,41.504,37.109,44.922,9.277,0
1508216391.842,44.922,38.086,41.504,50.781,8.789,0
1508216391.846,29.785,26.855,43.457,55.664,60.059,0
1508216391.850,27.832,27.832,43.945,49.805,84.961,0
1508216391.854,32.227,46.875,39.062,35.156,55.176,0
1508216391.858,30.273,56.152,29.785,41.016,6.348,0
1508216391.861,34.668,33.691,36.621,51.270,48.828,0
1508216391.865,32.715,26.367,40.527,44.434,58.105,0
1508216391.869,21.484,44.922,35.156,44.922,1.953,0
1508216391.873,20.508,50.293,40.527,53.711,8.789,0
1508216391.877,22.949,49.805,42.480,55.176,36.621,0
1508216391.881,30.273,44.922,43.945,59.570,41.016,0
1508216391.885,31.738,46.387,49.316,54.199,40.039,0
1508216391.889,26.855,36.621,49.805,55.176,20.508,0
1508216391.893,23.438,31.250,50.293,56.641,27.832,0
1508216391.897,20.020,46.875,55.664,53.223,41.504,0
1508216391.901,24.414,43.945,57.129,59.082,34.180,0
1508216391.904,22.461,23.438,49.805,58.594,41.992,0
1508216391.908,17.578,28.320,44.922,53.223,58.105,0
1508216391.912,19.043,36.133,42.969,47.852,26.367,0
1508216391.916,28.320,14.160,44.922,51.270,2.930,0
1508216391.920,28.809,21.484,49.316,59.082,27.832,0
1508216391.924,21.484,44.922,44.434,52.734,3.906,0
1508216391.928,16.113,44.434,42.480,43.457,13.672,0
1508216391.932,22.949,43.457,45.410,42.969,45.898,0
1508216391.936,23.926,48.828,42.480,49.316,-3.418,0
1508216391.940,25.879,42.969,41.016,51.270,-34.668,0
1508216391.943,31.250,26.855,38.574,46.875,-23.926,0
1508216391.947,23.438,26.855,27.832,46.387,8.301,0
1508216391.951,22.949,42.969,36.621,51.758,13.184,0
1508216391.955,36.621,45.410,50.781,54.199,-17.090,0
1508216391.959,34.180,36.621,40.527,45.410,-14.160,0
1508216391.963,37.598,36.133,40.039,45.410,32.715,0
1508216391.967,45.898,29.297,45.898,54.199,20.996,0
1508216391.971,34.180,26.367,47.363,54.199,2.930,0
1508216391.975,25.391,36.621,44.922,47.852,30.762,0
1508216391.979,35.645,42.969,38.574,44.922,39.551,0
1508216391.983,22.949,38.574,41.992,42.480,48.828,0
1508216391.986,12.695,43.457,50.293,39.062,42.969,0
1508216391.990,22.461,46.875,50.293,43.457,26.367,0
1508216391.994,20.508,32.227,45.410,45.898,18.555,0
1508216391.998,13.672,20.508,42.480,40.527,24.902,0
1508216392.002,27.344,13.184,46.387,43.945,-3.906,0
1508216392.006,34.668,23.438,48.340,55.176,-14.648,0
1508216392.010,27.344,49.316,46.875,47.852,39.062,3
1508216392.014,27.344,43.457,42.969,37.598,35.645,0
1508216392.018,28.320,39.062,41.016,44.434,-22.461,0
1508216392.022,28.320,49.316,45.898,51.270,-15.137,0
1508216392.026,25.391,51.758,45.410,48.340,29.785,0
1508216392.029,22.461,33.691,39.062,44.434,35.156,0
1508216392.033,27.344,37.109,34.668,36.621,28.320,0
1508216392.037,29.297,41.016,32.715,32.227,15.625,0
1508216392.041,31.738,33.203,34.180,41.504,5.371,0
1508216392.045,45.410,46.875,35.645,50.293,11.719,0
1508216392.049,46.875,49.316,37.109,44.434,-0.977,0
1508216392.053,34.668,44.922,37.598,41.504,-0.488,0
1508216392.057,31.738,44.434,36.621,51.270,36.621,0
1508216392.061,36.133,40.039,36.621,48.828,28.320,0
1508216392.065,43.457,46.387,39.551,39.062,7.324,0
1508216392.068,41.016,44.922,36.133,32.227,35.156,0
1508216392.072,28.809,41.504,32.227,22.949,21.973,0
1508216392.076,24.414,51.270,34.668,18.066,8.301,0
1508216392.080,24.414,50.293,35.645,16.602,31.250,0
1508216392.084,13.184,55.176,32.227,7.812,40.527,0
1508216392.088,1.465,44.922,26.855,0.000,36.621,0
1508216392.092,-5.371,43.945,30.762,-3.906,31.738,0
1508216392.096,-11.719,48.340,34.668,-10.254,31.250,0
1508216392.100,-20.020,41.016,26.855,-21.973,40.039,0
1508216392.104,-25.391,65.918,24.414,-30.762,44.922,0
1508216392.108,-39.551,58.594,26.367,-32.227,34.668,0
1508216392.111,-61.035,33.691,20.996,-44.922,59.082,0
1508216392.115,-65.918,59.570,18.066,-61.035,66.406,0
1508216392.119,-58.105,60.059,21.973,-53.711,33.203,0
1508216392.123,-68.359,52.246,19.531,-58.594,5.371,0
1508216392.127,-78.613,75.195,18.066,-66.895,8.301,0
1508216392.131,-71.777,85.938,18.555,-63.477,37.109,0
1508216392.135,-73.242,62.012,6.836,-69.824,38.086,0
1508216392.139,-76.172,37.109,-4.395,-72.754,14.648,0
1508216392.143,-82.520,45.410,13.184,-62.500,12.207,0
1508216392.147,-83.496,65.430,15.625,-62.500,38.086,0
1508216392.151,-77.148,47.852,9.277,-67.383,35.645,0
1508216392.154,-67.383,24.414,18.066,-61.035,-3.906,0
1508216392.158,-63.477,35.645,16.113,-50.781,18.555,0
1508216392.162,-56.641,41.992,15.625,-40.527,40.039,0
1508216392.166,-44.922,46.875,12.695,-40.527,47.363,0
1508216392.170,-36.133,63.477,11.719,-32.715,33.203,0
1508216392.174,-20.020,64.941,17.090,-20.020,19.043,0
1508216392.178,-9.277,52.246,20.508,-9.766,11.230,0
1508216392.182,-9.766,56.152,20.996,-7.324,3.906,0
1508216392.186,-0.977,22.949,33.691,10.254,20.508,0
1508216392.190,20.020,0.488,40.527,35.156,31.738,0
1508216392.193,27.344,21.484,31.250,35.645,36.133,0
1508216392.197,19.531,32.227,32.227,25.391,38.086,0
1508216392.201,30.273,39.551,26.367,32.715,43.945,0
1508216392.205,45.410,33.691,24.414,51.758,51.270,0
1508216392.209,39.551,41.504,39.551,62.500,19.531,0
1508216392.213,38.086,37.598,41.016,66.406,12.695,0
1508216392.217,54.688,17.578,41.016,73.242,27.344,0
1508216392.221,55.176,27.832,45.898,66.895,22.461,0
1508216392.225,51.270,22.949,45.898,60.547,12.695,0
1508216392.229,61.035,2.441,45.410,70.312,18.555,0
1508216392.233,61.523,19.531,41.016,74.219,51.758,0
1508216392.236,64.453,46.387,52.246,84.473,54.688,0
1508216392.240,70.801,53.223,55.664,88.379,18.066,0
1508216392.244,66.406,26.855,47.363,82.520,-12.207,0
1508216392.248,68.359,16.602,55.176,86.426,19.531,0
1508216392.252,70.801,53.223,60.547,90.820,25.879,0
1508216392.256,71.777,41.016,62.500,93.750,-2.441,0
1508216392.260,64.941,-1.953,58.594,91.309,9.766,0
1508216392.264,59.570,19.043,52.734,88.867,45.898,0
1508216392.268,65.918,30.273,51.270,84.473,60.059,0
1508216392.272,79.590,38.086,45.898,86.914,25.879,0
1508216392.276,80.566,54.688,51.270,92.285,16.113,0
1508216392.279,63.477,43.945,51.270,74.219,32.715,0
1508216392.283,56.641,38.086,43.457,56.152,22.461,0
1508216392.287,61.035,19.043,49.805,63.477,-14.160,0
1508216392.291,64.941,3.418,60.547,78.125,-10.254,0
1508216392.295,72.266,32.227,63.965,80.566,21.484,0
1508216392.299,71.777,47.852,59.082,76.660,12.207,0
1508216392.303,70.312,33.691,62.012,80.566,3.418,0
1508216392.307,71.777,33.203,59.082,76.172,3.906,0
1508216392.311,67.871,20.508,47.363,77.148,21.484,0
1508216392.315,66.406,36.133,42.480,83.496,37.598,0
1508216392.318,60.547,56.152,47.363,80.078,33.203,0
1508216392.322,60.059,36.621,43.945,75.195,34.668,0
1508216392.326,67.871,26.367,37.598,71.777,41.016,0
1508216392.330,65.918,35.156,56.152,78.613,38.086,0
1508216392.334,57.617,30.762,58.105,77.637,4.395,0
1508216392.338,53.711,18.066,49.805,64.453,-3.418,0
1508216392.342,54.688,41.992,53.711,66.895,22.949,0
1508216392.346,55.664,37.598,56.641,73.242,41.504,0
1508216392.350,59.082,14.160,55.176,71.777,49.805,0
1508216392.354,61.523,20.508,58.105,78.125,57.617,0
1508216392.358,53.711,21.973,50.781,75.195,41.504,0
1508216392.361,50.781,34.668,34.668,65.430,9.277,0
1508216392.365,59.082,45.410,31.738,66.406,23.926,0
1508216392.369,60.547,50.781,38.574,71.289,29.785,0
1508216392.373,56.641,53.223,43.457,82.031,20.996,0
1508216392.377,48.828,40.039,39.062,75.195,-5.371,0
1508216392.381,49.316,26.367,37.598,64.453,11.719,0
1508216392.385,50.293,28.320,34.180,66.895,58.105,0
1508216392.389,44.922,36.621,29.785,64.453,45.410,0
1508216392.393,44.922,28.809,34.180,66.406,30.762,0
1508216392.397,49.316,13.672,40.527,62.500,31.738,0
1508216392.401,61.035,15.625,50.293,59.082,47.852,0
1508216392.404,59.082,41.504,53.711,68.848,30.273,0
1508216392.408,41.504,54.688,50.293,66.895,33.203,0
1508216392.412,42.969,48.828,45.898,57.617,56.641,0
1508216392.416,48.340,45.410,42.480,56.641,61.523,0
1508216392.420,51.758,41.504,47.852,63.965,44.922,0
1508216392.424,51.270,36.133,46.875,65.918,1.953,0
1508216392.428,41.016,27.344,43.945,62.012,27.832,0
1508216392.432,42.480,28.809,50.781,62.012,68.848,0
1508216392.436,39.551,31.738,49.316,63.477,25.391,0
1508216392.440,37.598,5.371,45.898,64.941,-14.160,0
1508216392.443,45.410,0.000,41.504,56.152,15.625,0
1508216392.447,42.969,36.621,44.434,51.270,49.316,0
1508216392.451,37.109,57.129,40.039,51.758,51.270,0
1508216392.455,37.109,40.039,34.180,50.781,16.602,0
1508216392.459,43.945,-10.254,34.668,50.781,13.184,0
1508216392.463,38.574,8.301,42.969,47.363,20.508,0
1508216392.467,20.020,66.406,45.898,45.410,-9.277,0
1508216392.471,26.855,76.660,49.316,61.523,16.113,0
1508216392.475,25.391,60.547,47.852,57.617,26.855,0
1508216392.479,10.742,33.203,41.504,46.875,21.484,0
1508216392.483,17.578,25.879,44.434,50.293,1.953,0
1508216392.486,24.414,24.414,44.434,46.387,-24.414,0
1508216392.490,14.648,38.574,46.875,44.434,11.230,0
1508216392.494,15.625,46.387,45.410,49.805,17.578,0
1508216392.498,19.531,25.391,46.387,43.945,37.109,0
1508216392.502,31.250,17.578,51.758,45.898,55.664,0
1508216392.506,37.109,15.137,52.246,59.082,8.301,0
1508216392.510,20.996,20.508,45.410,54.199,30.762,4
1508216392.514,14.160,18.066,39.062,45.898,18.555,0
1508216392.518,17.578,21.973,41.016,43.457,11.719,0
1508216392.522,25.879,48.340,46.875,46.387,54.199,0
1508216392.526,38.086,44.922,48.828,46.387,18.066,0
1508216392.529,39.062,27.832,39.062,45.898,-5.859,0
1508216392.533,35.156,35.645,31.250,50.293,44.434,0
1508216392.537,33.691,37.598,38.574,47.852,67.871,0
1508216392.541,36.621,44.434,45.410,45.410,-3.418,0
1508216392.545,35.645,45.898,42.480,42.969,3.906,0
1508216392.549,32.227,31.250,45.410,51.270,63.477,0
1508216392.553,35.645,33.203,43.945,57.129,30.762,0
1508216392.557,29.785,30.273,40.039,46.387,21.973,0
1508216392.561,26.367,24.414,43.457,34.180,41.504,0
1508216392.565,43.945,51.270,40.039,35.156,60.059,0
1508216392.568,45.898,51.758,43.457,43.945,61.523,0
1508216392.572,36.133,44.922,51.270,44.922,10.254,0
1508216392.576,32.715,52.246,41.504,35.156,25.879,0
1508216392.580,33.691,42.969,30.273,38.086,73.730,0
1508216392.584,40.039,34.180,36.133,55.664,35.156,0
1508216392.588,36.133,47.363,47.363,60.547,24.414,0
1508216392.592,20.996,41.016,42.480,41.992,41.992,0
1508216392.596,16.602,23.438,41.504,41.016,49.805,0
1508216392.600,28.320,22.949,49.805,51.270,41.504,0
1508216392.604,29.297,25.879,45.410,44.922,35.156,0
1508216392.608,29.785,39.062,40.527,42.969,29.297,0
1508216392.611,31.738,25.391,37.109,43.945,37.109,0
1508216392.615,30.273,18.555,35.645,43.945,47.363,0
1508216392.619,28.320,29.785,39.062,43.457,9.766,0
1508216392.623,16.602,29.297,30.273,36.133,-1.953,0
1508216392.627,15.625,37.109,27.344,34.668,17.578,0
1508216392.631,17.090,41.992,34.180,41.992,33.203,0
1508216392.635,22.949,29.785,35.156,45.898,11.230,0
1508216392.639,20.996,22.461,39.551,34.180,27.832,0
1508216392.643,23.926,39.551,40.039,38.574,27.832,0
1508216392.647,37.109,46.875,33.691,52.734,-7.812,0
1508216392.651,37.109,31.738,32.227,49.316,7.812,0
1508216392.654,27.344,27.832,30.762,43.945,31.250,0
1508216392.658,24.902,19.043,34.668,35.645,26.855,0
1508216392.662,34.180,10.254,38.574,35.156,37.109,0
1508216392.666,25.391,41.504,35.156,31.738,46.875,0
1508216392.670,14.648,51.270,35.156,31.738,20.508,0
1508216392.674,20.996,38.574,35.156,36.133,7.324,0
1508216392.678,29.785,37.109,37.598,31.250,16.602,0
1508216392.682,34.668,24.902,35.156,37.598,48.828,0
1508216392.686,33.203,36.133,35.645,55.664,55.176,0
1508216392.690,25.879,39.551,35.645,44.434,29.297,0
1508216392.693,28.809,23.926,38.574,32.227,7.324,0
1508216392.697,39.062,40.527,34.668,38.086,26.367,0
1508216392.701,29.785,51.270,19.531,25.391,46.875,0
1508216392.705,28.809,41.992,14.160,15.137,12.695,0
1508216392.709,37.109,47.852,23.926,24.414,-18.555,0
1508216392.713,32.715,61.523,31.738,28.320,26.855,0
1508216392.717,26.367,58.594,32.227,40.039,81.055,0
1508216392.721,34.180,44.434,36.133,49.316,20.508,0
1508216392.725,37.598,36.621,33.691,39.551,-22.461,0
1508216392.729,37.109,26.855,27.832,35.156,26.367,0
1508216392.733,40.527,41.504,33.203,34.668,39.551,0
1508216392.736,47.852,68.848,41.504,30.762,27.832,0
1508216392.740,40.039,59.082,37.598,26.855,45.898,0
1508216392.744,25.391,52.246,33.691,30.273,54.688,0
1508216392.748,30.273,45.898,33.203,36.621,45.410,0
1508216392.752,26.367,39.062,31.250,38.086,34.180,0
1508216392.756,35.156,56.152,39.062,38.574,39.062,0
1508216392.760,43.945,56.641,40.527,41.992,21.484,0
1508216392.764,35.156,39.062,34.668,52.246,10.742,0
1508216392.768,34.668,38.086,40.039,60.059,6.836,0
1508216392.772,31.250,13.672,44.434,54.199,8.789,0
1508216392.776,33.691,28.320,41.016,44.922,33.203,0
1508216392.779,41.016,62.988,42.969,46.387,32.715,0
1508216392.783,39.062,58.105,37.598,46.387,3.906,0
1508216392.787,32.227,44.922,39.062,50.781,41.504,0
1508216392.791,33.203,44.922,37.598,56.641,34.668,0
1508216392.795,41.016,42.480,36.621,55.664,9.277,0
1508216392.799,44.922,33.691,46.875,58.105,32.715,0
1508216392.803,52.246,39.551,44.434,58.594,21.973,0
1508216392.807,44.434,35.156,38.574,45.410,11.719,0
1508216392.811,38.086,39.551,39.062,40.527,7.812,0
1508216392.815,52.734,47.852,43.457,57.617,17.090,0
1508216392.818,47.852,38.574,35.645,39.062,41.992,0
1508216392.822,40.039,43.945,26.855,14.648,32.715,0
1508216392.826,44.434,45.410,32.227,27.832,27.344,0
1508216392.830,50.781,45.410,36.133,43.457,42.480,0
1508216392.834,51.758,42.969,38.574,45.410,62.012,0
1508216392.838,42.969,39.062,37.109,43.945,52.734,0
1508216392.842,34.668,45.410,31.250,41.504,25.391,0
1508216392.846,24.902,41.016,28.809,25.879,20.020,0
1508216392.850,25.879,40.039,27.344,20.996,30.273,0
1508216392.854,23.438,42.480,26.855,27.832,23.926,0
1508216392.858,20.508,44.922,30.762,28.320,-17.090,0
1508216392.861,19.043,30.762,35.156,24.414,-2.441,0
1508216392.865,17.578,29.785,36.621,23.438,60.059,0
1508216392.869,14.160,30.762,40.527,23.438,61.523,0
1508216392.873,3.418,28.809,39.551,15.137,41.504,0
1508216392.877,-2.930,34.668,27.832,10.254,41.016,0
1508216392.881,-11.230,41.992,27.832,10.254,49.316,0
1508216392.885,-11.719,50.293,30.273,3.906,30.273,0
1508216392.889,-12.207,44.922,31.250,-3.418,7.812,0
1508216392.893,-20.020,46.875,27.344,-19.043,5.371,0
1508216392.897,-30.762,55.664,22.949,-27.344,38.574,0
1508216392.901,-42.480,43.945,25.391,-34.180,48.828,0
1508216392.904,-54.199,38.086,24.414,-43.457,13.184,0
1508216392.908,-62.500,58.105,26.855,-53.223,17.578,0
1508216392.912,-74.219,64.453,20.020,-71.289,52.246,0
1508216392.916,-86.426,36.133,8.301,-82.520,40.039,0
1508216392.920,-91.309,22.949,10.254,-90.332,24.414,0
1508216392.924,-101.074,60.059,7.324,-100.586,66.895,0
1508216392.928,-104.492,61.523,7.324,-109.375,45.410,0
1508216392.932,-101.562,48.340,14.160,-118.164,29.297,0
1508216392.936,-103.027,48.340,15.625,-121.094,40.527,0
1508216392.940,-108.887,53.223,12.207,-124.023,12.695,0
1508216392.943,-117.188,59.570,-9.766,-124.512,8.789,0
1508216392.947,-102.051,66.406,0.488,-105.469,19.043,0
1508216392.951,-94.238,69.824,28.809,-87.891,33.691,0
1508216392.955,-111.328,43.945,19.531,-99.121,31.738,0
1508216392.959,-116.211,27.344,9.766,-108.398,28.809,0
1508216392.963,-115.723,43.945,8.789,-101.562,39.551,0
1508216392.967,-99.609,14.648,29.785,-86.426,31.738,0
1508216392.971,-87.402,-16.602,40.039,-78.613,23.926,0
1508216392.975,-96.191,42.480,32.227,-76.172,23.438,0
1508216392.979,-94.727,62.988,33.691,-68.359,42.480,0
1508216392.983,-80.078,39.062,29.785,-65.918,51.758,0
1508216392.986,-60.059,27.832,34.180,-53.711,37.598,0
1508216392.990,-52.246,47.363,38.574,-36.133,2.441,0
1508216392.994,-47.363,44.922,34.180,-24.902,14.160,0
1508216392.998,-35.156,3.418,38.574,-13.184,54.199,0
1508216393.002,-20.996,-9.766,43.457,0.000,44.434,0
1508216393.006,-11.719,22.461,41.016,12.207,8.789,0
1508216393.010,-4.395,32.715,38.574,16.602,2.441,5
1508216393.014,3.418,30.762,46.387,19.531,54.199,0
1508216393.018,13.672,40.039,55.176,26.855,66.895,0
1508216393.022,21.973,33.203,50.781,36.133,40.039,0
1508216393.026,29.297,23.926,37.109,48.340,33.203,0
1508216393.029,42.480,20.996,41.016,55.664,49.316,0
1508216393.033,52.734,0.488,57.129,56.641,65.918,0
1508216393.037,55.664,21.484,51.758,60.547,20.996,0
1508216393.041,63.477,53.223,44.922,68.848,3.418,0
1508216393.045,69.336,35.645,46.387,72.266,46.875,0
1508216393.049,77.148,8.301,47.852,82.031,47.363,0
1508216393.053,89.844,14.160,56.641,101.074,30.273,0
1508216393.057,84.473,51.270,53.711,107.910,21.973,0
1508216393.061,85.449,43.945,39.551,97.656,19.043,0
1508216393.065,92.285,30.273,42.480,88.867,46.387,0
1508216393.068,88.867,29.297,44.922,91.797,46.875,0
1508216393.072,94.238,13.184,41.992,97.656,39.062,0
1508216393.076,102.539,12.695,42.969,94.238,50.781,0
1508216393.080,106.934,14.648,46.387,92.773,20.508,0
1508216393.084,100.098,8.301,50.781,95.703,-29.297,0
1508216393.088,94.238,25.879,50.293,97.656,-20.996,0
1508216393.092,94.727,53.223,52.246,103.027,13.184,0
1508216393.096,92.773,25.879,52.734,103.027,23.926,0
1508216393.100,90.332,9.277,50.781,100.098,10.742,0
1508216393.104,84.473,42.969,46.387,109.375,28.320,0
1508216393.108,82.031,12.207,54.688,112.793,28.809,0
1508216393.111,84.961,-10.254,65.430,105.957,17.090,0
1508216393.115,80.078,36.621,60.059,104.980,5.859,0
1508216393.119,76.172,47.363,55.176,104.492,12.207,0
1508216393.123,74.219,19.043,55.664,111.816,21.973,0
1508216393.127,71.289,10.254,62.988,113.770,7.812,0
1508216393.131,79.102,31.738,69.336,106.445,15.625,0
1508216393.135,75.684,37.598,62.012,102.051,53.711,0
1508216393.139,67.871,24.414,55.664,102.051,43.457,0
1508216393.143,79.102,-2.930,56.641,106.445,16.113,0
1508216393.147,77.637,-16.602,59.082,98.633,38.086,0
1508216393.151,64.941,8.301,59.082,84.961,57.129,0
1508216393.154,72.754,41.504,54.688,83.008,23.438,0
1508216393.158,72.754,48.828,46.875,86.914,4.883,0
1508216393.162,66.406,46.387,45.410,92.773,41.992,0
1508216393.166,64.453,31.738,49.316,87.891,63.965,0
1508216393.170,62.012,14.648,52.246,78.125,41.016,0
1508216393.174,64.453,16.602,56.152,81.055,10.254,0
1508216393.178,61.523,22.461,47.852,81.543,24.902,0
1508216393.182,54.688,22.949,37.598,74.219,38.574,0
1508216393.186,64.941,34.668,38.574,74.707,12.695,0
1508216393.190,71.289,24.902,42.480,63.477,-8.301,0
1508216393.193,54.199,22.461,44.434,56.641,25.391,0
1508216393.197,41.504,26.855,46.875,63.965,69.824,0
1508216393.201,41.016,18.555,47.852,70.801,60.547,0
1508216393.205,43.945,40.527,48.340,76.172,18.555,0
1508216393.209,42.480,61.523,41.016,67.383,9.766,0
1508216393.213,38.574,58.105,41.016,63.477,22.949,0
1508216393.217,43.945,53.223,53.223,72.266,11.230,0
1508216393.221,50.781,32.715,50.781,71.289,3.906,0
1508216393.225,47.852,20.996,37.598,61.035,-18.066,0
1508216393.229,42.969,28.809,35.156,56.641,-7.324,0
1508216393.233,42.480,35.156,35.645,57.617,10.742,0
1508216393.236,39.062,34.668,38.086,62.988,7.812,0
1508216393.240,42.480,39.551,40.527,65.918,31.738,0
1508216393.244,48.340,32.227,40.039,58.105,13.672,0
1508216393.248,37.109,26.367,45.898,56.641,4.395,0
1508216393.252,34.668,24.902,47.852,69.824,11.230,0
1508216393.256,32.227,41.016,48.828,68.359,3.906,0
1508216393.260,21.973,61.035,37.598,48.828,28.809,0
1508216393.264,26.855,46.387,26.855,43.945,34.180,0
1508216393.268,24.902,32.715,37.598,46.387,15.625,0
1508216393.272,13.672,32.715,43.457,41.504,14.160,0
1508216393.276,12.695,37.109,43.945,45.410,15.137,0
1508216393.279,13.672,47.852,41.992,51.270,1.465,0
1508216393.283,5.859,45.898,35.156,48.340,41.992,0
1508216393.287,5.859,27.344,40.527,47.363,61.523,0
1508216393.291,8.301,36.133,48.828,38.574,15.625,0
1508216393.295,12.695,56.152,49.805,52.246,26.367,0
1508216393.299,20.996,57.617,41.992,59.570,62.012,0
1508216393.303,10.742,54.199,27.832,38.086,29.297,0
1508216393.307,12.695,41.504,25.391,33.203,-9.277,0
1508216393.311,16.602,40.039,30.273,31.738,-9.277,0
1508216393.315,18.066,43.945,36.133,30.762,11.719,0
1508216393.318,20.020,37.109,34.668,43.945,36.133,0
1508216393.322,16.602,41.016,32.715,39.062,0.488,0
1508216393.326,10.254,43.457,32.227,26.367,-6.836,0
1508216393.330,13.672,49.805,35.156,30.273,59.082,0
1508216393.334,16.113,36.621,31.738,26.367,61.035,0
1508216393.338,17.578,53.711,28.809,29.785,20.020,0
1508216393.342,26.855,72.266,32.227,35.156,22.949,0
1508216393.346,22.461,48.340,27.832,28.809,61.035,0
1508216393.350,21.973,33.203,39.062,30.762,27.344,0
1508216393.354,28.320,33.691,44.922,34.180,-10.254,0
1508216393.358,19.043,44.922,37.109,32.715,14.160,0
1508216393.361,18.066,46.875,44.434,35.645,23.926,0
1508216393.365,22.949,35.645,45.410,37.109,-6.836,0
1508216393.369,22.949,40.527,39.062,35.645,-25.879,0
1508216393.373,21.973,43.457,42.480,36.621,16.113,0
1508216393.377,25.391,43.457,38.086,43.457,52.734,0
1508216393.381,19.531,42.480,38.574,48.828,14.648,0
1508216393.385,19.531,55.176,50.293,50.781,18.066,0
1508216393.389,27.344,58.594,46.387,53.223,40.039,0
1508216393.393,18.555,45.410,37.109,38.086,28.809,0
1508216393.397,19.531,45.898,36.133,32.227,43.457,0
1508216393.401,27.832,50.781,32.715,40.527,45.898,0
1508216393.404,28.320,36.621,28.320,45.898,26.367,0
1508216393.408,35.156,27.344,25.879,55.664,19.531,0
1508216393.412,41.992,54.688,16.113,52.246,16.113,0
1508216393.416,42.480,68.848,11.719,49.805,23.438,0
1508216393.420,45.898,52.734,21.484,53.223,50.293,0
1508216393.424,48.828,37.598,30.762,52.246,35.645,0
1508216393.428,43.945,49.316,30.762,47.852,18.066,0
1508216393.432,41.016,70.312,26.367,44.434,40.527,0
1508216393.436,50.293,55.176,26.855,56.152,40.527,0
1508216393.440,52.734,39.551,33.203,62.012,9.766,0
1508216393.443,51.270,41.504,33.203,59.082,24.414,0
1508216393.447,58.594,45.898,25.391,61.035,58.594,0
1508216393.451,58.594,32.715,17.090,60.059,38.086,0
1508216393.455,63.965,28.809,25.879,62.988,-18.555,0
1508216393.459,53.711,36.621,29.785,61.523,-16.602,0
1508216393.463,43.945,48.340,26.855,59.570,13.184,0
1508216393.467,47.852,66.406,28.809,55.176,19.531,0
1508216393.471,51.270,62.988,27.832,49.805,11.230,0
1508216393.475,51.270,42.969,25.391,57.129,4.883,0
1508216393.479,52.734,36.621,30.762,68.848,43.457,0
1508216393.483,56.152,37.598,34.180,64.453,49.316,0
1508216393.486,51.758,50.781,32.227,52.734,42.480,0
1508216393.490,48.828,47.852,35.156,54.199,12.207,0
1508216393.494,35.645,39.062,37.598,44.922,12.695,0
1508216393.498,24.902,23.438,34.180,36.133,39.551,0
1508216393.502,28.809,11.719,35.156,35.645,1.465,0
1508216393.506,31.250,47.852,45.410,34.668,-16.113,0
1508216393.510,26.367,57.617,42.480,39.062,17.090,0
1508216393.514,20.508,52.734,37.109,35.645,19.531,0
1508216393.518,26.367,53.711,44.434,39.551,20.996,0
1508216393.522,36.133,39.062,44.434,46.387,35.156,0
1508216393.526,30.762,37.598,39.551,32.227,38.086,0
1508216393.529,32.715,27.344,46.387,31.738,1.953,0
1508216393.533,30.273,11.230,45.898,44.434,-6.348,0
1508216393.537,28.320,28.809,41.016,50.781,22.461,0
1508216393.541,36.133,37.109,42.969,45.410,14.160,0
1508216393.545,28.809,46.387,43.945,43.457,16.113,0
1508216393.549,27.344,45.898,44.434,52.734,4.395,0
1508216393.553,35.156,46.387,44.922,57.617,23.926,0
1508216393.557,41.016,43.945,35.156,56.152,59.082,0
1508216393.561,48.340,33.203,35.645,55.176,30.273,0
1508216393.565,55.176,43.457,43.457,49.316,25.879,0
1508216393.568,57.129,54.199,46.387,46.387,24.902,0
1508216393.572,64.941,40.527,45.898,54.199,21.484,0
1508216393.576,69.824,25.391,40.527,52.246,18.555,0
1508216393.580,60.059,20.996,47.852,54.688,12.695,0
1508216393.584,57.129,34.668,54.199,67.383,33.203,0
1508216393.588,66.406,48.828,52.734,74.707,41.504,0
1508216393.592,69.336,46.387,39.551,54.199,23.438,0
1508216393.596,62.988,58.105,23.926,37.598,30.273,0
1508216393.600,55.664,71.289,22.461,39.062,57.617,0
1508216393.604,65.918,57.129,25.879,40.039,22.461,0
1508216393.608,71.777,55.664,26.855,46.875,-26.367,0
1508216393.611,75.684,62.500,27.832,46.875,-5.371,0
1508216393.615,72.754,51.270,30.273,47.852,31.250,0
1508216393.619,67.871,44.922,31.250,44.434,11.719,0
1508216393.623,67.871,36.133,33.691,48.828,15.625,0
1508216393.627,59.570,35.645,40.039,51.758,16.602,0
1508216393.631,57.617,43.945,39.551,36.621,40.039,0
1508216393.635,56.152,58.105,41.504,35.645,61.523,0
1508216393.639,49.805,52.734,49.805,41.504,-0.488,0
1508216393.643,49.316,30.273,41.016,41.992,-20.020,0
1508216393.647,56.641,23.926,37.109,45.898,31.738,0
1508216393.651,54.688,24.902,43.945,54.199,34.180,0
1508216393.654,45.410,21.973,47.363,54.688,0.000,0
1508216393.658,39.551,32.227,44.434,39.062,24.902,0
1508216393.662,42.480,44.434,41.504,40.039,83.984,0
1508216393.666,41.992,27.832,44.922,47.852,61.523,0
1508216393.670,36.621,18.066,50.293,51.270,1.465,0
1508216393.674,38.086,42.969,46.875,47.363,22.461,0
1508216393.678,45.898,49.805,48.340,44.434,39.551,0
1508216393.682,44.922,36.133,50.781,49.316,40.527,0
1508216393.686,36.133,24.414,45.410,43.945,24.414,0
1508216393.690,31.250,15.625,41.992,44.434,1.465,0
1508216393.693,35.645,32.715,38.086,43.457,5.371,0
1508216393.697,40.039,55.664,36.133,43.945,12.207,0
1508216393.701,36.133,56.641,33.691,47.363,0.488,0
1508216393.705,25.391,29.785,35.645,45.410,-1.953,0
1508216393.709,21.973,15.625,45.898,43.945,30.273,0
1508216393.713,19.043,41.992,49.316,44.434,52.246,0
1508216393.717,6.836,62.988,42.969,38.574,36.133,0
1508216393.721,3.418,38.574,41.504,30.762,29.297,0
1508216393.725,8.789,24.414,48.340,33.691,11.230,0
1508216393.729,17.090,48.828,51.758,40.039,-1.953,0
1508216393.733,13.672,53.711,42.969,30.273,14.648,0
1508216393.736,9.277,50.781,36.621,30.762,34.668,0
1508216393.740,16.602,45.898,34.180,34.668,18.066,0
1508216393.744,16.113,40.039,32.715,29.297,8.789,0
1508216393.748,15.137,34.668,34.180,31.250,45.410,0
1508216393.752,22.461,35.156,34.180,31.738,47.852,0
1508216393.756,24.902,38.574,37.598,33.691,21.484,0
1508216393.760,30.762,52.246,45.898,41.016,7.324,0
1508216393.764,31.250,39.551,40.039,43.457,20.020,0
1508216393.768,32.227,31.738,32.715,38.574,43.945,0
1508216393.772,46.387,49.316,43.457,42.480,46.875,0
1508216393.776,45.410,57.617,45.898,41.016,34.668,0
1508216393.779,46.875,51.758,36.133,45.410,28.809,0
1508216393.783,57.617,28.320,40.039,46.387,31.738,0
1508216393.787,55.664,31.738,47.852,46.387,5.859,0
1508216393.791,54.199,58.594,46.387,54.199,2.930,0
1508216393.795,53.711,49.316,43.457,53.223,44.922,0
1508216393.799,55.664,44.434,44.434,54.688,56.641,0
1508216393.803,50.293,36.621,41.992,60.547,26.367,0
1508216393.807,39.551,21.973,32.715,56.152,-8.789,0
1508216393.811,38.086,23.438,36.621,51.758,22.461,0
1508216393.815,33.691,27.344,41.504,46.387,54.199,0
1508216393.818,27.344,36.133,43.945,41.992,40.039,0
1508216393.822,25.879,47.852,47.363,48.828,19.043,0
1508216393.826,20.996,58.105,43.457,43.457,-0.977,0
1508216393.830,18.555,40.527,43.457,37.109,3.906,0
1508216393.834,17.090,23.926,36.133,33.203,-2.441,0
1508216393.838,7.324,27.832,39.551,34.180,15.625,0
1508216393.842,13.184,25.391,49.316,40.039,31.738,0
1508216393.846,15.137,38.574,31.738,28.809,22.949,0
1508216393.850,5.859,47.852,23.926,17.090,18.066,0
1508216393.854,0.977,41.992,33.691,15.625,29.297,0
1508216393.858,-1.953,39.551,38.574,19.043,41.016,0
1508216393.861,6.836,48.828,41.016,21.973,43.945,0
1508216393.865,11.230,41.016,40.039,23.438,31.250,0
1508216393.869,11.230,37.109,40.039,30.273,19.043,0
1508216393.873,22.461,53.711,46.387,43.457,-1.465,0
1508216393.877,24.414,34.668,43.945,40.527,-25.879,0
1508216393.881,21.484,20.508,43.945,36.133,-8.301,0
1508216393.885,23.926,20.996,40.039,36.133,24.902,0
1508216393.889,27.832,21.973,35.645,34.180,1.465,0
1508216393.893,31.250,32.715,37.598,36.133,-18.066,0
1508216393.897,27.832,42.969,34.180,39.062,41.992,0
1508216393.901,32.227,47.852,39.062,44.434,70.312,0
1508216393.904,35.645,42.480,44.434,50.781,33.203,0
1508216393.908,33.691,49.316,41.992,47.363,22.949,0
1508216393.912,36.133,37.109,42.480,46.875,60.547,0
1508216393.916,45.898,27.832,51.758,55.176,57.129,0
1508216393.920,55.176,38.086,51.270,55.176,44.434,0
1508216393.924,37.109,27.344,44.434,46.387,10.742,0
1508216393.928,22.461,28.320,52.246,45.410,1.465,0
1508216393.932,24.902,46.875,56.641,53.223,50.293,0
1508216393.936,26.855,45.898,51.758,52.734,34.668,0
1508216393.940,16.602,37.598,48.828,49.316,27.832,0
1508216393.943,16.602,38.086,51.758,46.875,32.715,0
1508216393.947,16.113,34.668,55.176,44.922,20.996,0
1508216393.951,11.719,24.414,53.223,51.758,40.039,0
1508216393.955,10.254,23.926,48.828,42.969,34.668,0
1508216393.959,7.812,56.152,51.270,37.109,20.996,0
1508216393.963,8.789,66.895,48.828,33.203,16.113,0
1508216393.967,3.906,33.691,36.621,21.484,9.277,0
1508216393.971,0.000,3.418,41.504,28.320,17.578,0
1508216393.975,-10.254,13.672,40.039,24.414,1.465,0
1508216393.979,-9.277,24.902,36.621,22.461,28.320,0
1508216393.983,5.371,12.695,41.504,29.785,7.812,0
1508216393.986,9.766,19.043,39.062,32.715,-22.949,0
1508216393.990,1.465,30.762,32.715,32.227,28.809,0
1508216393.994,-0.488,31.738,44.434,20.508,40.527,0
1508216393.998,-1.953,38.574,54.688,22.949,32.227,0
1508216394.002,-1.465,43.457,50.781,33.691,23.438,0
1508216394.006,0.000,36.621,47.852,27.832,22.461,0
1508216394.010,8.301,42.969,46.875,27.832,11.719,0
1508216394.014,25.391,41.992,54.688,39.062,33.691,0
1508216394.018,22.461,25.879,52.734,38.574,72.754,0
1508216394.022,14.160,27.344,40.039,29.785,59.570,0
1508216394.026,28.809,20.996,43.945,38.086,42.480,0
1508216394.029,23.438,7.324,46.387,49.805,17.578,0
1508216394.033,14.160,41.504,42.480,47.363,50.781,0
1508216394.037,23.926,62.500,42.480,44.434,61.035,0
1508216394.041,25.391,53.223,41.992,48.340,4.883,0
1508216394.045,32.715,54.688,44.434,56.641,13.672,0
1508216394.049,34.180,50.781,48.340,52.734,33.203,0
1508216394.053,22.949,35.645,45.410,48.340,52.246,0
1508216394.057,20.996,30.273,41.016,40.527,25.879,0
1508216394.061,26.855,44.434,41.016,40.039,-4.883,0
1508216394.065,19.043,45.898,35.156,34.668,24.902,0
1508216394.068,7.812,38.574,33.203,27.832,45.410,0
1508216394.072,10.254,13.184,37.109,35.645,1.465,0
1508216394.076,13.672,12.695,28.809,38.574,-17.090,0
1508216394.080,15.137,51.758,31.738,37.109,36.621,0
1508216394.084,17.578,56.152,41.016,29.785,37.109,0
1508216394.088,20.508,35.645,36.621,24.414,2.441,0
1508216394.092,22.461,33.203,35.156,21.484,33.203,0
1508216394.096,34.668,48.340,45.410,27.344,57.617,0
1508216394.100,33.691,43.457,49.805,38.574,51.270,0
1508216394.104,34.180,43.457,46.875,37.109,38.086,0
1508216394.108,34.180,55.176,42.969,32.715,9.766,0
1508216394.111,30.762,49.805,37.109,36.621,14.648,0
1508216394.115,40.527,31.738,40.039,40.527,45.898,0
1508216394.119,42.480,17.090,48.828,40.039,22.949,0
1508216394.123,25.879,41.016,47.852,41.504,25.879,0
1508216394.127,25.879,60.059,40.039,43.945,52.246,0
1508216394.131,36.133,51.758,37.109,43.457,24.414,0
1508216394.135,38.086,31.738,38.574,46.387,-1.953,0
1508216394.139,33.691,23.438,37.598,48.340,27.832,0
1508216394.143,27.832,48.340,40.039,44.922,25.391,0
1508216394.147,33.203,73.730,45.898,52.734,23.926,0
1508216394.151,28.809,64.941,37.598,46.875,29.297,0
1508216394.154,27.832,48.340,31.738,42.969,3.906,0
1508216394.158,40.527,49.316,39.062,52.734,-18.066,0
1508216394.162,35.645,45.410,32.227,45.898,-12.695,0
1508216394.166,21.484,35.645,30.762,36.133,8.789,0
1508216394.170,28.809,28.809,33.691,32.715,44.922,0
1508216394.174,30.762,44.434,33.203,32.715,9.766,0
1508216394.178,22.461,50.781,35.645,42.480,-7.812,0
1508216394.182,29.785,18.555,32.227,53.223,29.785,0
1508216394.186,33.691,32.715,39.551,45.898,26.855,0
1508216394.190,27.832,64.453,45.410,36.621,20.508,0
1508216394.193,35.156,59.082,45.410,36.621,23.926,0
1508216394.197,34.668,46.875,46.875,41.016,29.785,0
1508216394.201,23.926,26.367,46.875,43.945,12.207,0
1508216394.205,36.133,40.039,48.340,52.246,-13.184,0
1508216394.209,48.340,52.734,49.805,61.035,-33.691,0
1508216394.213,28.809,37.598,41.016,53.711,-8.789,0
1508216394.217,16.113,38.086,29.785,39.062,39.551,0
1508216394.221,24.902,29.297,28.320,30.762,22.461,0
1508216394.225,24.414,35.156,25.879,31.250,16.113,0
1508216394.229,27.832,52.734,23.926,27.344,33.691,0
1508216394.233,37.109,50.293,32.715,33.203,16.113,0
1508216394.236,35.645,37.109,30.762,38.086,5.371,0
1508216394.240,48.828,17.578,31.738,44.434,4.883,0
1508216394.244,50.781,33.203,39.062,50.781,0.000,0
1508216394.248,40.527,48.340,34.180,48.828,14.648,0
1508216394.252,40.527,42.969,35.156,45.898,19.531,0
1508216394.256,42.969,50.781,38.086,50.293,-12.207,0
1508216394.260,48.340,42.969,36.621,57.617,-7.324,0
1508216394.264,43.945,10.742,39.062,49.316,25.391,0
1508216394.268,44.922,6.348,44.434,48.828,43.457,0
1508216394.272,48.828,27.344,42.969,53.223,41.992,0
1508216394.276,51.758,41.016,36.621,50.293,53.711,0
1508216394.279,48.340,47.363,31.738,48.828,22.461,0
1508216394.283,51.758,46.875,32.227,51.270,11.719,0
1508216394.287,51.758,46.387,41.016,50.781,32.227,0
1508216394.291,38.086,44.922,39.551,44.922,28.320,0
1508216394.295,40.527,34.668,38.574,44.922,37.598,0
1508216394.299,44.434,40.527,41.016,39.551,-15.137,0
1508216394.303,42.480,49.805,40.527,34.668,-19.531,0
1508216394.307,45.410,27.344,44.922,42.480,24.414,0
1508216394.311,43.945,49.316,44.434,43.945,-3.418,0
1508216394.315,33.691,71.777,33.691,30.762,-8.301,0
1508216394.318,36.621,54.199,30.273,31.738,20.020,0
1508216394.322,53.223,33.203,36.621,44.434,9.277,0
1508216394.326,45.410,37.109,38.086,38.574,-14.160,0
1508216394.330,34.668,62.988,32.715,29.785,10.742,0
1508216394.334,42.969,74.707,36.621,33.691,23.926,0
1508216394.338,39.062,58.594,34.668,36.621,13.184,0
1508216394.342,42.969,41.992,34.180,34.180,10.254,0
1508216394.346,46.875,43.945,32.715,31.250,6.348,0
1508216394.350,40.039,45.898,35.156,34.180,4.883,0
1508216394.354,38.086,33.203,30.762,35.645,-5.371,0
1508216394.358,30.273,35.645,20.020,38.086,-39.062,0
1508216394.361,29.297,50.293,29.785,40.527,-30.273,0
1508216394.365,34.180,35.645,34.180,37.109,60.547,0
1508216394.369,30.762,40.527,30.762,25.391,50.293,0
1508216394.373,31.738,47.852,32.715,19.043,-14.160,0
1508216394.377,32.227,36.133,32.227,22.949,12.207,0
1508216394.381,33.203,47.852,32.715,27.832,49.316,0
1508216394.385,44.434,45.410,34.668,33.203,32.715,0
1508216394.389,55.176,42.969,37.598,38.574,24.902,0
1508216394.393,56.641,50.293,36.621,42.480,12.207,0
1508216394.397,46.875,38.574,35.156,44.922,14.648,0
1508216394.401,39.062,43.457,41.016,41.016,38.086,0
1508216394.404,43.457,59.082,51.758,43.457,-11.719,0
1508216394.408,47.363,59.082,53.711,50.781,-8.789,0
1508216394.412,39.062,48.828,47.363,38.574,38.086,0
1508216394.416,34.668,32.715,45.898,40.039,23.926,0
1508216394.420,32.227,32.227,44.434,42.480,23.926,0
1508216394.424,34.180,40.039,38.086,29.297,40.039,0
1508216394.428,39.062,53.711,35.645,28.320,50.781,0
1508216394.432,39.062,36.621,41.016,37.109,37.109,0
1508216394.436,43.457,10.254,42.969,42.480,1.953,0
1508216394.440,36.133,50.781,38.086,43.457,-1.953,0
1508216394.443,23.438,81.055,37.598,42.969,25.391,0
1508216394.447,21.973,56.152,47.363,39.062,18.066,0
1508216394.451,23.926,37.109,43.457,37.109,7.812,0
1508216394.455,28.320,41.016,36.621,32.227,55.664,0
1508216394.459,34.180,41.992,40.527,35.645,35.645,0
1508216394.463,21.973,31.250,35.645,40.527,8.301,0
1508216394.467,16.113,23.926,37.109,39.551,41.992,0
1508216394.471,20.020,43.945,39.062,38.574,46.387,0
1508216394.475,23.926,52.734,20.020,39.062,49.316,0
1508216394.479,27.344,49.805,23.438,45.898,13.184,0
1508216394.483,22.461,47.363,43.945,50.781,-1.953,0
1508216394.486,22.461,50.781,44.434,42.480,11.230,0
1508216394.490,23.438,43.945,35.645,34.668,13.184,0
1508216394.494,14.160,42.480,40.039,38.574,15.625,0
1508216394.498,11.719,31.250,44.922,46.387,49.316,0
1508216394.502,11.719,24.414,43.457,48.340,46.875,0
1508216394.506,17.578,36.133,53.711,49.316,21.973,0
1508216394.510,19.043,41.992,49.805,43.945,51.270,0
1508216394.514,16.113,25.391,40.039,37.109,47.852,0
1508216394.518,20.508,35.645,41.504,39.062,23.926,0
1508216394.522,22.461,57.129,44.922,42.480,8.301,0
1508216394.526,14.648,43.945,46.387,44.922,13.672,0
1508216394.529,14.648,31.250,42.480,51.270,40.039,0
1508216394.533,28.320,43.945,40.039,47.852,41.504,0
1508216394.537,33.691,43.457,38.086,47.852,8.301,0
1508216394.541,31.738,31.738,44.434,49.805,4.395,0
1508216394.545,25.879,52.246,47.852,48.340,60.059,0
1508216394.549,24.414,57.129,37.109,41.016,83.984,0
1508216394.553,27.832,44.922,32.227,30.273,38.086,0
1508216394.557,29.297,38.086,42.480,34.180,30.273,0
1508216394.561,29.297,32.227,47.852,37.109,49.805,0
1508216394.565,20.996,23.926,37.109,34.668,32.715,0
1508216394.568,24.902,28.809,30.273,35.156,16.113,0
1508216394.572,20.020,27.344,32.715,24.414,9.277,0
1508216394.576,6.836,24.414,37.109,29.297,33.691,0
1508216394.580,10.742,39.551,34.668,30.762,39.551,0
1508216394.584,12.695,60.059,32.715,25.391,-15.625,0
1508216394.588,15.625,55.176,33.691,32.227,-3.906,0
1508216394.592,17.090,42.969,33.691,39.062,10.254,0
1508216394.596,16.113,45.898,37.598,39.551,0.000,0
1508216394.600,25.879,44.922,39.551,40.039,21.484,0
1508216394.604,25.879,24.414,36.133,35.645,50.293,0
1508216394.608,21.973,21.484,41.504,42.480,44.434,0
1508216394.611,23.926,43.457,46.387,54.199,8.789,0
1508216394.615,17.578,56.641,36.133,43.945,38.086,0
1508216394.619,13.184,51.758,34.668,36.133,50.781,0
1508216394.623,19.043,51.270,43.457,40.039,12.695,0
1508216394.627,26.367,52.734,41.504,41.016,-1.953,0
1508216394.631,21.973,51.270,36.133,39.062,0.977,0
1508216394.635,19.531,43.457,40.039,43.945,31.250,0
1508216394.639,22.949,41.992,48.340,45.410,21.484,0
1508216394.643,24.414,16.602,38.086,48.340,3.418,0
1508216394.647,23.438,-15.137,33.691,49.805,27.344,0
1508216394.651,16.113,34.180,40.527,38.086,39.551,0
1508216394.654,19.043,70.801,41.016,31.250,26.367,0
1508216394.658,20.020,56.152,40.039,33.691,10.254,0
1508216394.662,17.578,60.547,35.645,35.645,30.273,0
1508216394.666,24.414,65.918,36.621,36.133,54.688,0
1508216394.670,28.809,49.316,35.645,34.180,13.184,0
1508216394.674,36.133,42.480,31.250,28.320,-1.953,0
1508216394.678,33.203,47.363,35.645,23.926,31.250,0
1508216394.682,27.832,38.086,31.738,29.785,22.949,0
1508216394.686,39.062,10.254,27.344,46.875,5.371,0
1508216394.690,50.781,25.391,35.156,55.176,12.695,0
1508216394.693,45.410,41.504,34.668,50.293,51.758,0
1508216394.697,28.320,40.527,33.691,49.805,46.875,0
1508216394.701,22.461,69.824,35.645,44.434,21.484,0
1508216394.705,31.738,77.637,37.598,38.574,19.531,0
1508216394.709,41.016,66.895,39.551,37.109,35.645,0
1508216394.713,37.109,53.711,38.574,35.645,56.152,0
1508216394.717,29.297,50.293,32.715,33.691,25.391,0
1508216394.721,26.367,44.434,35.156,36.133,-11.719,0
1508216394.725,38.086,35.156,47.363,45.410,21.484,0
1508216394.729,43.457,41.016,46.875,48.828,41.992,0
1508216394.733,37.598,35.156,42.969,45.410,21.973,0
1508216394.736,40.527,6.348,40.039,52.734,7.812,0
1508216394.740,34.180,22.461,35.645,56.152,20.508,0
1508216394.744,24.902,57.129,38.086,60.059,20.508,0
1508216394.748,19.531,64.453,39.062,56.641,22.949,0
1508216394.752,24.414,62.012,33.691,30.273,47.852,0
1508216394.756,27.832,51.758,37.109,31.250,49.316,0
1508216394.760,26.367,44.922,36.621,41.016,28.320,0
1508216394.764,20.020,44.922,22.949,31.250,6.348,0
1508216394.768,12.695,41.016,18.555,13.184,24.414,0
1508216394.772,20.508,30.273,27.344,19.531,23.438,0
1508216394.776,20.020,30.273,29.297,34.668,2.930,0
1508216394.779,19.043,49.805,32.715,33.203,15.137,0
1508216394.783,13.672,39.062,31.250,30.273,29.785,0
1508216394.787,4.883,3.418,28.809,27.832,48.828,0
1508216394.791,10.254,0.000,35.645,36.133,32.715,0
1508216394.795,11.719,27.832,37.598,37.598,33.691,0
1508216394.799,14.160,53.223,31.250,29.297,57.129,0
1508216394.803,22.949,50.781,34.668,28.320,39.062,0
1508216394.807,28.809,45.410,38.574,25.391,30.273,0
1508216394.811,36.133,49.316,36.621,41.504,36.133,0
1508216394.815,39.062,53.711,45.898,59.570,48.828,0
1508216394.818,40.039,39.551,51.758,55.664,63.477,0
1508216394.822,45.898,27.344,51.758,48.828,33.691,0
1508216394.826,44.922,35.645,47.363,47.363,12.207,0
1508216394.830,37.598,41.992,50.293,47.363,27.344,0
1508216394.834,41.504,37.598,56.152,43.945,36.621,0
1508216394.838,39.062,33.203,45.898,38.086,-3.906,0
1508216394.842,36.133,41.992,38.086,40.527,4.883,0
1508216394.846,37.598,32.227,43.457,34.668,44.434,0
1508216394.850,38.086,31.250,45.898,38.574,32.715,0
1508216394.854,40.527,59.570,39.062,39.062,2.441,0
1508216394.858,41.504,59.082,36.133,31.738,-19.531,0
1508216394.861,38.086,36.621,37.109,36.621,16.602,0
1508216394.865,34.180,43.457,37.109,40.039,30.762,0
1508216394.869,30.273,41.504,36.133,42.480,-0.488,0
1508216394.873,31.738,23.926,33.691,55.664,26.367,0
1508216394.877,31.250,42.969,33.203,64.453,41.016,0
1508216394.881,23.438,50.293,37.598,49.805,42.969,0
1508216394.885,19.043,36.621,41.016,36.133,22.949,0
1508216394.889,13.184,42.969,42.969,31.738,-7.324,0
1508216394.893,13.672,51.270,47.852,43.457,15.137,0
1508216394.897,16.602,46.875,44.434,45.410,40.527,0
1508216394.901,17.578,38.086,38.574,38.086,39.062,0
1508216394.904,16.602,35.156,43.945,51.270,34.180,0
1508216394.908,21.973,40.527,46.875,54.199,31.738,0
1508216394.912,20.020,34.668,41.992,46.875,-9.766,0
1508216394.916,10.742,22.461,42.480,48.340,-4.883,0
1508216394.920,15.137,50.781,51.758,48.828,33.203,0
1508216394.924,18.066,52.246,52.246,46.387,27.832,0
1508216394.928,16.602,25.879,46.875,44.434,16.113,0
1508216394.932,22.461,33.691,47.363,45.898,20.020,0
1508216394.936,30.273,39.062,50.781,46.875,26.855,0
1508216394.940,33.691,32.227,51.758,52.734,-12.207,0
1508216394.943,31.250,34.180,42.969,59.570,6.836,0
1508216394.947,20.508,32.227,35.645,51.758,47.852,0
1508216394.951,20.020,34.668,37.598,43.945,75.195,0
1508216394.955,24.414,51.270,45.410,44.922,36.621,0
1508216394.959,30.273,65.430,48.828,47.363,-20.508,0
1508216394.963,32.227,45.898,41.992,41.504,10.742,0
1508216394.967,33.691,33.203,38.574,40.039,58.105,0
1508216394.971,40.527,41.016,39.551,47.363,32.227,0
1508216394.975,35.645,33.203,41.992,47.852,-6.348,0
1508216394.979,36.621,36.621,43.945,49.805,17.090,0
1508216394.983,40.527,48.340,41.992,47.363,47.852,0
1508216394.986,39.551,56.152,41.504,45.410,32.715,0
1508216394.990,37.598,41.992,39.551,42.969,15.625,0
1508216394.994,35.645,38.574,38.086,50.293,27.344,0
1508216394.998,45.898,42.480,41.992,56.152,23.926,0
1508216395.002,31.250,39.062,36.133,41.992,27.344,0
1508216395.006,21.484,37.109,30.273,31.738,24.414,0
1508216395.010,24.414,24.902,31.738,27.344,28.809,0
1508216395.014,15.137,28.320,30.273,34.180,38.574,0
1508216395.018,20.020,51.758,34.180,32.715,-4.883,0
1508216395.022,18.555,41.504,36.621,30.273,-12.695,0
1508216395.026,14.160,26.855,28.809,36.133,22.949,0
1508216395.029,14.648,27.344,24.902,33.691,42.969,0
1508216395.033,14.648,32.227,31.250,36.133,39.551,0
1508216395.037,15.625,30.273,29.785,40.039,25.879,0
1508216395.041,13.672,33.691,27.344,45.898,36.133,0
1508216395.045,17.578,30.762,32.715,40.527,27.832,0
1508216395.049,24.414,28.809,34.668,33.691,-1.953,0
1508216395.053,28.809,39.062,40.527,41.504,29.785,0
1508216395.057,33.203,40.527,45.410,37.598,59.082,0
1508216395.061,34.668,39.551,37.598,29.785,40.039,0
1508216395.065,36.133,37.109,36.133,36.133,44.922,0
1508216395.068,31.738,36.133,37.109,34.180,46.875,0
1508216395.072,31.250,41.992,40.039,31.738,44.922,0
1508216395.076,35.645,25.879,43.457,40.039,16.602,0
1508216395.080,38.574,9.766,42.969,47.363,7.324,0
1508216395.084,44.922,34.668,41.016,49.805,10.742,0
1508216395.088,43.457,43.457,35.156,48.828,18.555,0
1508216395.092,38.574,39.062,36.133,49.805,20.996,0
1508216395.096,32.715,47.363,39.062,46.387,11.230,0
1508216395.100,37.598,30.273,41.016,48.828,41.504,0
1508216395.104,41.992,33.203,42.969,59.570,20.020,0
1508216395.108,43.457,48.828,42.969,60.059,-16.602,0
1508216395.111,52.246,40.527,52.246,67.871,18.555,0
1508216395.115,44.922,26.367,46.387,58.594,51.270,0
1508216395.119,33.203,29.785,34.180,47.363,38.086,0
1508216395.123,35.156,32.715,33.691,51.270,16.113,0
1508216395.127,37.109,21.484,39.062,47.852,38.086,0
1508216395.131,33.691,18.066,36.621,38.086,66.406,0
1508216395.135,35.156,28.809,35.156,38.574,32.715,0
1508216395.139,41.504,28.320,39.551,39.062,-6.836,0
1508216395.143,30.762,27.832,37.109,40.039,25.391,0
1508216395.147,27.832,16.113,41.016,40.039,65.918,0
1508216395.151,29.297,17.578,44.922,38.086,27.832,0
1508216395.154,18.555,48.340,34.668,37.109,-11.719,0
1508216395.158,10.254,54.199,33.691,35.156,5.859,0
1508216395.162,20.508,51.270,36.621,47.852,37.109,0
1508216395.166,32.227,41.016,31.738,53.223,51.758,0
1508216395.170,21.973,35.156,39.062,43.945,11.719,0
1508216395.174,9.766,25.391,45.898,34.180,17.578,0
1508216395.178,3.906,12.207,48.340,35.156,29.785,0
1508216395.182,2.930,34.180,46.387,38.086,11.719,0
1508216395.186,4.883,39.062,47.852,27.832,31.738,0
1508216395.190,8.789,26.855,56.152,36.621,31.250,0
1508216395.193,14.160,30.273,55.176,50.781,9.277,0
1508216395.197,17.578,24.414,48.828,43.457,-0.977,0
1508216395.201,16.113,25.879,46.387,36.133,9.277,0
1508216395.205,17.578,30.762,52.734,44.434,33.691,0
1508216395.209,21.484,27.832,55.664,50.293,11.719,0
1508216395.213,32.227,32.715,57.129,51.758,21.973,0
1508216395.217,36.621,27.832,51.758,57.129,15.625,0
1508216395.221,34.180,33.203,43.457,60.547,8.301,0
1508216395.225,38.086,40.039,45.898,50.781,-16.602,0
1508216395.229,44.434,42.480,48.340,45.410,-28.320,0
1508216395.233,38.086,37.109,42.969,42.480,13.672,0
1508216395.236,24.414,35.156,36.133,33.203,6.348,0
1508216395.240,20.020,32.715,36.621,29.785,0.488,0
1508216395.244,27.832,19.043,41.016,33.691,-8.301,0
1508216395.248,29.785,20.020,41.016,30.762,23.926,0
1508216395.252,20.996,36.621,42.969,24.414,33.691,0
1508216395.256,20.996,29.785,39.062,20.020,-22.461,0
1508216395.260,12.695,13.184,24.414,15.625,-38.574,0
1508216395.264,19.043,21.973,28.809,24.902,30.273,0
1508216395.268,32.227,34.668,41.016,26.367,52.246,0
1508216395.272,17.090,43.457,42.969,27.832,49.316,0
1508216395.276,14.160,41.992,39.551,38.086,23.926,0
1508216395.279,13.184,40.039,38.086,37.109,27.832,0
1508216395.283,14.648,38.086,44.434,36.621,47.852,0
1508216395.287,17.578,19.043,44.922,34.180,-8.789,0
1508216395.291,14.160,2.441,37.598,34.180,-20.996,0
1508216395.295,16.113,12.207,38.086,37.598,16.113,0
1508216395.299,18.555,20.020,37.598,38.086,28.809,0
1508216395.303,7.812,39.062,29.297,45.898,18.555,0
1508216395.307,5.371,47.852,25.391,37.598,3.418,0
1508216395.311,4.883,31.250,26.855,24.414,24.414,0
1508216395.315,2.930,32.227,35.156,30.762,32.227,0
1508216395.318,13.184,37.598,39.062,30.762,23.926,0
1508216395.322,8.789,34.668,31.250,19.043,39.062,0
1508216395.326,-0.488,20.508,21.484,22.949,45.898,0
1508216395.330,4.395,24.902,17.090,29.297,17.090,0
1508216395.334,16.602,31.250,24.902,32.227,-6.836,0
1508216395.338,15.137,21.484,34.180,32.227,21.484,0
1508216395.342,16.113,25.391,24.902,26.367,24.414,0
1508216395.346,21.484,27.344,21.973,23.438,-4.395,0
1508216395.350,20.996,26.855,28.809,25.879,7.324,0
1508216395.354,23.926,9.277,27.344,24.414,31.738,0
1508216395.358,16.113,15.137,22.949,16.113,16.113,0
1508216395.361,-0.977,44.922,17.090,6.836,29.785,0
1508216395.365,5.371,43.945,14.160,7.812,52.734,0
1508216395.369,17.090,38.574,18.066,21.484,27.344,0
1508216395.373,22.949,33.691,19.531,20.020,20.020,0
1508216395.377,24.414,28.809,13.184,16.113,18.066,0
1508216395.381,5.859,40.039,12.695,4.395,39.551,0
1508216395.385,-2.930,41.992,16.113,0.488,61.523,0
1508216395.389,4.395,34.668,18.555,8.789,34.180,0
1508216395.393,7.812,31.738,24.902,17.090,6.836,0
1508216395.397,13.672,29.297,29.785,23.438,-0.488,0
1508216395.401,17.090,33.203,23.926,26.855,6.836,0
1508216395.404,20.020,50.781,26.367,26.855,-9.277,0
1508216395.408,14.160,49.805,28.809,27.832,-20.020,0
1508216395.412,11.719,30.273,27.832,39.551,19.043,0
1508216395.416,20.996,25.879,32.715,46.387,46.875,0
1508216395.420,23.926,42.480,33.203,46.875,-2.930,0
1508216395.424,27.832,50.293,22.461,42.969,-17.090,0
1508216395.428,22.461,38.574,20.996,43.945,8.301,0
1508216395.432,10.742,26.855,30.273,41.504,48.828,0
1508216395.436,6.348,30.762,35.156,36.621,58.105,0
1508216395.440,8.301,38.086,36.621,44.434,17.090,0
1508216395.443,9.277,37.109,29.297,55.664,-4.883,0
1508216395.447,11.230,43.457,23.438,52.734,14.648,0
1508216395.451,29.297,46.387,24.414,42.480,20.996,0
1508216395.455,23.438,39.062,33.691,41.504,19.531,0
1508216395.459,3.906,29.785,38.086,33.691,31.250,0
1508216395.463,4.883,13.184,37.598,32.227,30.762,0
1508216395.467,10.742,10.254,44.922,41.992,11.230,0
1508216395.471,13.184,30.762,50.781,32.715,-8.301,0
1508216395.475,10.742,49.316,49.316,27.832,22.949,0
1508216395.479,12.207,50.293,48.828,36.133,39.551,0
1508216395.483,16.113,40.039,42.480,28.809,29.785,0
1508216395.486,15.625,25.879,39.062,29.785,20.020,0
1508216395.490,19.043,33.203,44.434,36.621,35.156,0
1508216395.494,30.273,43.945,47.363,38.574,14.648,0
1508216395.498,24.414,39.062,46.875,40.527,6.348,0
1508216395.502,11.719,31.738,46.875,43.945,32.227,0
1508216395.506,7.812,28.320,45.898,44.434,45.410,0
1508216395.510,18.555,37.598,43.945,39.551,24.902,0
1508216395.514,31.250,34.668,42.969,36.621,25.879,0
1508216395.518,33.203,33.203,39.551,35.645,23.926,0
1508216395.522,35.645,43.457,38.086,39.551,-13.672,0
1508216395.526,43.457,44.434,41.504,48.340,-2.930,0
1508216395.529,45.410,29.297,44.922,51.758,22.949,0
1508216395.533,39.551,39.062,50.781,52.734,50.781,0
1508216395.537,41.992,53.711,51.270,50.293,47.852,0
1508216395.541,35.156,42.969,41.016,53.223,16.113,0
1508216395.545,27.344,43.457,45.410,51.758,36.133,0
1508216395.549,32.715,49.316,44.434,48.340,49.316,0
1508216395.553,30.273,45.410,45.898,58.105,42.480,0
1508216395.557,34.180,33.203,53.223,58.105,7.812,0
1508216395.561,31.738,25.879,41.992,38.574,-0.488,0
1508216395.565,18.066,36.621,39.062,29.297,35.156,0
1508216395.568,22.949,43.457,46.387,39.551,31.738,0
1508216395.572,27.344,41.016,44.922,38.086,10.742,0
1508216395.576,22.949,39.062,43.945,37.109,12.695,0
1508216395.580,22.949,42.480,46.387,46.875,26.855,0
1508216395.584,20.508,44.922,47.852,49.805,59.570,0
1508216395.588,27.832,37.109,51.758,50.781,20.020,0
1508216395.592,28.320,30.762,41.504,51.270,4.395,0
1508216395.596,20.020,26.855,36.133,41.992,65.918,0
1508216395.600,21.973,26.855,39.062,34.668,27.832,0
1508216395.604,23.926,36.133,32.227,40.039,5.371,0
1508216395.608,29.785,28.809,39.062,47.363,16.113,0
1508216395.611,28.320,27.344,43.945,38.574,20.508,0
1508216395.615,25.391,36.133,41.504,32.227,47.852,0
1508216395.619,27.344,37.109,45.410,38.574,19.531,0
1508216395.623,30.762,38.086,48.828,41.016,-4.395,0
1508216395.627,41.992,48.340,49.805,42.969,20.020,0
1508216395.631,47.852,39.551,57.129,56.641,39.551,0
1508216395.635,43.457,22.949,57.617,56.641,77.637,0
1508216395.639,41.504,29.785,56.152,46.387,51.758,0
1508216395.643,46.875,29.785,57.129,47.852,24.902,0
1508216395.647,36.133,30.762,49.316,48.340,33.691,0
1508216395.651,27.832,36.133,48.340,44.922,26.367,0
1508216395.654,33.203,33.691,53.223,44.434,20.020,0
1508216395.658,30.273,42.480,52.246,39.551,-3.418,0
1508216395.662,35.645,41.016,49.316,36.621,-4.883,0
1508216395.666,36.621,30.273,52.734,42.969,8.789,0
1508216395.670,26.855,34.180,51.270,44.922,15.625,0
1508216395.674,31.250,31.738,52.734,48.340,9.766,0
1508216395.678,27.344,27.832,53.711,54.688,5.859,0
1508216395.682,27.344,31.250,48.340,53.711,32.227,0
1508216395.686,35.645,23.438,49.805,49.805,18.066,0
1508216395.690,36.621,28.320,58.594,47.852,-0.977,0
1508216395.693,24.414,32.227,51.270,41.016,25.391,0
1508216395.697,12.695,21.973,43.457,43.945,59.082,0
1508216395.701,9.766,26.367,48.340,52.734,29.297,0
1508216395.705,12.207,44.434,48.828,51.758,-2.441,0
1508216395.709,20.996,43.457,41.016,52.734,-6.836,0
1508216395.713,20.996,32.715,43.457,53.223,28.809,0
1508216395.717,14.160,30.273,43.945,47.363,47.852,0
1508216395.721,14.160,28.809,38.086,43.457,2.930,0
1508216395.725,22.949,29.785,41.016,44.922,12.207,0
1508216395.729,23.926,37.109,40.039,41.992,47.852,0
1508216395.733,18.066,41.504,38.086,38.574,52.246,0
1508216395.736,21.484,41.992,35.645,30.762,27.344,0
1508216395.740,25.391,39.551,35.156,30.762,6.348,0
1508216395.744,25.879,34.668,41.992,40.039,22.461,0
1508216395.748,34.668,27.344,44.434,35.156,32.715,0
1508216395.752,31.250,24.414,41.992,29.297,36.133,0
1508216395.756,18.066,25.879,30.762,35.645,14.648,0
1508216395.760,25.879,37.109,30.273,36.621,6.348,0
1508216395.764,32.715,51.270,43.945,29.297,50.293,0
1508216395.768,22.949,53.711,37.109,28.809,49.316,0
1508216395.772,26.855,53.711,30.762,36.133,20.020,0
1508216395.776,27.344,45.410,34.180,39.551,25.391,0
1508216395.779,25.879,48.340,36.621,37.109,24.414,0
1508216395.783,30.273,47.852,40.527,37.598,1.953,0
1508216395.787,29.297,43.945,36.133,33.203,12.695,0
1508216395.791,28.809,43.945,36.621,37.598,24.902,0
1508216395.795,27.344,17.578,44.922,39.551,26.855,0
1508216395.799,29.785,28.809,42.480,31.738,25.391,0
1508216395.803,27.344,55.664,40.039,40.039,20.020,0
1508216395.807,16.113,45.898,36.621,43.457,26.855,0
1508216395.811,10.742,52.734,40.039,44.922,14.648,0
1508216395.815,8.789,50.781,45.898,45.410,29.785,0
1508216395.818,14.160,44.922,40.527,44.434,51.758,0
1508216395.822,22.461,58.594,37.598,35.645,9.277,0
1508216395.826,21.484,55.664,37.598,31.250,2.441,0
1508216395.830,19.043,47.852,42.480,36.621,15.137,0
1508216395.834,21.973,34.668,37.598,30.273,12.207,0
1508216395.838,20.996,7.812,34.668,38.086,7.324,0
1508216395.842,23.438,18.066,43.457,45.410,25.391,0
1508216395.846,29.785,49.316,33.203,32.227,25.391,0
1508216395.850,32.715,63.477,23.438,27.344,48.340,0
1508216395.854,42.969,66.895,34.180,34.180,55.664,0
1508216395.858,36.621,55.176,41.504,33.691,-28.809,0
1508216395.861,15.137,41.504,39.062,28.809,10.742,0
1508216395.865,17.578,32.715,38.574,30.762,76.172,0
1508216395.869,33.203,32.715,42.480,38.574,32.715,0
1508216395.873,31.738,43.945,48.828,43.945,-2.441,0
1508216395.877,23.438,38.086,46.387,37.598,-1.953,0
1508216395.881,19.531,21.484,44.434,30.762,56.152,0
1508216395.885,30.762,15.137,48.828,40.527,53.711,0
1508216395.889,37.109,25.879,40.527,43.945,24.902,0
1508216395.893,31.250,57.129,32.715,31.738,22.461,0
1508216395.897,26.855,60.059,42.969,32.227,33.203,0
1508216395.901,18.555,50.781,44.434,37.109,20.508,0
1508216395.904,15.625,39.062,40.527,32.227,-20.508,0
1508216395.908,18.066,33.203,44.922,32.227,15.137,0
1508216395.912,22.949,34.668,47.852,41.504,52.246,0
1508216395.916,22.949,41.016,39.062,35.156,29.785,0
1508216395.920,13.672,35.645,37.598,36.621,21.484,0
1508216395.924,6.348,31.250,36.133,42.969,59.082,0
1508216395.928,7.812,41.016,35.645,41.016,58.105,0
1508216395.932,9.766,17.578,46.875,47.852,62.988,0
1508216395.936,8.301,13.184,49.316,51.758,44.922,0
1508216395.940,13.672,20.508,39.062,50.781,12.695,0
1508216395.943,20.508,22.949,38.086,50.781,41.504,0
1508216395.947,20.020,37.598,45.410,48.340,24.902,0
1508216395.951,12.695,39.062,46.387,47.363,-9.766,0
1508216395.955,14.648,28.320,40.039,45.898,18.066,0
1508216395.959,25.391,45.898,36.133,43.457,21.484,0
1508216395.963,19.043,46.387,28.809,36.621,8.789,0
1508216395.967,24.902,42.969,23.926,37.598,45.410,0
1508216395.971,38.086,64.941,24.902,41.992,60.547,0
1508216395.975,36.133,54.688,15.625,36.621,17.578,0
1508216395.979,40.039,53.711,7.812,32.715,23.926,0
1508216395.983,48.828,55.176,11.719,30.273,31.738,0
1508216395.986,50.781,42.480,19.531,36.621,14.648,0
1508216395.990,41.016,56.641,18.066,36.621,10.742,0
1508216395.994,36.133,71.777,17.578,33.203,33.691,0
1508216395.998,41.016,62.988,18.066,40.039,40.527,0
1508216396.002,41.504,46.387,15.625,38.086,25.879,0
1508216396.006,35.645,51.758,24.902,37.109,25.391,0
1508216396.010,39.062,62.500,31.738,36.133,23.926,0
1508216396.014,42.969,48.828,27.344,33.203,41.016,0
1508216396.018,38.574,40.527,24.902,38.086,50.781,0
1508216396.022,37.598,26.367,32.715,46.875,21.973,0
1508216396.026,39.062,19.043,34.668,41.504,28.809,0
1508216396.029,37.598,48.340,38.574,45.410,64.453,0
1508216396.033,32.227,51.270,46.387,51.758,79.102,0
1508216396.037,23.438,46.875,35.645,44.434,41.016,0
1508216396.041,20.020,54.688,29.785,46.875,-5.371,0
1508216396.045,24.902,61.523,32.715,41.016,39.551,0
1508216396.049,29.785,54.688,38.086,38.086,72.266,0
1508216396.053,33.691,39.062,37.598,42.969,31.738,0
1508216396.057,24.902,30.273,36.133,47.852,35.156,0
1508216396.061,19.531,20.996,42.480,43.945,48.340,0
1508216396.065,16.113,20.508,41.016,37.598,68.359,0
1508216396.068,14.160,41.504,38.574,41.504,85.449,0
1508216396.072,17.090,40.039,39.062,48.340,25.879,0
1508216396.076,18.066,29.785,35.645,53.711,18.066,0
1508216396.080,24.414,54.688,41.504,61.035,38.574,0
1508216396.084,20.996,33.203,42.480,48.828,-2.441,0
1508216396.088,14.160,18.555,33.203,31.738,18.066,0
1508216396.092,16.113,46.875,28.809,40.527,42.480,0
1508216396.096,30.762,45.898,35.645,48.340,16.602,0
1508216396.100,25.879,36.133,38.574,38.086,14.160,0
1508216396.104,24.414,22.949,31.250,41.016,26.367,0
1508216396.108,34.180,21.973,35.156,47.363,37.598,0
1508216396.111,32.227,26.367,36.621,39.551,46.387,0
1508216396.115,37.598,9.766,32.227,37.598,57.129,0
1508216396.119,43.945,18.066,35.156,39.062,63.965,0
1508216396.123,37.598,23.926,36.133,39.551,47.363,0
1508216396.127,26.367,29.297,39.062,41.992,32.227,0
1508216396.131,34.668,62.500,39.551,45.410,16.602,0
1508216396.135,46.387,75.195,38.086,44.922,29.297,0
1508216396.139,37.598,65.918,37.109,38.574,45.410,0
1508216396.143,33.691,44.922,36.133,37.109,21.484,0
1508216396.147,38.574,20.996,38.086,35.645,16.602,0
1508216396.151,31.738,28.320,43.457,40.527,28.320,0
1508216396.154,31.738,41.992,45.898,47.852,14.648,0
1508216396.158,33.203,43.457,46.387,45.410,31.738,0
1508216396.162,35.645,45.898,37.598,48.340,78.613,0
1508216396.166,38.086,17.090,31.738,47.852,83.496,0
1508216396.170,30.762,3.418,40.039,43.945,37.598,0
1508216396.174,24.414,46.387,44.434,35.156,4.883,0
1508216396.178,19.043,64.453,41.992,32.715,66.895,0
1508216396.182,28.320,60.547,47.852,47.363,90.332,0
1508216396.186,29.297,56.152,51.270,49.805,59.082,0
1508216396.190,14.648,34.668,40.527,32.715,38.574,0
1508216396.193,13.184,23.438,41.504,32.715,23.438,0
1508216396.197,17.090,29.297,40.527,41.992,40.039,0
1508216396.201,18.555,41.504,41.504,45.898,17.090,0
1508216396.205,16.602,38.574,50.293,46.875,-4.395,0
1508216396.209,18.066,14.648,47.852,39.551,16.602,0
1508216396.213,27.832,3.418,41.016,42.480,45.898,0
1508216396.217,22.949,14.160,36.133,40.527,26.367,0
1508216396.221,10.254,38.086,39.551,35.645,31.738,0
1508216396.225,12.695,44.922,43.457,44.434,52.246,0
1508216396.229,21.973,53.711,46.387,53.711,39.062,0
1508216396.233,14.160,55.664,43.457,49.316,31.738,0
1508216396.236,2.930,41.504,40.527,44.922,16.602,0
1508216396.240,7.324,40.527,38.574,47.852,-1.953,0
1508216396.244,14.160,39.062,37.109,41.992,28.809,0
1508216396.248,13.184,31.738,43.945,39.062,67.383,0
1508216396.252,16.602,37.598,46.875,46.387,41.504,0
1508216396.256,20.508,30.273,44.434,50.781,-12.207,0
1508216396.260,21.484,7.812,43.945,45.410,12.695,0
1508216396.264,26.367,21.484,40.527,41.504,44.922,0
1508216396.268,22.461,64.453,40.039,38.574,25.391,0
1508216396.272,19.531,76.660,43.457,38.574,25.879,0
1508216396.276,17.090,56.641,41.016,36.133,6.348,0
1508216396.279,20.508,57.617,38.086,39.551,0.977,0
1508216396.283,23.926,50.293,43.945,42.480,43.945,0
1508216396.287,18.555,38.574,44.434,32.715,38.086,0
1508216396.291,18.066,38.086,39.551,34.180,12.207,0
1508216396.295,20.020,39.551,36.621,40.527,16.602,0
1508216396.299,26.367,39.062,34.668,46.875,52.246,0
1508216396.303,29.297,35.156,34.668,46.875,58.105,0
1508216396.307,26.855,31.250,36.621,37.109,30.762,0
1508216396.311,30.273,32.227,35.156,36.621,22.461,0
1508216396.315,33.203,38.574,36.621,40.039,41.504,0
1508216396.318,28.320,34.668,42.969,41.016,30.762,0
1508216396.322,34.180,44.434,47.852,49.316,9.277,0
1508216396.326,37.598,46.387,46.875,56.152,22.461,0
1508216396.330,29.785,44.922,37.598,54.199,37.598,0
1508216396.334,30.762,47.852,37.598,46.387,9.277,0
1508216396.338,36.133,53.223,43.945,39.551,-4.883,0
1508216396.342,26.367,46.387,39.551,29.785,6.348,0
1508216396.346,15.625,36.133,39.551,32.227,33.203,0
1508216396.350,14.648,38.086,44.434,44.434,52.734,0
1508216396.354,10.742,33.691,40.527,43.945,32.715,0
1508216396.358,9.277,30.762,35.645,36.133,13.672,0
1508216396.361,15.625,34.668,36.133,37.109,23.926,0
1508216396.365,23.926,36.133,42.969,40.039,10.254,0
1508216396.369,24.414,43.945,43.945,41.992,-3.418,0
1508216396.373,16.602,42.969,39.062,41.016,14.160,0
1508216396.377,22.949,29.785,37.598,39.062,33.691,0
1508216396.381,33.691,22.461,35.156,43.457,22.949,0
1508216396.385,32.227,31.250,38.574,39.551,-10.742,0
1508216396.389,30.273,48.828,43.457,29.297,16.113,0
1508216396.393,35.156,50.293,36.133,29.297,51.758,0
1508216396.397,32.715,56.152,37.598,38.086,27.344,0
1508216396.401,26.367,54.688,37.598,39.551,-0.488,0
1508216396.404,31.738,49.316,37.598,44.922,-3.906,0
1508216396.408,30.273,58.105,41.504,44.434,24.414,0
1508216396.412,28.809,46.387,40.039,39.062,-3.906,0
1508216396.416,37.598,33.203,42.480,32.227,-12.695,0
1508216396.420,48.340,33.691,45.410,36.621,26.855,0
1508216396.424,46.875,36.621,45.898,49.316,8.789,0
1508216396.428,41.992,41.992,43.945,41.504,13.672,0
1508216396.432,50.781,66.895,47.852,43.457,52.246,0
1508216396.436,42.480,74.219,47.363,53.223,53.223,0
1508216396.440,23.926,52.734,41.504,47.852,37.598,0
1508216396.443,30.762,36.133,40.527,49.316,40.527,0
1508216396.447,36.621,34.180,38.086,45.410,55.176,0
1508216396.451,28.809,52.246,40.527,40.039,27.344,0
1508216396.455,35.645,65.918,42.969,46.875,-9.766,0
1508216396.459,31.250,47.363,44.922,45.410,12.207,0
1508216396.463,18.066,38.574,37.598,40.039,64.941,0
1508216396.467,20.508,40.527,36.133,39.551,30.762,0
1508216396.471,20.020,28.320,40.527,33.691,21.484,0
1508216396.475,23.438,14.160,37.109,31.250,32.715,0
1508216396.479,28.320,37.598,32.715,32.715,33.203,0
1508216396.483,34.180,60.059,33.691,40.527,56.152,0
1508216396.486,38.086,38.574,43.457,47.852,55.664,0
1508216396.490,40.527,54.199,50.781,51.758,17.090,0
1508216396.494,39.551,65.918,45.410,50.781,15.625,0
1508216396.498,30.762,55.176,38.574,55.176,43.945,0
1508216396.502,26.855,49.805,39.551,51.270,18.066,0
1508216396.506,36.621,31.250,37.598,37.109,-4.395,0
1508216396.510,38.574,27.344,41.504,35.645,16.602,0
1508216396.514,39.551,27.832,46.387,46.387,52.734,0
1508216396.518,42.480,29.785,38.574,47.852,32.227,0
1508216396.522,39.551,46.875,33.203,50.781,-6.836,0
1508216396.526,38.574,54.199,37.109,48.340,11.230,0
1508216396.529,39.551,42.480,42.480,48.828,14.160,0
1508216396.533,47.852,45.410,43.945,47.363,-3.906,0
1508216396.537,50.781,64.941,46.387,34.668,-1.953,0
1508216396.541,48.340,56.641,50.781,40.527,8.301,0
1508216396.545,33.691,37.109,38.086,38.086,13.672,0
1508216396.549,23.438,36.621,22.461,30.762,14.160,0
1508216396.553,20.996,31.738,26.855,30.273,0.000,0
1508216396.557,26.855,13.672,39.551,33.691,16.113,0
1508216396.561,28.809,23.438,43.945,36.133,15.137,0
1508216396.565,22.949,51.758,39.551,27.832,14.160,0
1508216396.568,23.438,36.133,36.133,26.367,22.461,0
1508216396.572,19.043,23.438,35.156,33.203,41.992,0
1508216396.576,20.020,30.762,33.691,39.062,36.133,0
1508216396.580,21.973,41.504,36.133,45.410,19.043,0
1508216396.584,16.113,48.828,36.133,43.457,40.039,0
1508216396.588,17.578,38.086,35.156,37.109,56.152,0
1508216396.592,19.043,36.133,40.039,40.527,55.664,0
1508216396.596,13.672,24.414,38.574,36.133,71.777,0
1508216396.600,16.113,4.883,31.250,28.809,92.773,0
1508216396.604,20.020,25.391,28.809,30.762,40.039,0
1508216396.608,14.648,42.480,28.320,35.156,-10.254,0
1508216396.611,12.207,40.039,30.273,39.551,-4.883,0
1508216396.615,16.602,39.551,28.809,36.621,53.711,0
1508216396.619,18.555,15.137,25.879,31.250,15.625,0
1508216396.623,21.973,-2.930,28.320,31.738,-19.531,0
1508216396.627,18.555,19.043,27.832,30.273,29.785,0
1508216396.631,20.020,42.480,29.785,34.180,13.184,0
1508216396.635,24.902,48.828,35.645,43.945,11.719,0
1508216396.639,30.273,48.828,28.320,39.551,40.039,0
1508216396.643,35.156,55.664,28.320,39.062,40.039,0
1508216396.647,37.109,49.805,41.992,53.223,55.664,0
1508216396.651,34.668,36.621,39.062,49.805,57.617,0
1508216396.654,31.738,26.367,34.668,43.945,14.160,0
1508216396.658,38.086,20.508,38.574,44.434,31.738,0
1508216396.662,40.527,29.785,41.504,41.504,53.223,0
1508216396.666,27.832,40.039,40.527,42.969,36.621,0
1508216396.670,18.555,44.922,35.156,38.574,43.945,0
1508216396.674,20.508,49.805,33.691,31.250,29.297,0
1508216396.678,25.879,43.457,33.203,28.320,18.066,0
1508216396.682,20.020,32.715,31.250,31.250,21.484,0
1508216396.686,6.348,33.203,36.133,37.598,12.695,0
1508216396.690,15.137,41.504,40.527,40.527,4.883,0
1508216396.693,31.738,55.664,42.480,41.016,0.000,0
1508216396.697,38.574,50.293,42.969,37.109,-4.883,0
1508216396.701,31.738,34.180,39.551,35.645,-16.602,0
1508216396.705,20.020,40.039,36.133,44.922,-10.742,0
1508216396.709,13.672,34.180,40.039,44.922,-4.395,0
1508216396.713,8.301,33.203,42.480,39.062,13.672,0
1508216396.717,12.695,43.457,40.039,30.273,19.043,0
1508216396.721,16.113,44.922,41.992,29.297,16.602,0
1508216396.725,11.230,41.504,42.969,30.762,-16.113,0
1508216396.729,-0.977,42.480,35.156,18.555,-4.395,0
1508216396.733,-3.418,48.828,32.715,3.418,22.461,0
1508216396.736,-1.465,52.246,30.273,-7.812,-6.836,0
1508216396.740,-1.953,49.805,31.738,-9.277,-18.555,0
1508216396.744,-22.949,49.316,29.785,-16.602,-16.113,0
1508216396.748,-42.480,43.457,27.344,-31.250,3.906,0
1508216396.752,-44.434,42.969,26.855,-41.016,-0.977,0
1508216396.756,-52.734,57.129,22.461,-45.898,-7.324,0
1508216396.760,-58.594,58.105,24.414,-56.641,21.484,0
1508216396.764,-71.289,50.293,23.926,-68.359,28.809,0
1508216396.768,-85.449,30.762,19.043,-78.125,8.789,0
1508216396.772,-90.820,39.062,22.461,-80.078,17.090,0
1508216396.776,-88.867,58.105,20.996,-86.914,12.207,0
1508216396.779,-86.426,26.367,14.160,-84.961,-3.418,0
1508216396.783,-93.262,36.133,18.555,-83.496,22.461,0
1508216396.787,-102.051,68.359,25.391,-94.238,-7.812,0
1508216396.791,-89.844,73.730,28.320,-87.891,-33.691,0
1508216396.795,-79.590,62.988,27.832,-77.637,-5.859,0
1508216396.799,-84.473,32.227,28.320,-83.496,12.207,0
1508216396.803,-85.449,19.043,30.762,-79.590,5.859,0
1508216396.807,-82.520,52.246,27.832,-72.754,1.465,0
1508216396.811,-72.754,62.012,38.086,-66.895,17.578,0
1508216396.815,-59.082,14.648,44.434,-57.617,39.062,0
1508216396.818,-55.176,11.719,34.180,-55.664,41.016,0
1508216396.822,-53.223,44.434,34.668,-42.480,23.438,0
1508216396.826,-43.457,36.621,41.016,-30.762,45.898,0
1508216396.830,-29.297,10.742,37.598,-21.973,50.293,0
1508216396.834,-20.508,25.391,38.574,-15.625,-17.090,0
1508216396.838,-18.066,36.621,42.480,-7.812,-9.277,0
1508216396.842,-1.465,18.555,51.270,10.742,16.113,0
1508216396.846,6.836,20.020,48.340,18.066,23.926,0
1508216396.850,-3.906,8.789,39.551,20.508,28.809,0
1508216396.854,8.301,-16.113,48.828,34.180,26.855,0
1508216396.858,15.625,-9.277,53.711,39.551,26.367,0
1508216396.861,17.090,21.484,54.199,35.645,18.555,0
1508216396.865,35.645,36.133,48.340,42.969,27.832,0
1508216396.869,44.434,44.922,44.434,49.805,42.480,0
1508216396.873,42.969,44.922,49.805,57.129,63.477,0
1508216396.877,59.570,35.156,50.293,73.730,46.875,0
1508216396.881,70.312,35.156,49.805,87.402,16.113,0
1508216396.885,66.406,21.484,56.152,89.844,35.156,0
1508216396.889,62.012,7.812,50.781,81.543,19.531,0
1508216396.893,66.406,16.113,42.480,76.660,-8.301,0
1508216396.897,74.707,21.973,46.387,75.684,16.602,0
1508216396.901,78.125,21.484,47.852,86.426,31.250,0
1508216396.904,73.242,4.883,46.387,96.680,0.488,0
1508216396.908,74.707,-6.348,47.363,92.773,-12.695,0
1508216396.912,77.637,14.648,49.805,93.262,20.020,0
1508216396.916,68.359,36.133,43.945,93.262,44.922,0
1508216396.920,59.570,42.969,40.527,86.914,10.742,0
1508216396.924,71.777,42.480,41.504,84.473,-11.230,0
1508216396.928,84.473,30.273,45.898,87.402,40.527,0
1508216396.932,73.242,21.973,42.969,83.984,39.062,0
1508216396.936,68.359,35.645,36.133,74.707,6.348,0
1508216396.940,63.965,21.484,45.410,77.148,23.926,0
1508216396.943,64.453,11.230,49.316,84.961,57.129,0
1508216396.947,83.008,16.602,47.852,90.820,58.105,0
1508216396.951,76.660,29.785,44.922,86.426,31.250,0
1508216396.955,62.500,38.086,43.457,78.613,33.203,0
1508216396.959,65.430,27.832,43.945,76.660,54.199,0
1508216396.963,63.477,36.621,43.457,81.543,64.453,0
1508216396.967,62.988,53.223,46.387,79.102,35.156,0
1508216396.971,59.570,46.875,41.016,68.359,6.348,0
1508216396.975,54.199,34.668,33.691,64.941,43.945,0
1508216396.979,64.941,1.953,42.969,77.148,51.270,0
1508216396.983,67.383,-5.371,48.828,82.031,12.695,0
1508216396.986,56.641,50.293,33.203,68.848,11.719,0
1508216396.990,52.734,49.805,36.621,57.129,41.992,0
1508216396.994,51.270,10.254,43.945,57.129,27.344,0
1508216396.998,56.152,34.668,48.828,66.895,-3.906,0
1508216397.002,49.316,57.129,52.246,71.289,19.043,0
1508216397.006,36.133,48.828,45.410,61.035,20.020,0
1508216397.010,43.945,44.922,42.969,56.152,18.066,0
1508216397.014,40.527,36.621,43.457,58.105,28.320,0
1508216397.018,41.992,24.902,42.480,61.035,27.832,0
1508216397.022,51.758,2.441,44.434,68.359,24.414,0
1508216397.026,47.363,19.043,44.434,62.988,-4.883,0
1508216397.029,40.039,32.227,40.527,55.176,1.465,0
1508216397.033,36.621,21.973,38.086,53.711,40.039,0
1508216397.037,40.039,27.344,41.504,62.012,36.621,0
1508216397.041,49.316,46.387,53.711,73.730,7.324,0
1508216397.045,51.758,45.898,47.363,76.172,28.320,0
1508216397.049,39.062,23.438,38.574,66.406,62.500,0
1508216397.053,45.898,35.156,39.062,61.035,45.898,0
1508216397.057,52.734,43.945,37.109,60.547,3.418,0
1508216397.061,45.898,26.855,42.480,60.059,16.602,0
1508216397.065,47.852,15.625,48.340,62.988,18.555,0
1508216397.068,50.781,24.414,47.852,63.477,3.418,0
1508216397.072,50.781,42.480,45.410,63.965,0.488,0
1508216397.076,53.711,23.926,43.457,65.918,20.508,0
1508216397.080,58.594,30.273,43.457,70.312,51.270,0
1508216397.084,58.594,55.176,45.898,74.219,47.852,0
1508216397.088,51.270,31.250,39.062,64.453,23.438,0
1508216397.092,47.852,27.344,37.109,59.570,41.016,0
1508216397.096,47.852,39.062,38.574,55.664,64.941,0
1508216397.100,41.504,53.711,42.480,57.129,55.664,0
1508216397.104,41.504,56.641,44.434,58.105,54.688,0
1508216397.108,46.387,38.574,36.621,56.152,41.016,0
1508216397.111,46.875,41.016,37.598,57.129,41.504,0
1508216397.115,48.340,42.480,50.781,58.594,43.457,0
1508216397.119,46.387,22.461,45.410,61.035,11.230,0
1508216397.123,46.387,35.156,39.062,61.523,5.859,0
1508216397.127,50.293,41.992,43.945,64.453,38.086,0
1508216397.131,43.945,20.508,40.039,60.059,47.363,0
1508216397.135,41.992,15.625,41.992,54.199,19.531,0
1508216397.139,41.016,33.203,45.410,52.734,-10.742,0
1508216397.143,32.227,50.781,47.852,51.758,11.719,0
1508216397.147,39.062,62.988,47.852,49.805,31.738,0
1508216397.151,40.039,58.105,44.434,46.387,23.438,0
1508216397.154,32.715,45.898,41.016,43.457,20.996,0
1508216397.158,39.551,43.457,41.992,47.852,21.484,0
1508216397.162,43.945,42.480,47.363,45.410,11.719,0
1508216397.166,39.551,33.691,50.781,48.828,34.668,0
1508216397.170,38.086,35.645,54.199,57.617,82.031,0
1508216397.174,36.621,29.297,50.781,52.246,20.996,0
1508216397.178,42.969,13.184,48.828,55.176,-26.855,0
1508216397.182,45.410,23.438,52.734,62.012,26.367,0
1508216397.186,41.016,30.762,45.410,45.898,44.922,0
1508216397.190,39.551,39.551,40.039,43.457,28.320,0
1508216397.193,34.668,51.758,40.039,48.340,26.855,0
1508216397.197,29.297,59.570,42.969,43.457,30.273,0
1508216397.201,28.809,56.641,37.598,41.992,33.691,0
1508216397.205,33.691,40.039,40.039,41.016,43.945,0
1508216397.209,30.762,30.762,49.805,40.527,17.090,0
1508216397.213,20.020,37.598,41.504,37.598,13.184,0
1508216397.217,16.113,43.457,37.598,34.668,53.223,0
1508216397.221,19.531,35.156,46.875,34.668,39.551,0
1508216397.225,23.926,45.410,53.223,34.668,-3.418,0
1508216397.229,29.297,12.207,50.293,40.039,14.160,0
1508216397.233,23.438,2.441,41.016,38.574,51.758,0
1508216397.236,16.602,40.527,45.410,44.434,16.602,0
1508216397.240,17.090,46.875,48.828,42.969,5.859,0
1508216397.244,20.020,58.594,42.480,29.297,28.320,0
1508216397.248,30.762,52.734,57.129,41.992,41.504,0
1508216397.252,37.598,38.574,58.105,54.199,22.949,0
1508216397.256,36.621,37.109,37.598,41.016,-25.391,0
1508216397.260,29.297,40.527,31.738,31.250,2.930,0
1508216397.264,29.297,27.832,39.551,38.574,47.852,0
1508216397.268,35.156,26.367,42.480,44.922,14.160,0
1508216397.272,32.715,29.785,40.527,45.898,-23.438,0
1508216397.276,27.832,30.273,40.039,41.992,13.184,0
1508216397.279,36.621,47.852,35.645,35.645,35.645,0
1508216397.283,43.945,62.988,43.457,41.992,35.645,0
1508216397.287,34.668,42.480,43.945,43.457,34.668,0
1508216397.291,40.039,35.156,44.922,46.387,18.066,0
1508216397.295,48.828,53.711,44.434,56.152,-11.230,0
1508216397.299,44.922,50.293,33.691,53.223,-35.645,0
1508216397.303,46.387,42.480,27.832,43.945,-2.441,0
1508216397.307,45.410,47.363,27.832,40.039,41.504,0
1508216397.311,38.574,49.805,34.668,38.086,27.344,0
1508216397.315,37.598,55.176,39.062,40.527,26.855,0
1508216397.318,39.551,39.062,39.062,50.293,36.133,0
1508216397.322,30.273,34.180,42.480,50.293,39.551,0
1508216397.326,30.273,50.293,47.363,37.598,16.113,0
1508216397.330,23.438,47.852,39.551,28.320,11.230,0
1508216397.334,24.902,41.016,38.086,33.203,42.969,0
1508216397.338,34.668,35.156,41.504,39.551,26.855,0
1508216397.342,26.367,35.645,41.016,33.691,31.738,0
1508216397.346,21.484,49.805,41.504,33.203,49.316,0
1508216397.350,18.066,48.828,41.016,30.762,51.270,0
1508216397.354,17.090,32.715,41.992,29.297,42.969,0
1508216397.358,20.020,49.316,43.457,36.621,1.465,0
1508216397.361,20.508,41.016,41.016,34.668,-18.555,0
1508216397.365,20.508,39.551,38.086,34.180,12.207,0
1508216397.369,21.973,50.293,38.574,35.156,22.461,0
1508216397.373,22.949,41.016,41.504,33.691,3.906,0
1508216397.377,28.320,33.691,41.504,34.668,31.250,0
1508216397.381,34.668,35.156,44.922,43.945,49.316,0
1508216397.385,38.574,29.785,51.270,50.781,27.344,0
1508216397.389,45.410,29.297,43.457,55.664,12.207,0
1508216397.393,31.738,37.598,21.484,49.805,13.184,0
1508216397.397,17.578,31.738,24.902,39.551,15.137,0
1508216397.401,24.902,42.480,34.180,44.434,4.883,0
1508216397.404,39.062,52.734,30.273,46.387,-24.902,0
1508216397.408,44.922,52.734,37.109,49.316,-31.250,0
1508216397.412,46.875,52.734,41.016,47.852,2.441,0
1508216397.416,44.434,40.527,39.551,43.457,26.855,0
1508216397.420,30.273,32.715,41.016,50.293,30.762,0
1508216397.424,30.273,36.621,39.062,53.711,46.875,0
1508216397.428,39.062,38.574,41.016,50.781,53.711,0
1508216397.432,34.180,41.504,38.574,42.480,28.320,0
1508216397.436,34.180,48.340,41.992,47.363,17.090,0
1508216397.440,34.668,44.922,43.457,60.059,20.508,0
1508216397.443,27.344,40.527,33.203,51.270,14.160,0
1508216397.447,24.414,19.531,40.527,51.270,0.488,0
1508216397.451,27.344,17.578,48.340,57.129,3.418,0
1508216397.455,36.621,34.668,46.387,47.852,15.137,0
1508216397.459,33.203,50.781,45.898,39.062,12.695,0
1508216397.463,21.973,55.664,44.922,37.109,9.766,0
1508216397.467,19.531,43.945,45.410,38.574,21.484,0
1508216397.471,18.555,45.898,44.434,31.250,15.625,0
1508216397.475,29.785,44.434,44.922,33.203,11.719,0
1508216397.479,30.273,44.922,42.969,42.480,15.625,0
1508216397.483,32.715,43.457,40.527,49.805,40.527,0
1508216397.486,44.434,38.574,45.898,51.758,52.734,0
1508216397.490,35.156,44.434,44.922,44.434,20.508,0
1508216397.494,35.156,27.832,43.457,40.527,-3.906,0
1508216397.498,30.762,26.367,43.457,42.969,24.414,0
1508216397.502,29.785,51.270,43.457,40.527,53.223,0
1508216397.506,39.062,63.965,41.504,34.180,24.414,0
1508216397.510,40.527,58.594,41.504,40.039,22.461,0
1508216397.514,38.574,36.621,40.039,42.969,44.922,0
1508216397.518,46.875,46.875,39.551,44.922,55.664,0
1508216397.522,50.293,61.523,38.086,36.133,47.852,0
1508216397.526,40.039,35.156,38.086,32.715,43.457,0
1508216397.529,42.969,40.039,50.781,45.410,57.129,0
1508216397.533,39.551,56.641,46.387,49.805,36.133,0
1508216397.537,36.621,39.062,41.992,45.410,-24.902,0
1508216397.541,47.363,28.809,48.340,44.434,4.883,0
1508216397.545,38.086,42.969,44.922,47.852,57.617,0
1508216397.549,23.438,53.223,40.039,46.875,43.457,0
1508216397.553,27.832,48.828,37.109,48.340,25.879,0
1508216397.557,35.156,40.039,41.992,52.734,33.203,0
1508216397.561,36.621,32.227,48.340,50.293,65.918,0
1508216397.565,29.297,41.016,46.875,45.898,85.938,0
1508216397.568,23.926,43.457,47.852,48.828,46.875,0
1508216397.572,23.926,34.180,44.434,45.410,15.137,0
1508216397.576,20.508,50.293,43.457,37.109,25.391,0
1508216397.580,20.996,51.270,51.270,37.598,21.973,0
1508216397.584,13.184,28.320,48.340,40.039,31.250,0
1508216397.588,12.207,18.555,49.316,44.922,73.242,0
1508216397.592,26.855,15.137,56.641,51.270,62.988,0
1508216397.596,19.531,11.719,50.293,51.758,54.688,0
1508216397.600,9.277,26.367,40.527,48.828,60.547,0
1508216397.604,17.090,55.664,38.574,50.781,30.762,0
1508216397.608,22.949,52.734,43.457,46.387,5.371,0
1508216397.611,22.949,43.457,45.898,34.180,16.113,0
1508216397.615,31.738,38.574,47.852,40.039,20.508,0
1508216397.619,34.668,25.391,52.246,45.410,27.832,0
1508216397.623,36.621,55.664,51.758,47.363,11.230,0
1508216397.627,39.551,60.547,46.875,49.316,-26.855,0
1508216397.631,32.715,41.992,31.738,40.527,-27.832,0
1508216397.635,28.809,41.992,26.367,31.738,20.020,0
1508216397.639,23.926,41.016,40.527,34.668,13.672,0
1508216397.643,25.391,33.691,43.945,38.086,1.465,0
1508216397.647,28.809,27.344,45.898,41.504,28.320,0
1508216397.651,24.902,29.297,47.363,38.574,50.781,0
1508216397.654,30.273,38.574,40.527,33.203,41.504,0
1508216397.658,41.504,52.734,43.945,41.504,14.160,0
1508216397.662,37.598,48.340,46.875,40.527,23.438,0
1508216397.666,35.156,53.223,48.340,46.875,41.504,0
1508216397.670,33.691,45.410,43.945,52.246,-1.953,0
1508216397.674,27.344,20.996,37.109,39.062,-27.344,0
1508216397.678,22.461,25.879,31.250,35.645,1.465,0
1508216397.682,18.066,39.062,31.738,38.086,34.180,0
1508216397.686,21.973,44.922,36.133,40.527,21.484,0
1508216397.690,40.039,51.758,32.715,52.734,-0.977,0
1508216397.693,39.551,44.434,38.086,56.641,34.668,0
1508216397.697,21.484,43.945,52.734,46.875,37.598,0
1508216397.701,19.531,31.738,56.152,47.852,31.738,0
1508216397.705,22.461,10.254,53.223,49.316,22.949,0
1508216397.709,25.879,34.180,47.852,50.293,16.113,0
1508216397.713,25.391,45.898,46.387,52.734,25.879,0
1508216397.717,20.508,24.414,45.898,45.410,-8.301,0
1508216397.721,21.484,34.180,49.316,43.945,-2.441,0
1508216397.725,27.344,45.410,58.594,49.805,18.066,0
1508216397.729,29.785,18.555,46.875,43.457,12.207,0
1508216397.733,23.438,27.832,38.086,35.645,-8.789,0
1508216397.736,20.996,47.363,40.527,36.621,-18.066,0
1508216397.740,23.438,47.852,41.992,40.527,-13.672,0
1508216397.744,25.391,57.129,41.016,39.062,-19.531,0
1508216397.748,31.250,46.387,30.762,35.156,12.207,0
1508216397.752,36.621,32.715,29.785,36.621,3.418,0
1508216397.756,35.156,28.320,37.598,35.156,9.277,0
1508216397.760,31.250,31.738,42.480,41.992,44.922,0
1508216397.764,31.250,40.039,38.574,44.434,37.109,0
1508216397.768,23.438,33.203,35.645,42.480,45.898,0
1508216397.772,29.785,39.062,47.852,45.410,28.809,0
1508216397.776,40.039,42.969,50.293,44.922,-12.695,0
1508216397.779,30.273,25.879,43.945,35.156,-24.902,0
1508216397.783,26.367,34.180,34.668,31.738,13.184,0
1508216397.787,25.879,51.758,31.250,43.457,38.086,0
1508216397.791,20.020,46.387,40.527,41.992,6.836,0
1508216397.795,18.555,51.270,41.504,38.574,6.836,0
1508216397.799,21.973,53.711,39.062,39.062,24.414,0
1508216397.803,16.602,46.875,39.062,31.738,33.691,0
1508216397.807,22.949,37.109,40.039,38.086,27.344,0
1508216397.811,30.762,25.879,31.250,41.992,18.066,0
1508216397.815,21.484,24.902,29.297,39.062,27.344,0
1508216397.818,16.602,34.180,38.086,40.527,15.137,0
1508216397.822,18.066,43.945,39.551,44.434,-24.902,0
1508216397.826,15.625,50.293,37.109,27.344,-14.648,0
1508216397.830,18.555,48.828,38.086,17.090,30.762,0
1508216397.834,16.113,27.832,37.109,21.484,6.836,0
1508216397.838,14.160,28.809,38.574,21.973,2.930,0
1508216397.842,20.020,32.715,45.898,26.367,28.320,0
1508216397.846,23.926,30.273,41.504,25.879,34.180,0
1508216397.850,22.949,38.086,33.691,23.438,32.227,0
1508216397.854,20.020,38.086,31.250,23.438,23.438,0
1508216397.858,24.414,47.363,34.180,33.203,7.812,0
1508216397.861,25.879,53.711,30.273,37.109,20.996,0
1508216397.865,24.414,47.852,36.133,42.480,32.227,0
1508216397.869,25.879,43.945,43.457,41.504,-2.930,0
1508216397.873,26.367,39.551,43.457,41.016,5.859,0
1508216397.877,22.461,38.086,41.016,41.016,26.855,0
1508216397.881,20.508,38.574,24.902,31.738,45.410,0
1508216397.885,28.809,51.270,28.320,26.855,41.504,0
1508216397.889,33.691,42.480,45.410,33.203,9.277,0
1508216397.893,28.320,10.254,44.434,35.156,-2.930,0
1508216397.897,27.832,33.691,39.062,32.715,20.996,0
1508216397.901,23.438,47.852,34.180,28.320,40.039,0
1508216397.904,24.414,21.484,40.527,30.273,14.648,0
1508216397.908,33.691,36.133,46.875,34.668,6.348,0
1508216397.912,37.598,41.016,40.527,35.645,-6.348,0
1508216397.916,41.504,41.016,39.551,44.434,8.789,0
1508216397.920,36.133,45.898,45.410,50.781,41.992,0
1508216397.924,21.973,38.574,39.551,48.340,-6.836,0
1508216397.928,20.508,38.574,30.762,49.805,-7.812,0
1508216397.932,22.461,31.738,28.320,45.898,47.363,0
1508216397.936,25.879,27.832,39.062,45.898,51.270,0
1508216397.940,27.344,19.043,41.992,43.945,20.020,0
1508216397.943,27.344,13.672,35.156,29.785,15.137,0
1508216397.947,17.090,36.621,31.738,24.414,35.156,0
1508216397.951,14.160,37.598,35.156,30.273,38.086,0
1508216397.955,24.902,30.273,41.504,34.668,-0.977,0
1508216397.959,24.414,41.016,48.828,32.227,-12.695,0
1508216397.963,19.531,39.062,45.410,33.691,28.809,0
1508216397.967,21.484,44.922,37.598,40.527,28.809,0
1508216397.971,21.973,40.039,43.457,41.016,15.137,0
1508216397.975,16.113,20.996,39.551,29.297,29.297,0
1508216397.979,16.113,31.738,36.133,30.273,40.527,0
1508216397.983,22.949,40.527,35.156,32.715,14.648,0
1508216397.986,29.785,30.762,39.062,34.668,9.277,0
1508216397.990,20.996,25.879,46.875,32.715,34.668,0
1508216397.994,6.836,15.137,50.293,17.578,14.648,0
1508216397.998,-0.977,5.371,48.340,18.066,15.625,0
1508216398.002,0.000,18.066,36.621,18.555,49.316,0
1508216398.006,-5.859,25.391,40.039,20.996,27.832,0
1508216398.010,-11.230,29.785,45.898,27.344,28.809,0
1508216398.014,-8.301,29.785,44.922,20.996,40.039,0
1508216398.018,-1.465,20.508,56.641,10.254,23.926,0
1508216398.022,-2.930,6.348,54.199,10.254,4.395,0
1508216398.026,-16.602,5.371,50.781,13.672,-0.977,0
1508216398.029,-9.277,14.160,55.176,14.648,10.254,0
1508216398.033,2.930,14.160,52.246,19.531,-0.977,0
1508216398.037,11.230,16.113,52.246,23.438,8.301,0
1508216398.041,17.090,13.184,56.152,23.438,24.414,0
1508216398.045,24.414,-0.488,59.570,34.180,2.441,0
1508216398.049,22.461,6.836,53.711,41.504,0.977,0
1508216398.053,18.555,27.344,47.852,32.227,26.855,0
1508216398.057,20.508,35.156,50.781,29.297,34.668,0
1508216398.061,13.672,35.156,52.246,26.367,22.949,0
1508216398.065,6.348,29.297,53.711,22.949,31.250,0
1508216398.068,14.160,32.227,59.570,29.785,41.504,0
1508216398.072,20.508,34.180,55.664,33.203,32.227,0
1508216398.076,18.555,16.602,48.828,30.273,42.969,0
1508216398.080,17.578,16.602,47.363,39.062,57.617,0
1508216398.084,22.949,21.484,49.316,32.227,25.879,0
1508216398.088,31.738,22.461,48.340,23.438,13.184,0
1508216398.092,29.785,28.320,47.852,24.414,0.977,0
1508216398.096,27.344,25.879,48.340,25.391,1.465,0
1508216398.100,26.855,28.809,50.293,30.273,22.949,0
1508216398.104,25.391,31.250,57.617,23.438,2.930,0
1508216398.108,21.484,24.902,61.523,26.367,-44.434,0
1508216398.111,13.184,20.508,55.664,30.762,-11.719,0
1508216398.115,8.301,23.438,54.688,31.738,48.340,0
1508216398.119,20.020,22.461,62.500,41.504,24.902,0
1508216398.123,29.785,24.414,66.895,37.109,-11.230,0
1508216398.127,24.414,31.738,62.012,26.855,20.996,0
1508216398.131,22.461,24.414,47.852,30.273,43.457,0
1508216398.135,30.273,24.902,47.852,45.410,27.832,0
1508216398.139,30.273,32.227,51.270,40.039,-1.953,0
1508216398.143,31.250,32.715,46.875,31.250,-5.371,0
1508216398.147,34.180,33.691,45.410,30.273,47.363,0
1508216398.151,39.551,34.668,49.805,36.621,34.180,0
1508216398.154,45.410,25.879,49.316,42.480,30.273,0
1508216398.158,38.086,21.484,48.340,39.062,39.551,0
1508216398.162,39.551,29.297,52.734,44.922,39.551,0
1508216398.166,41.016,46.387,44.922,48.340,50.293,0
1508216398.170,41.504,42.969,40.527,35.156,0.977,0
1508216398.174,47.363,47.363,48.340,29.297,2.441,0
1508216398.178,43.945,56.152,47.852,36.621,53.711,0
1508216398.182,39.551,56.152,42.480,30.762,30.762,0
1508216398.186,41.992,36.133,36.133,23.926,-13.184,0
1508216398.190,42.480,6.836,43.945,29.785,-13.672,0
1508216398.193,47.852,29.297,41.992,37.109,21.484,0
1508216398.197,53.711,55.664,37.109,47.852,59.082,0
1508216398.201,46.875,48.340,45.410,48.828,43.457,0
1508216398.205,41.016,36.133,42.480,38.086,41.992,0
1508216398.209,40.039,40.527,41.016,34.180,36.621,0
1508216398.213,39.062,46.387,47.363,38.574,45.898,0
1508216398.217,41.992,39.551,48.828,43.457,69.336,0
1508216398.221,36.133,26.855,47.363,46.387,46.387,0
1508216398.225,27.832,31.738,46.875,39.062,33.203,0
1508216398.229,31.738,41.992,47.363,33.691,41.992,0
1508216398.233,27.344,43.457,51.270,35.156,56.641,0
1508216398.236,17.578,20.020,52.246,38.574,42.969,0
1508216398.240,13.184,20.020,51.270,41.992,20.508,0
1508216398.244,9.766,48.828,48.828,40.039,12.207,0
1508216398.248,12.695,50.781,43.457,41.504,28.320,0
1508216398.252,16.602,30.273,48.828,42.480,23.926,0
1508216398.256,21.484,14.160,52.734,42.969,17.090,0
1508216398.260,27.344,38.574,52.734,40.039,10.742,0
1508216398.264,22.949,53.223,53.223,30.273,25.879,0
1508216398.268,12.207,34.668,51.270,14.648,52.734,0
1508216398.272,16.113,28.809,50.781,18.066,32.715,0
1508216398.276,22.949,40.527,45.898,28.809,13.184,0
1508216398.279,16.602,35.156,41.992,24.414,18.555,0
1508216398.283,16.113,34.180,49.805,22.949,33.691,0
1508216398.287,20.020,47.852,54.688,29.785,24.414,0
1508216398.291,16.113,44.434,41.992,19.531,-5.859,0
1508216398.295,8.301,36.133,39.062,8.789,69.336,0
1508216398.299,1.953,33.691,42.480,5.859,82.031,0
1508216398.303,-1.953,44.922,39.062,3.906,26.367,0
1508216398.307,-9.766,43.457,41.016,-2.441,34.180,0
1508216398.311,-14.648,45.898,41.016,-10.254,39.551,0
1508216398.315,-21.484,56.641,29.297,-19.043,31.738,0
1508216398.318,-37.598,56.641,22.461,-31.250,27.832,0
1508216398.322,-48.340,67.871,18.066,-44.434,29.785,0
1508216398.326,-51.270,74.707,11.230,-46.875,27.832,0
1508216398.330,-57.617,63.477,11.719,-48.340,10.254,0
1508216398.334,-72.266,48.828,12.207,-64.941,21.973,0
1508216398.338,-77.148,49.805,11.719,-75.195,39.551,0
1508216398.342,-84.961,59.570,11.719,-78.613,24.414,0
1508216398.346,-98.633,62.500,14.648,-85.449,38.574,0
1508216398.350,-95.703,70.801,7.324,-92.773,47.363,0
1508216398.354,-91.797,87.891,-5.371,-97.656,36.621,0
1508216398.358,-97.168,96.191,-9.766,-98.633,40.527,0
1508216398.361,-107.422,80.078,-6.836,-90.332,17.090,0
1508216398.365,-110.352,51.758,3.906,-85.938,4.883,0
1508216398.369,-94.727,55.176,3.906,-82.031,30.273,0
1508216398.373,-77.148,50.293,6.836,-82.031,44.434,0
1508216398.377,-76.172,46.387,16.602,-80.078,15.137,0
1508216398.381,-77.148,69.336,14.648,-70.801,31.738,0
1508216398.385,-64.941,56.152,10.254,-62.988,46.387,0
1508216398.389,-56.641,62.500,11.230,-48.340,19.531,0
1508216398.393,-55.664,76.172,5.859,-46.387,25.879,0
1508216398.397,-46.875,47.852,6.836,-41.016,33.691,0
1508216398.401,-33.203,25.391,18.555,-22.461,15.625,0
1508216398.404,-23.438,39.062,23.926,-13.184,0.000,0
1508216398.408,-9.277,43.457,20.996,-5.371,3.418,0
1508216398.412,-9.766,23.926,21.484,-0.488,17.578,0
1508216398.416,-6.836,3.418,22.949,8.301,35.156,0
1508216398.420,20.508,17.578,24.414,26.367,8.301,0
1508216398.424,39.062,62.500,22.461,33.691,-12.695,0
1508216398.428,49.316,70.801,23.438,44.922,9.277,0
1508216398.432,54.688,64.941,35.645,50.293,38.086,0
1508216398.436,51.758,36.621,40.527,44.434,31.250,0
1508216398.440,48.340,16.113,43.457,52.734,7.812,0
1508216398.443,53.711,19.531,43.945,63.965,34.180,0
1508216398.447,70.801,17.578,32.227,69.824,44.922,0
1508216398.451,80.566,18.066,32.715,74.707,32.715,0
1508216398.455,76.172,20.508,45.410,72.266,21.484,0
1508216398.459,70.801,12.207,44.434,69.336,29.297,0
1508216398.463,63.477,10.254,37.109,64.941,32.715,0
1508216398.467,64.453,24.414,41.016,72.266,32.715,0
1508216398.471,65.918,34.668,47.363,82.031,29.785,0
1508216398.475,67.383,41.016,44.922,84.961,33.203,0
1508216398.479,73.730,24.414,34.668,85.449,64.453,0
1508216398.483,75.195,9.766,25.391,86.426,13.672,0
1508216398.486,79.102,27.832,41.016,96.680,-6.348,0
1508216398.490,76.660,20.020,53.223,92.285,45.898,0
1508216398.494,76.172,-15.137,52.734,79.590,26.855,0
1508216398.498,78.125,-11.230,50.293,71.777,38.086,0
1508216398.502,84.473,31.738,47.363,86.426,66.406,0
1508216398.506,86.426,31.250,48.340,97.656,25.391,0
1508216398.510,88.867,22.461,54.688,96.680,15.137,0
1508216398.514,94.238,19.043,63.477,96.680,36.133,0
1508216398.518,82.520,16.602,51.270,75.195,15.137,0
1508216398.522,79.590,34.668,42.480,67.871,2.441,0
1508216398.526,83.008,37.598,52.734,78.125,21.484,0
1508216398.529,81.055,10.254,56.641,85.449,15.137,0
1508216398.533,84.961,-2.930,50.781,87.891,11.230,0
1508216398.537,80.566,-0.488,49.316,80.566,14.648,0
1508216398.541,73.242,7.324,51.270,80.078,1.953,0
1508216398.545,75.684,20.508,50.781,80.078,13.184,0
1508216398.549,72.754,23.438,59.570,75.684,37.598,0
1508216398.553,71.777,27.344,58.105,81.543,43.945,0
1508216398.557,64.453,18.066,47.852,74.707,18.066,0
1508216398.561,57.617,30.273,49.316,63.965,21.973,0
1508216398.565,57.617,38.086,49.805,62.988,37.109,0
1508216398.568,59.570,11.230,44.434,63.965,44.434,0
1508216398.572,57.617,19.043,41.992,59.082,18.555,0
1508216398.576,50.781,-0.488,41.504,56.152,12.695,0
1508216398.580,43.945,-21.973,30.762,53.223,44.922,0
1508216398.584,41.016,34.668,34.180,57.617,21.973,0
1508216398.588,46.387,58.594,49.316,66.406,-4.395,0
1508216398.592,41.504,38.086,40.527,52.734,23.438,0
1508216398.596,31.738,23.926,37.598,46.387,42.969,0
1508216398.600,26.367,18.066,42.969,48.340,33.691,0
1508216398.604,33.203,29.297,44.922,53.223,24.414,0
1508216398.608,32.227,26.855,36.133,55.664,13.184,0
1508216398.611,29.785,33.691,28.809,50.293,35.156,0
1508216398.615,34.180,37.598,40.527,43.945,37.109,0
1508216398.619,33.203,5.859,41.016,33.203,0.488,0
1508216398.623,24.902,-3.906,27.832,35.156,12.695,0
1508216398.627,26.367,11.719,33.203,48.828,41.992,0
1508216398.631,19.531,25.391,35.156,47.363,16.113,0
