timestamps,TP9,AF7,AF8,TP10,Right AUX,Marker0
1508319878.440,3.418,31.250,30.762,42.480,59.082,0
1508319878.444,10.254,31.738,34.180,43.945,26.855,0
1508319878.448,3.418,30.273,33.691,43.945,24.414,0
1508319878.452,2.930,38.086,36.133,38.086,73.730,0
1508319878.456,15.137,41.016,32.227,38.086,90.820,0
1508319878.460,24.414,41.504,34.668,43.457,31.738,0
1508319878.464,23.926,37.598,38.574,38.574,-0.488,0
1508319878.468,23.438,35.645,34.668,37.598,38.574,0
1508319878.472,27.832,41.992,30.273,40.039,53.711,0
1508319878.476,31.738,45.410,28.809,40.039,22.461,0
1508319878.479,28.809,42.969,33.691,45.410,10.742,0
1508319878.483,32.227,37.109,37.598,47.363,15.625,0
1508319878.487,31.738,34.180,36.621,40.039,40.527,0
1508319878.491,26.367,36.621,34.180,38.574,79.102,0
1508319878.495,25.879,46.387,34.668,47.852,20.508,0
1508319878.499,25.391,43.945,29.785,42.480,-16.602,0
1508319878.503,28.809,29.297,25.391,33.203,20.020,0
1508319878.507,31.738,34.180,29.785,36.133,41.504,0
1508319878.511,40.039,43.457,39.062,47.852,33.691,0
1508319878.515,34.668,49.316,35.645,52.246,-10.254,0
1508319878.519,30.273,51.270,26.367,50.781,15.137,0
1508319878.522,38.574,41.504,38.574,41.992,109.375,0
1508319878.526,38.574,45.898,50.293,30.273,62.500,0
1508319878.530,27.832,42.969,52.246,30.273,-3.418,0
1508319878.534,22.949,34.668,50.293,29.297,27.344,0
1508319878.538,27.344,37.109,49.316,30.273,54.199,0
1508319878.542,27.344,37.109,45.410,39.551,38.086,0
1508319878.546,24.414,35.156,37.109,41.504,-10.742,0
1508319878.550,30.273,34.668,41.016,42.480,30.273,0
1508319878.554,28.320,36.621,43.945,40.039,61.035,0
1508319878.558,24.414,39.062,46.387,35.645,45.898,0
1508319878.562,35.645,47.852,45.898,42.480,12.207,0
1508319878.565,29.785,47.852,39.062,45.410,8.301,0
1508319878.569,22.949,43.945,46.875,37.109,47.363,0
1508319878.573,33.691,42.969,56.152,38.086,51.270,0
1508319878.577,45.898,38.574,50.781,42.969,36.621,0
1508319878.581,43.945,37.598,38.086,36.621,25.879,0
1508319878.585,34.180,41.504,34.180,32.227,55.664,0
1508319878.589,36.621,41.992,34.180,37.598,89.844,0
1508319878.593,38.574,38.574,35.156,39.551,28.320,0
1508319878.597,40.527,39.551,38.086,35.645,-19.531,0
1508319878.601,41.016,40.527,38.574,34.668,30.762,0
1508319878.604,36.621,39.062,33.203,31.250,48.340,0
1508319878.608,30.273,37.109,34.180,28.320,26.367,0
1508319878.612,28.320,36.133,47.363,33.691,31.738,0
1508319878.616,32.715,34.668,50.781,36.621,27.832,0
1508319878.620,40.527,38.086,47.852,40.039,42.969,0
1508319878.624,34.668,39.062,45.410,36.133,41.992,0
1508319878.628,37.109,41.016,48.828,30.762,23.438,0
1508319878.632,41.504,38.086,50.781,36.133,15.625,0
1508319878.636,31.738,36.133,50.293,38.574,67.871,0
1508319878.640,30.762,39.551,49.316,41.016,98.145,0
1508319878.644,33.691,37.598,44.434,41.504,12.695,0
1508319878.647,33.203,36.621,35.156,39.062,-15.625,0
1508319878.651,24.414,39.062,29.785,35.156,30.273,0
1508319878.655,20.996,37.598,39.062,35.645,62.500,0
1508319878.659,18.555,32.715,49.316,35.645,54.199,0
1508319878.663,11.719,34.668,48.340,30.762,-0.977,0
1508319878.667,22.949,41.016,44.922,29.785,37.109,0
1508319878.671,28.809,40.527,49.316,31.738,94.238,0
1508319878.675,25.879,38.574,47.852,33.203,62.500,0
1508319878.679,28.320,43.945,42.480,36.133,-10.742,0
1508319878.683,25.879,39.062,37.598,30.762,-25.391,0
1508319878.687,25.879,42.969,30.273,22.949,50.781,0
1508319878.690,27.832,40.527,29.297,28.320,93.750,0
1508319878.694,24.902,35.645,41.016,31.738,14.160,0
1508319878.698,26.367,42.969,41.016,27.344,-33.203,0
1508319878.702,27.344,43.945,28.320,24.414,25.391,0
1508319878.706,34.180,48.340,37.598,28.809,44.922,0
1508319878.710,43.945,50.781,47.363,36.621,9.277,0
1508319878.714,46.387,45.898,44.922,41.016,14.648,0
1508319878.718,45.898,46.875,42.969,35.645,78.125,0
1508319878.722,40.527,48.340,37.109,30.762,60.547,0
1508319878.726,40.039,47.852,37.109,31.738,8.789,0
1508319878.729,41.992,48.340,37.598,34.668,7.324,0
1508319878.733,40.039,43.945,34.180,35.156,63.477,0
1508319878.737,35.645,48.828,32.227,32.227,67.871,0
1508319878.741,24.414,45.898,35.156,32.715,27.344,0
1508319878.745,22.461,33.203,36.621,29.297,9.766,0
1508319878.749,27.344,28.809,41.016,30.762,27.832,0
1508319878.753,21.973,34.180,50.781,38.574,40.039,0
1508319878.757,19.043,41.504,52.734,33.691,18.066,0
1508319878.761,22.949,41.016,56.152,24.902,21.484,0
1508319878.765,18.066,42.969,52.734,31.738,42.480,0
1508319878.769,11.230,35.645,40.039,36.133,78.613,0
1508319878.772,15.137,27.344,38.574,37.109,49.805,0
1508319878.776,24.902,34.180,37.598,43.945,23.926,0
1508319878.780,29.297,36.133,40.527,50.781,30.273,0
1508319878.784,28.809,33.691,46.875,51.758,25.391,0
1508319878.788,35.156,36.133,48.828,44.922,29.785,0
1508319878.792,35.645,38.574,44.434,38.086,25.879,0
1508319878.796,28.809,42.969,42.969,31.738,22.949,0
1508319878.800,32.715,43.945,43.457,35.645,-1.465,0
1508319878.804,37.109,41.992,31.738,40.039,15.137,0
1508319878.808,38.574,37.109,33.203,39.062,64.453,0
1508319878.812,35.645,28.320,39.062,29.297,20.996,0
1508319878.815,27.832,28.809,35.645,32.227,5.371,0
1508319878.819,35.645,39.551,43.457,44.434,46.387,0
1508319878.823,38.574,44.434,41.992,36.621,55.176,0
1508319878.827,33.203,46.875,30.273,26.855,36.621,0
1508319878.831,31.250,46.387,37.109,26.855,-3.906,0
1508319878.835,26.855,44.434,37.109,30.273,21.484,0
1508319878.839,30.273,39.062,43.945,36.133,60.547,0
1508319878.843,35.645,32.715,56.641,44.434,23.438,0
1508319878.847,29.785,36.133,50.293,43.457,-17.090,0
1508319878.851,27.344,39.062,41.016,40.039,8.789,0
1508319878.854,33.691,44.434,33.691,47.363,37.598,0
1508319878.858,34.668,41.992,31.738,45.410,6.348,0
1508319878.862,27.832,43.457,41.016,46.387,-18.555,0
1508319878.866,27.344,43.945,45.898,51.758,29.297,0
1508319878.870,25.879,39.062,35.645,44.434,58.105,0
1508319878.874,26.367,40.527,43.457,48.340,64.453,0
1508319878.878,28.320,34.668,53.223,47.852,57.617,0
1508319878.882,31.738,35.645,49.805,45.410,23.926,0
1508319878.886,36.621,36.621,46.387,45.898,35.645,0
1508319878.890,33.203,28.809,43.457,47.363,13.672,0
1508319878.894,32.715,36.621,49.805,53.711,-27.832,0
1508319878.897,35.156,39.551,44.434,45.410,6.836,0
1508319878.901,36.621,35.156,36.133,42.480,48.340,0
1508319878.905,34.668,39.551,33.691,44.434,58.105,0
1508319878.909,32.227,41.016,33.203,35.645,42.969,0
1508319878.913,41.504,41.504,40.527,30.762,28.809,0
1508319878.917,37.598,39.062,39.062,35.645,20.996,0
1508319878.921,25.391,33.203,41.504,35.645,40.527,0
1508319878.925,21.484,34.668,47.852,36.133,46.387,0
1508319878.929,17.578,41.504,44.434,37.109,-7.812,0
1508319878.933,13.672,35.156,41.992,31.738,-12.695,0
1508319878.937,11.719,28.320,36.621,30.762,41.016,0
1508319878.940,16.602,38.086,37.109,37.109,54.199,0
1508319878.944,16.602,44.434,36.133,33.691,35.156,0
1508319878.948,20.508,45.410,36.621,36.133,36.621,0
1508319878.952,20.996,38.086,39.551,38.574,39.062,0
1508319878.956,18.555,30.762,40.527,41.504,49.316,0
1508319878.960,14.648,42.480,37.598,41.504,41.992,0
1508319878.964,12.695,42.969,28.809,31.738,17.578,0
1508319878.968,14.648,37.109,33.203,32.227,11.719,0
1508319878.972,11.230,33.203,41.992,32.715,33.691,0
1508319878.976,6.836,37.109,46.387,34.180,23.438,0
1508319878.979,11.719,42.969,42.480,35.645,-22.949,0
1508319878.983,20.020,35.156,39.551,41.016,-4.883,0
1508319878.987,21.973,34.180,41.016,46.387,72.754,0
1508319878.991,22.949,37.109,41.504,39.062,70.801,0
1508319878.995,26.367,38.086,37.598,41.504,7.812,0
1508319878.999,30.273,39.551,34.180,42.480,23.438,0
1508319879.003,36.621,42.969,26.855,38.086,83.496,0
1508319879.007,39.551,39.551,23.438,32.715,74.219,0
1508319879.011,38.574,35.156,28.809,32.227,19.043,0
1508319879.015,39.062,38.086,29.785,33.691,14.648,0
1508319879.019,41.992,42.969,35.645,38.574,45.410,0
1508319879.022,41.992,40.039,35.156,43.945,40.039,0
1508319879.026,38.086,30.762,34.180,43.945,-0.488,0
1508319879.030,44.434,34.180,38.086,41.016,12.207,0
1508319879.034,40.039,36.621,43.945,42.480,42.969,0
1508319879.038,30.273,35.156,39.062,42.480,38.086,0
1508319879.042,30.273,40.039,37.598,36.621,7.812,0
1508319879.046,29.785,35.645,40.527,33.203,6.836,0
1508319879.050,33.203,33.203,38.574,33.691,41.992,0
1508319879.054,31.738,35.156,35.645,32.715,47.852,0
1508319879.058,31.738,36.621,41.016,34.668,21.484,0
1508319879.062,27.832,35.645,40.039,41.992,19.043,0
1508319879.065,20.508,31.250,37.598,43.945,22.461,0
1508319879.069,27.344,39.062,45.898,47.363,51.758,0
1508319879.073,30.273,43.945,40.039,48.828,41.504,0
1508319879.077,24.902,39.062,30.762,44.434,5.371,0
1508319879.081,22.949,40.039,36.133,42.480,18.066,0
1508319879.085,25.879,43.945,40.039,43.945,22.949,0
1508319879.089,24.414,40.527,42.969,48.340,24.414,0
1508319879.093,27.344,36.621,40.039,45.410,24.902,0
1508319879.097,34.668,37.109,28.809,46.387,29.297,0
1508319879.101,30.762,39.551,29.297,46.875,75.195,0
1508319879.104,26.855,42.969,39.062,41.504,61.523,0
1508319879.108,15.625,42.480,36.133,33.203,41.992,0
1508319879.112,5.859,47.852,28.809,23.438,45.410,0
1508319879.116,10.254,44.434,33.203,18.066,5.859,0
1508319879.120,13.184,42.480,35.645,17.578,19.531,0
1508319879.124,14.648,45.898,34.180,23.438,49.316,0
1508319879.128,12.207,40.527,38.086,28.809,31.250,0
1508319879.132,8.789,37.109,26.367,26.367,12.695,0
1508319879.136,5.859,34.180,22.949,19.043,28.320,0
1508319879.140,11.230,39.551,40.039,20.996,54.688,0
1508319879.144,11.719,41.992,37.109,26.855,24.902,0
1508319879.147,16.602,41.504,33.691,26.855,-10.742,0
1508319879.151,16.113,37.109,36.621,20.508,45.898,0
1508319879.155,12.695,24.414,32.227,20.996,64.941,0
1508319879.159,20.996,31.738,33.691,33.691,23.926,0
1508319879.163,26.367,44.922,44.922,41.504,4.395,0
1508319879.167,25.879,41.016,38.086,38.086,33.203,0
1508319879.171,28.320,38.086,26.367,36.133,67.871,0
1508319879.175,34.668,31.738,32.715,42.480,32.227,0
1508319879.179,34.180,34.180,34.180,44.434,2.441,0
1508319879.183,35.156,44.434,24.902,43.457,18.555,0
1508319879.187,33.691,32.715,26.367,47.852,44.434,0
1508319879.190,25.391,27.344,35.156,50.781,33.203,0
1508319879.194,28.809,32.715,37.109,52.246,3.418,0
1508319879.198,31.250,33.691,46.387,55.176,16.113,0
1508319879.202,24.902,34.180,48.340,50.293,69.336,0
1508319879.206,18.555,36.621,31.738,39.062,62.988,0
1508319879.210,16.113,38.574,32.715,35.645,-8.301,0
1508319879.214,21.973,37.598,43.457,36.133,-26.367,0
1508319879.218,22.949,37.598,35.156,36.133,2.441,0
1508319879.222,20.508,35.156,33.203,31.250,52.246,0
1508319879.226,18.555,32.715,48.828,22.949,59.570,0
1508319879.229,20.508,38.086,44.434,23.438,21.973,0
1508319879.233,33.691,38.574,37.598,34.668,32.227,0
1508319879.237,39.551,39.062,38.574,38.086,3.418,0
1508319879.241,31.738,40.039,33.691,31.738,12.695,0
1508319879.245,34.668,42.969,37.598,32.227,17.090,0
1508319879.249,42.480,46.387,41.504,36.133,-27.832,0
1508319879.253,40.039,42.480,28.320,35.645,23.438,0
1508319879.257,36.133,41.016,28.809,38.086,68.848,0
1508319879.261,34.668,41.504,37.598,34.668,13.672,0
1508319879.265,38.574,41.992,37.598,34.668,-25.879,0
1508319879.269,45.898,41.504,41.992,47.363,3.418,0
1508319879.272,44.434,36.133,35.156,48.340,63.965,0
1508319879.276,41.504,35.645,36.133,43.457,63.965,0
1508319879.280,42.480,41.504,44.922,42.969,12.695,0
1508319879.284,41.016,41.504,40.039,51.758,23.438,0
1508319879.288,39.551,37.598,41.016,54.688,53.711,0
1508319879.292,34.668,38.086,43.457,49.805,31.250,0
1508319879.296,33.691,41.016,34.180,47.852,20.996,0
1508319879.300,43.457,41.992,38.574,46.875,46.875,0
1508319879.304,41.016,43.457,45.410,38.086,83.496,0
1508319879.308,35.156,45.898,41.504,36.621,56.152,0
1508319879.312,32.715,47.852,38.086,39.551,-7.812,0
1508319879.315,29.297,48.340,38.574,35.156,13.184,0
1508319879.319,30.273,39.062,42.480,27.832,37.109,0
1508319879.323,34.668,39.062,29.297,27.832,-4.883,0
1508319879.327,29.297,45.898,31.250,25.879,-5.371,0
1508319879.331,20.508,46.875,41.504,21.973,21.484,0
1508319879.335,18.555,41.504,46.875,21.973,56.641,0
1508319879.339,19.043,36.133,37.598,11.230,59.082,0
1508319879.343,20.996,37.109,22.949,3.906,4.883,0
1508319879.347,20.508,49.805,35.645,13.184,0.000,0
1508319879.351,20.020,45.410,40.527,19.531,41.016,0
1508319879.354,30.762,33.691,39.551,26.367,22.949,0
1508319879.358,38.086,46.875,47.852,34.180,6.348,0
1508319879.362,28.809,47.852,44.922,32.227,12.207,0
1508319879.366,29.297,43.457,32.227,33.691,-5.371,0
1508319879.370,35.645,44.434,41.504,41.504,15.137,0
1508319879.374,49.316,41.016,48.340,51.758,23.438,0
1508319879.378,45.898,38.574,36.621,57.129,19.043,0
1508319879.382,30.762,43.945,35.645,52.734,9.277,0
1508319879.386,32.715,43.457,36.621,51.270,22.461,0
1508319879.390,35.645,39.062,44.922,52.246,44.434,0
1508319879.394,26.855,38.574,41.992,49.805,38.574,0
1508319879.397,21.973,42.969,29.297,44.922,-18.066,0
1508319879.401,24.414,38.086,32.227,41.504,-4.395,0
1508319879.405,22.949,36.621,41.504,44.922,51.758,0
1508319879.409,20.508,40.039,36.621,44.922,53.711,0
1508319879.413,23.926,28.320,27.832,41.016,17.578,0
1508319879.417,23.926,30.273,34.668,49.316,24.902,0
1508319879.421,22.461,35.645,41.016,46.875,64.941,0
1508319879.425,25.391,32.715,46.387,38.086,38.574,0
1508319879.429,22.949,36.621,46.875,38.574,3.418,0
1508319879.433,23.926,40.527,46.387,33.691,0.977,0
1508319879.437,20.020,41.016,39.062,27.344,71.777,0
1508319879.440,18.066,39.551,34.180,26.855,82.520,0
1508319879.444,27.832,32.715,38.574,27.832,20.996,0
1508319879.448,30.762,34.180,37.109,30.273,-2.930,0
1508319879.452,25.879,37.109,38.086,39.062,33.203,0
1508319879.456,24.414,34.668,33.691,40.039,65.918,0
1508319879.460,31.250,40.039,38.086,36.621,2.441,0
1508319879.464,28.320,42.480,40.527,38.574,-2.930,0
1508319879.468,21.973,39.062,37.109,35.645,51.270,0
1508319879.472,25.391,43.457,47.852,41.016,42.480,0
1508319879.476,29.297,42.969,48.340,45.898,9.766,0
1508319879.479,29.785,34.668,38.086,35.645,-9.277,0
1508319879.483,30.762,36.621,35.645,31.250,39.551,0
1508319879.487,33.691,39.062,41.016,36.133,68.848,0
1508319879.491,34.180,40.527,38.574,37.109,33.691,0
1508319879.495,27.344,41.016,32.715,33.203,-1.465,0
1508319879.499,20.508,45.898,29.785,35.645,1.465,0
1508319879.503,15.625,49.805,30.273,40.039,17.090,0
1508319879.507,17.090,45.898,38.086,46.875,8.789,0
1508319879.511,18.555,34.668,38.574,42.969,10.254,0
1508319879.515,15.625,34.180,39.551,32.715,12.695,0
1508319879.519,16.602,39.551,44.434,32.227,26.855,0
1508319879.522,17.578,33.691,45.410,28.809,34.668,0
1508319879.526,17.578,39.551,41.016,24.902,12.695,0
1508319879.530,19.043,43.945,35.645,31.738,-0.977,0
1508319879.534,22.461,38.574,38.574,38.086,39.551,0
1508319879.538,27.344,39.062,41.016,39.551,70.801,0
1508319879.542,24.414,41.992,40.527,41.504,52.246,0
1508319879.546,27.344,38.086,37.109,46.875,11.230,0
1508319879.550,36.621,31.738,27.832,45.898,-15.137,0
1508319879.554,40.039,39.062,30.273,45.898,32.227,0
1508319879.558,36.133,44.922,41.504,43.457,66.895,0
1508319879.562,31.250,41.992,39.062,28.320,17.090,0
1508319879.565,28.809,46.875,41.016,29.785,28.320,0
1508319879.569,30.273,41.504,41.992,42.969,77.637,0
1508319879.573,27.832,32.715,33.691,36.621,64.453,0
1508319879.577,27.832,33.691,29.297,18.066,25.391,0
1508319879.581,29.785,36.621,38.574,17.578,3.418,0
1508319879.585,27.344,38.574,41.504,29.297,31.250,0
1508319879.589,20.020,42.480,36.621,29.785,53.711,0
1508319879.593,13.672,40.527,27.832,27.832,30.273,0
1508319879.597,12.207,40.039,31.250,32.227,15.625,0
1508319879.601,16.113,43.945,44.434,33.691,33.203,0
1508319879.604,22.949,34.180,46.875,31.738,60.547,0
1508319879.608,19.531,28.320,41.992,35.645,27.344,0
1508319879.612,22.949,31.250,36.133,41.992,-18.066,0
1508319879.616,25.879,34.668,32.715,44.434,7.812,0
1508319879.620,16.113,37.598,37.109,48.828,66.895,0
1508319879.624,13.184,42.480,39.551,46.875,48.828,0
1508319879.628,22.949,39.062,40.527,39.551,-9.277,0
1508319879.632,22.949,32.227,37.598,38.086,19.043,0
1508319879.636,24.902,32.715,29.297,40.039,57.129,0
1508319879.640,31.738,34.668,31.738,46.875,23.926,0
1508319879.644,31.738,35.156,42.969,47.852,-9.766,0
1508319879.647,24.902,28.320,46.875,43.945,7.324,0
1508319879.651,18.555,31.738,49.805,36.621,52.246,0
1508319879.655,24.414,41.016,54.688,30.273,83.984,0
1508319879.659,28.809,42.969,44.434,29.785,48.828,0
1508319879.663,25.391,36.133,35.645,36.133,34.668,0
1508319879.667,23.438,37.598,40.039,41.016,27.832,0
1508319879.671,10.742,41.992,40.039,26.367,6.836,0
1508319879.675,5.371,34.180,45.410,24.902,36.621,0
1508319879.679,10.254,31.738,44.434,25.391,21.484,0
1508319879.683,8.789,32.715,35.156,19.043,-15.625,0
1508319879.687,7.324,26.855,39.062,22.949,17.578,0
1508319879.690,12.207,31.250,46.875,27.344,34.668,0
1508319879.694,19.043,38.086,41.992,32.227,40.527,0
1508319879.698,17.578,34.180,37.109,31.250,20.996,0
1508319879.702,20.996,32.715,43.457,32.715,30.273,0
1508319879.706,35.156,34.668,50.781,33.691,54.688,0
1508319879.710,35.156,34.668,46.875,34.668,20.996,0
1508319879.714,30.762,42.969,42.969,42.480,22.461,0
1508319879.718,31.250,46.875,44.434,46.387,37.109,0
1508319879.722,39.062,47.363,46.875,51.758,33.203,0
1508319879.726,43.457,42.480,38.574,51.758,33.691,0
1508319879.729,39.062,37.109,42.969,43.457,-21.484,0
1508319879.733,38.574,40.527,54.199,43.945,-27.832,0
1508319879.737,42.480,47.852,45.898,46.387,43.945,0
1508319879.741,40.039,46.387,56.152,47.363,38.086,0
1508319879.745,38.574,45.898,53.711,44.434,-9.766,0
1508319879.749,42.969,49.316,33.691,41.016,5.859,0
1508319879.753,34.668,51.758,41.504,39.551,73.242,0
1508319879.757,23.926,51.758,44.922,40.527,64.453,0
1508319879.761,17.578,41.016,34.668,40.039,38.574,0
1508319879.765,15.137,35.156,31.250,40.039,39.551,0
1508319879.769,20.020,34.668,44.434,38.574,43.457,0
1508319879.772,26.367,38.574,52.734,40.039,64.941,0
1508319879.776,23.926,46.875,34.668,29.297,14.160,0
1508319879.780,14.648,50.781,29.785,16.113,2.930,0
1508319879.784,16.602,44.922,35.156,20.020,35.645,0
1508319879.788,27.832,43.945,32.227,25.391,31.738,0
1508319879.792,28.809,45.898,34.180,24.902,14.160,0
1508319879.796,24.902,45.898,38.086,23.438,7.812,0
1508319879.800,25.879,43.945,36.621,26.855,41.016,0
1508319879.804,27.832,47.852,29.785,32.227,33.203,0
1508319879.808,29.785,42.969,22.461,30.762,3.418,0
1508319879.812,29.785,38.574,30.762,29.785,0.977,0
1508319879.815,32.715,43.945,40.039,31.250,16.602,0
1508319879.819,33.203,39.551,32.715,26.855,56.641,0
1508319879.823,37.109,40.039,20.508,27.832,39.551,0
1508319879.827,40.527,43.457,28.320,24.902,18.555,0
1508319879.831,38.574,42.480,42.480,26.855,35.156,0
1508319879.835,37.598,37.598,40.039,30.273,29.297,0
1508319879.839,31.250,29.297,37.109,28.320,36.133,0
1508319879.843,28.320,33.691,35.156,34.668,26.367,0
1508319879.847,30.762,38.086,37.109,42.969,0.000,0
1508319879.851,31.250,35.645,37.598,43.945,8.301,0
1508319879.854,31.250,43.945,30.762,42.480,21.484,0
1508319879.858,35.156,46.875,33.691,48.340,37.598,0
1508319879.862,42.969,50.781,31.250,45.410,36.133,0
1508319879.866,41.992,48.828,29.785,40.039,6.836,0
1508319879.870,30.762,42.969,29.785,36.133,26.367,0
1508319879.874,25.391,48.340,23.438,34.668,38.574,0
1508319879.878,26.367,41.504,23.926,29.785,-15.625,0
1508319879.882,23.926,40.527,32.715,21.484,-34.668,0
1508319879.886,18.066,45.898,38.086,21.484,39.551,0
1508319879.890,15.625,39.551,40.527,15.137,85.938,0
1508319879.894,13.672,41.504,37.109,6.348,30.273,0
1508319879.897,14.648,43.945,32.227,15.137,7.324,0
1508319879.901,15.625,45.410,35.156,26.367,41.504,0
1508319879.905,14.648,50.781,40.039,30.273,65.430,0
1508319879.909,20.508,47.363,37.598,39.062,39.062,0
1508319879.913,27.344,36.133,29.785,42.480,-4.883,0
1508319879.917,32.715,40.039,34.668,43.945,27.344,0
1508319879.921,40.039,49.316,30.762,53.711,62.988,0
1508319879.925,42.969,44.434,35.156,46.875,6.836,0
1508319879.929,45.410,41.992,48.340,34.180,-28.320,0
1508319879.933,37.109,36.621,51.270,36.621,29.297,0
1508319879.937,36.133,41.504,50.293,48.828,65.918,0
1508319879.940,44.434,46.387,42.969,50.293,42.480,0
1508319879.944,48.340,41.992,43.945,44.922,8.301,0
1508319879.948,39.551,38.574,43.457,40.039,23.926,0
1508319879.952,33.203,40.039,41.016,39.062,51.758,0
1508319879.956,36.133,40.039,37.598,34.668,32.715,0
1508319879.960,33.203,43.457,24.414,32.715,6.348,0
1508319879.964,27.832,47.363,29.297,34.668,-12.695,0
1508319879.968,29.297,41.504,45.898,33.691,23.926,0
1508319879.972,39.062,43.457,51.270,45.410,18.555,0
1508319879.976,32.227,46.875,50.293,47.363,-13.672,0
1508319879.979,24.414,41.504,41.504,41.016,-3.418,0
1508319879.983,32.227,41.016,36.621,45.410,13.184,0
1508319879.987,28.809,45.410,40.039,44.922,38.574,0
1508319879.991,19.043,41.016,39.551,41.504,70.312,0
1508319879.995,15.625,32.715,38.086,43.457,75.195,0
1508319879.999,13.672,41.992,37.598,40.039,56.641,0
1508319880.003,18.555,45.410,38.574,39.551,99.609,0
1508319880.007,28.809,35.156,36.621,50.293,113.770,0
1508319880.011,22.461,33.203,26.367,45.410,54.688,0
1508319880.015,12.207,39.062,25.391,34.180,13.184,0
1508319880.019,15.625,39.551,39.551,39.551,36.133,0
1508319880.022,17.090,40.039,52.734,41.992,99.609,0
1508319880.026,18.555,41.504,48.828,40.527,60.059,0
1508319880.030,19.531,40.527,37.598,43.945,10.254,0
1508319880.034,23.438,40.527,35.156,44.434,47.363,0
1508319880.038,31.738,35.645,41.016,46.875,91.309,0
1508319880.042,35.156,30.762,38.574,48.340,69.336,0
1508319880.046,37.598,31.738,31.738,40.039,33.203,0
1508319880.050,40.039,40.039,39.551,39.062,50.293,0
1508319880.054,40.039,39.062,38.086,42.969,40.039,0
1508319880.058,38.574,37.109,41.504,44.434,4.883,0
1508319880.062,35.645,42.480,51.270,41.992,-14.160,0
1508319880.065,38.574,41.016,50.293,33.203,5.859,0
1508319880.069,38.086,33.203,42.480,31.250,69.824,0
1508319880.073,31.250,37.109,39.062,34.180,53.711,0
1508319880.077,30.273,36.133,46.387,33.203,18.555,0
1508319880.081,28.320,26.855,44.922,31.250,25.879,0
1508319880.085,27.832,32.227,46.387,33.203,28.809,0
1508319880.089,32.227,38.574,47.363,38.574,31.738,0
1508319880.093,29.297,37.109,38.086,29.785,3.906,0
1508319880.097,28.809,37.598,40.527,29.785,16.113,0
1508319880.101,29.297,43.457,44.922,46.387,20.996,0
1508319880.104,24.414,44.922,43.945,46.875,22.949,0
1508319880.108,20.508,34.180,47.363,42.969,16.602,0
1508319880.112,19.531,31.250,47.363,38.574,22.949,0
1508319880.116,24.414,34.180,46.875,40.527,27.832,0
1508319880.120,20.508,36.621,34.668,39.062,19.531,0
1508319880.124,21.973,37.598,41.992,36.133,28.809,0
1508319880.128,23.438,36.621,48.828,40.039,11.719,0
1508319880.132,14.648,38.574,39.062,39.551,1.465,0
1508319880.136,16.602,35.645,40.527,38.574,19.043,0
1508319880.140,22.461,36.133,43.945,44.922,37.598,0
1508319880.144,26.367,40.039,40.527,44.434,15.625,0
1508319880.147,19.043,34.180,32.227,40.527,0.488,0
1508319880.151,5.859,32.227,34.668,39.551,46.875,0
1508319880.155,8.789,29.785,47.852,42.480,37.598,0
1508319880.159,12.695,28.320,47.852,40.527,22.949,0
1508319880.163,8.789,32.715,43.945,34.668,-2.441,0
1508319880.167,4.883,32.227,43.457,27.344,-6.348,0
1508319880.171,3.418,29.297,34.180,18.555,57.617,0
1508319880.175,4.395,25.879,29.785,19.531,29.785,0
1508319880.179,10.254,29.785,36.133,21.973,-16.113,0
1508319880.183,20.020,34.180,40.527,20.508,-3.906,0
1508319880.187,15.625,32.227,36.621,20.996,22.949,0
1508319880.190,8.301,34.180,38.574,29.297,16.113,0
1508319880.194,14.160,29.297,49.316,28.809,-21.973,0
1508319880.198,12.695,22.461,46.875,24.414,-30.762,0
1508319880.202,8.301,26.367,41.016,27.344,33.203,0
1508319880.206,7.812,29.785,41.504,36.621,66.895,0
1508319880.210,7.812,23.438,44.434,41.504,17.578,0
1508319880.214,7.324,29.785,41.504,33.203,6.836,0
1508319880.218,8.301,32.227,40.527,29.785,20.996,0
1508319880.222,15.137,33.203,37.598,32.227,46.875,0
1508319880.226,20.020,37.109,30.762,34.180,28.320,0
1508319880.229,17.578,29.785,40.527,31.738,-8.789,0
1508319880.233,18.066,29.297,47.363,36.621,39.551,0
1508319880.237,24.414,32.227,36.621,41.992,63.965,0
1508319880.241,20.996,38.574,28.320,45.410,7.324,0
1508319880.245,15.625,41.016,35.645,39.062,-13.184,0
1508319880.249,16.602,39.551,31.250,29.297,0.977,0
1508319880.253,20.508,41.016,28.809,28.320,8.789,0
1508319880.257,29.785,43.945,39.551,33.203,8.301,0
1508319880.261,27.832,41.504,38.086,35.156,13.184,0
1508319880.265,23.926,38.086,35.156,33.691,21.484,0
1508319880.269,30.273,34.668,32.227,28.809,41.504,0
1508319880.272,29.785,41.992,27.832,18.555,38.086,0
1508319880.276,19.043,49.316,31.738,18.066,23.438,0
1508319880.280,17.090,46.387,32.227,13.672,18.555,0
1508319880.284,14.160,42.480,36.133,14.160,45.898,0
1508319880.288,9.277,41.016,44.434,16.602,30.762,0
1508319880.292,11.719,39.062,36.133,14.648,-5.859,0
1508319880.296,20.508,41.016,34.180,22.949,14.648,0
1508319880.300,24.414,41.016,48.828,30.273,23.926,0
1508319880.304,20.508,40.039,48.340,21.484,37.109,0
1508319880.308,20.020,41.016,39.551,23.438,62.988,0
1508319880.312,28.809,38.086,42.969,28.809,28.320,0
1508319880.315,32.715,35.156,41.992,30.762,4.395,0
1508319880.319,30.762,32.715,43.945,38.574,60.547,0
1508319880.323,32.227,38.086,41.992,45.898,82.520,0
1508319880.327,33.691,41.016,41.504,41.992,2.930,0
1508319880.331,38.574,35.645,51.758,46.387,-5.371,0
1508319880.335,39.062,43.457,52.246,51.270,36.621,0
1508319880.339,40.527,44.434,44.434,45.898,40.527,0
1508319880.343,44.922,35.156,41.504,43.945,28.809,0
1508319880.347,38.086,31.738,41.016,41.016,-21.973,0
1508319880.351,37.109,34.180,44.434,39.062,13.184,0
1508319880.354,41.992,38.574,39.551,39.551,76.172,0
1508319880.358,42.969,46.875,29.785,40.039,20.508,0
1508319880.362,44.922,51.270,38.086,37.109,-41.016,0
1508319880.366,37.598,47.363,31.738,25.879,-14.648,0
1508319880.370,29.297,47.363,31.738,20.996,50.781,0
1508319880.374,33.691,44.922,41.992,22.461,60.547,1
1508319880.378,33.203,37.109,36.133,19.043,11.719,0
1508319880.382,35.645,40.527,33.203,26.367,9.766,0
1508319880.386,41.992,50.781,32.227,34.668,50.781,0
1508319880.390,37.109,44.922,29.785,35.156,55.176,0
1508319880.394,32.227,34.180,26.855,36.621,20.020,0
1508319880.397,39.062,43.945,35.645,39.062,23.926,0
1508319880.401,45.898,48.340,44.922,32.227,61.523,0
1508319880.405,42.480,42.480,42.969,35.645,39.551,0
1508319880.409,41.016,41.504,40.039,41.504,7.812,0
1508319880.413,43.457,41.016,38.574,43.457,2.441,0
1508319880.417,40.527,41.504,38.086,43.457,19.531,0
1508319880.421,41.016,43.457,40.527,43.457,55.176,0
1508319880.425,41.992,40.039,43.457,49.805,42.480,0
1508319880.429,36.621,41.504,42.480,48.340,0.000,0
1508319880.433,33.203,43.945,46.875,51.270,22.461,0
1508319880.437,29.297,50.293,45.410,47.363,30.762,0
1508319880.440,25.391,50.293,45.410,29.785,47.363,0
1508319880.444,13.672,41.504,52.734,20.996,59.570,0
1508319880.448,-4.395,41.992,50.781,13.184,25.391,0
1508319880.452,-11.230,46.875,54.199,10.742,26.367,0
1508319880.456,-8.301,48.828,53.223,0.977,40.527,0
1508319880.460,-12.695,47.852,50.781,-14.160,26.367,0
1508319880.464,-34.180,42.969,52.734,-29.297,37.109,0
1508319880.468,-53.711,44.434,49.805,-42.969,25.391,0
1508319880.472,-63.965,39.551,54.199,-46.387,17.578,0
1508319880.476,-73.242,34.180,54.199,-58.594,35.156,0
1508319880.479,-79.102,39.062,47.363,-64.941,-1.465,0
1508319880.483,-87.402,45.898,51.270,-72.754,28.809,0
1508319880.487,-104.980,47.852,57.129,-86.914,83.496,0
1508319880.491,-125.000,41.504,51.270,-99.609,54.199,0
1508319880.495,-135.742,32.715,62.500,-111.328,-12.695,0
1508319880.499,-141.602,26.367,66.406,-119.629,-23.438,0
1508319880.503,-146.973,25.391,63.965,-128.906,77.148,0
1508319880.507,-149.414,21.973,70.801,-136.230,74.707,0
1508319880.511,-147.461,24.414,75.684,-137.695,23.926,0
1508319880.515,-145.020,26.855,76.172,-140.625,18.555,0
1508319880.519,-147.461,20.020,65.430,-140.137,28.809,0
1508319880.522,-147.949,9.766,69.336,-129.395,57.617,0
1508319880.526,-139.648,8.789,81.055,-117.188,7.324,0
1508319880.530,-136.230,16.602,79.102,-125.488,-29.297,0
1508319880.534,-133.301,19.043,66.406,-130.371,20.508,0
1508319880.538,-122.070,17.090,65.918,-118.164,18.555,0
1508319880.542,-115.723,17.090,72.754,-115.234,-18.555,0
1508319880.546,-107.422,15.137,76.172,-106.934,6.836,0
1508319880.550,-95.703,15.137,81.543,-87.891,16.113,0
1508319880.554,-87.891,18.066,72.266,-81.543,23.926,0
1508319880.558,-84.961,20.996,59.570,-80.078,32.715,0
1508319880.562,-79.102,26.367,60.059,-71.777,27.832,0
1508319880.565,-68.359,20.020,64.941,-64.941,20.996,0
1508319880.569,-59.570,12.207,65.430,-53.223,44.922,0
1508319880.573,-49.805,16.602,54.199,-41.992,42.969,0
1508319880.577,-34.180,25.391,45.898,-35.645,31.250,0
1508319880.581,-26.855,27.344,46.387,-20.996,46.387,0
1508319880.585,-20.996,23.438,47.363,-0.977,40.527,0
1508319880.589,-4.395,22.949,46.387,11.230,36.133,0
1508319880.593,4.883,28.320,43.457,22.949,39.551,0
1508319880.597,20.996,35.645,38.574,41.016,18.066,0
1508319880.601,38.086,38.574,30.762,49.316,40.527,0
1508319880.604,43.945,29.297,20.996,52.246,66.895,0
1508319880.608,53.711,26.367,9.277,57.129,21.973,0
1508319880.612,57.617,37.109,9.766,53.223,2.441,0
1508319880.616,63.477,35.156,20.020,67.383,25.391,0
1508319880.620,68.359,33.203,16.602,84.473,27.832,0
1508319880.624,71.289,41.992,11.719,91.309,40.527,0
1508319880.628,74.707,48.340,16.602,91.797,12.695,0
1508319880.632,77.148,43.945,24.414,86.426,-9.766,0
1508319880.636,77.637,44.922,25.879,86.426,51.758,0
1508319880.640,73.242,39.551,15.625,92.285,71.777,0
1508319880.644,77.148,38.574,4.395,95.215,9.766,0
1508319880.647,85.449,52.734,5.371,96.680,-6.836,0
1508319880.651,98.633,55.176,-2.441,100.586,55.176,0
1508319880.655,108.398,46.875,-3.418,96.191,67.871,0
1508319880.659,103.027,42.480,8.789,94.727,19.043,0
1508319880.663,111.816,54.688,10.742,99.121,6.348,0
1508319880.667,120.117,55.664,6.836,94.238,36.133,0
1508319880.671,116.211,50.781,8.789,100.586,26.855,0
1508319880.675,108.887,53.223,14.160,108.887,-16.113,0
1508319880.679,105.957,46.387,16.113,108.887,-18.555,0
1508319880.683,104.004,40.527,16.113,116.211,38.574,0
1508319880.687,100.098,47.852,15.625,117.188,74.219,0
1508319880.690,103.516,41.992,19.043,108.398,43.457,0
1508319880.694,109.375,39.551,18.066,110.352,-1.953,0
1508319880.698,109.863,48.340,11.719,115.723,33.203,0
1508319880.702,98.145,45.410,20.020,118.652,53.223,0
1508319880.706,95.215,47.852,28.320,124.512,38.086,0
1508319880.710,94.727,54.688,22.949,119.629,48.828,0
1508319880.714,89.355,57.129,22.949,122.070,12.207,0
1508319880.718,94.238,53.223,21.973,118.164,15.625,0
1508319880.722,87.891,40.527,22.949,107.910,34.668,0
1508319880.726,84.961,43.457,19.043,114.746,32.227,0
1508319880.729,86.914,45.410,14.160,105.957,26.855,0
1508319880.733,82.031,44.434,30.273,98.145,8.301,0
1508319880.737,80.078,44.922,33.691,104.492,33.691,0
1508319880.741,79.590,44.434,28.809,108.887,50.781,0
1508319880.745,75.195,49.805,24.902,108.887,-2.441,0
1508319880.749,82.520,47.852,31.738,106.934,-12.207,0
1508319880.753,81.543,40.527,33.203,105.957,40.039,0
1508319880.757,72.266,39.062,32.715,108.887,32.715,0
1508319880.761,67.871,38.086,40.039,106.445,1.465,0
1508319880.765,66.895,42.480,34.668,91.797,-17.578,0
1508319880.769,67.383,45.898,35.156,81.543,-5.859,0
1508319880.772,62.500,37.109,27.344,75.684,28.809,0
1508319880.776,62.012,42.480,24.902,73.730,18.555,0
1508319880.780,63.477,48.828,34.668,77.148,3.418,0
1508319880.784,60.059,45.898,31.738,76.660,47.363,0
1508319880.788,63.477,45.898,21.484,73.730,66.406,0
1508319880.792,66.406,44.922,24.414,74.707,32.227,0
1508319880.796,66.895,46.875,29.785,73.242,7.812,0
1508319880.800,68.848,39.062,29.785,80.566,18.066,0
1508319880.804,73.242,37.109,33.203,88.867,45.410,0
1508319880.808,68.359,42.969,38.086,88.867,29.297,0
1508319880.812,63.965,47.363,38.086,85.938,-30.273,0
1508319880.815,70.312,49.316,36.621,82.520,19.531,0
1508319880.819,68.848,46.875,42.480,79.102,81.055,0
1508319880.823,68.359,37.598,36.621,79.590,98.145,0
1508319880.827,73.242,37.598,31.738,85.938,74.707,0
1508319880.831,68.848,39.551,36.133,90.820,11.230,0
1508319880.835,60.547,37.598,28.320,80.078,59.082,0
1508319880.839,67.871,44.922,31.250,75.684,74.707,0
1508319880.843,70.801,42.480,41.016,76.172,5.371,0
1508319880.847,63.477,31.250,37.109,74.219,-8.789,0
1508319880.851,57.129,37.598,34.180,73.730,40.527,0
1508319880.854,50.293,46.387,38.086,68.359,34.180,0
1508319880.858,53.223,44.922,37.109,63.965,-13.184,0
1508319880.862,59.570,41.504,35.156,65.430,-20.020,0
1508319880.866,55.664,41.992,36.133,66.895,7.324,0
1508319880.870,50.781,42.969,32.227,62.012,59.570,0
1508319880.874,47.363,40.527,24.414,57.617,43.945,0
1508319880.878,44.922,48.828,29.785,60.547,0.488,0
1508319880.882,47.363,51.270,36.133,61.035,8.301,0
1508319880.886,50.293,36.621,41.992,57.129,30.762,0
1508319880.890,40.039,37.598,39.551,57.129,18.066,0
1508319880.894,32.227,42.480,34.668,56.152,2.441,0
1508319880.897,44.434,38.574,37.598,56.641,7.324,0
1508319880.901,52.246,35.645,35.156,59.570,6.836,0
1508319880.905,48.828,38.574,35.156,58.105,20.996,0
1508319880.909,42.969,41.504,29.297,56.641,34.668,0
1508319880.913,45.410,41.992,25.391,57.617,-7.812,0
1508319880.917,47.363,39.062,31.250,49.805,7.324,0
1508319880.921,44.922,43.457,35.156,43.945,51.758,0
1508319880.925,48.828,48.340,34.668,50.293,42.480,0
1508319880.929,48.340,44.434,39.062,48.340,-1.465,0
1508319880.933,40.527,45.410,41.992,43.457,4.395,0
1508319880.937,38.086,39.551,34.668,43.945,61.523,0
1508319880.940,44.434,30.762,34.180,50.293,45.898,0
1508319880.944,45.410,36.621,39.062,49.316,9.766,0
1508319880.948,37.598,38.086,37.598,45.410,-11.719,0
1508319880.952,37.109,43.457,43.945,48.340,3.418,0
1508319880.956,36.133,51.758,45.410,45.410,37.598,0
1508319880.960,29.785,34.668,36.621,45.410,-4.395,0
1508319880.964,27.832,25.879,34.668,42.969,-36.621,0
1508319880.968,31.250,37.109,33.203,34.668,16.113,0
1508319880.972,33.691,40.039,29.297,35.156,40.039,0
1508319880.976,38.086,37.109,33.203,32.715,21.484,0
1508319880.979,36.133,37.109,32.227,22.949,20.508,0
1508319880.983,31.250,38.086,32.715,31.250,52.734,0
1508319880.987,35.645,42.969,35.156,42.480,49.805,0
1508319880.991,41.992,44.922,41.504,48.828,12.695,0
1508319880.995,49.316,47.363,34.668,49.805,-0.488,0
1508319880.999,47.852,42.480,25.391,43.457,22.461,0
1508319881.003,50.293,39.062,37.109,44.922,40.527,0
1508319881.007,52.734,38.574,39.062,47.852,-21.973,0
1508319881.011,45.410,33.203,41.992,53.711,-14.648,0
1508319881.015,41.992,38.574,43.945,52.246,45.410,0
1508319881.019,45.898,37.598,37.598,45.898,52.734,0
1508319881.022,42.969,36.621,36.621,53.711,52.246,0
1508319881.026,35.645,40.527,30.762,44.434,43.945,0
1508319881.030,38.574,43.945,18.066,43.457,41.016,0
1508319881.034,44.434,41.992,20.020,50.293,38.574,0
1508319881.038,43.457,37.109,24.902,41.504,37.109,0
1508319881.042,38.086,32.227,28.809,41.992,6.348,0
1508319881.046,31.738,32.227,41.992,38.086,-0.488,0
1508319881.050,30.762,33.203,40.039,34.668,22.461,0
1508319881.054,25.879,32.227,29.785,32.715,32.227,0
1508319881.058,25.391,27.832,31.250,31.250,31.250,0
1508319881.062,30.273,30.762,32.227,41.992,10.742,0
1508319881.065,28.809,36.621,31.250,48.340,11.230,0
1508319881.069,23.438,36.133,34.180,42.480,40.527,0
1508319881.073,18.555,36.621,38.086,39.551,79.590,0
1508319881.077,17.578,34.668,34.180,41.504,27.832,0
1508319881.081,24.414,40.527,32.715,41.016,-40.527,0
1508319881.085,27.344,40.039,36.621,39.551,4.395,0
1508319881.089,29.785,28.809,37.598,43.457,36.621,0
1508319881.093,26.855,39.551,33.203,41.992,13.184,0
1508319881.097,22.949,52.246,25.391,29.297,-26.367,0
1508319881.101,30.762,54.199,19.043,32.715,20.020,0
1508319881.104,31.250,48.340,22.949,39.551,78.613,0
1508319881.108,27.344,40.039,30.273,39.551,28.809,0
1508319881.112,26.855,47.363,38.086,38.086,-15.137,0
1508319881.116,29.297,48.340,39.551,37.598,22.461,0
1508319881.120,39.551,36.621,32.227,35.156,47.852,0
1508319881.124,44.434,37.109,31.250,28.809,42.480,0
1508319881.128,39.062,42.969,30.762,32.715,35.645,0
1508319881.132,37.109,38.086,31.738,36.133,31.738,0
1508319881.136,33.691,37.109,32.227,37.109,49.805,0
1508319881.140,28.809,36.621,21.973,37.598,9.277,0
1508319881.144,34.180,38.574,23.438,39.551,-26.855,0
1508319881.147,39.551,49.316,28.320,45.410,30.273,0
1508319881.151,38.574,40.039,27.832,44.922,75.684,0
1508319881.155,39.062,38.086,36.133,41.992,55.664,0
1508319881.159,46.387,43.457,36.621,44.922,40.527,0
1508319881.163,43.457,38.574,41.016,53.223,41.016,0
1508319881.167,39.551,37.109,53.223,52.246,52.734,0
1508319881.171,43.945,43.945,47.363,54.688,68.359,0
1508319881.175,44.434,50.781,44.434,56.152,47.363,0
1508319881.179,34.180,47.852,45.898,55.664,16.602,0
1508319881.183,25.391,42.969,47.852,51.270,-0.977,0
1508319881.187,19.531,37.598,43.945,41.016,24.902,0
1508319881.190,22.461,41.504,40.527,42.969,35.645,0
1508319881.194,29.785,50.781,39.551,41.504,40.527,0
1508319881.198,28.809,41.504,27.344,43.457,15.137,0
1508319881.202,25.879,30.762,24.414,41.992,0.977,0
1508319881.206,16.602,34.180,36.133,34.180,52.734,0
1508319881.210,17.090,41.992,42.480,34.668,51.270,0
1508319881.214,26.855,41.992,45.898,33.203,13.184,0
1508319881.218,30.273,42.480,49.805,34.180,23.926,0
1508319881.222,28.320,39.551,33.691,37.598,59.082,0
1508319881.226,29.785,35.156,31.738,26.855,64.453,0
1508319881.229,35.645,44.922,42.969,22.461,30.273,0
1508319881.233,37.598,44.434,41.504,31.250,17.578,0
1508319881.237,38.574,40.039,43.945,37.598,49.316,0
1508319881.241,31.250,39.062,45.410,34.668,34.180,0
1508319881.245,27.832,34.180,40.527,30.273,-13.672,0
1508319881.249,35.645,25.391,42.969,36.133,20.508,0
1508319881.253,33.691,24.414,40.527,40.527,80.566,0
1508319881.257,29.785,31.250,38.086,42.480,62.012,0
1508319881.261,33.203,30.762,47.363,43.945,20.020,0
1508319881.265,35.156,27.832,46.387,41.504,19.531,0
1508319881.269,27.344,31.250,42.480,31.250,62.500,0
1508319881.272,25.391,38.086,41.992,29.785,62.500,0
1508319881.276,39.062,40.039,43.457,38.574,-8.301,0
1508319881.280,34.180,32.227,46.387,43.945,14.160,0
1508319881.284,25.391,29.297,35.156,41.016,88.867,0
1508319881.288,32.227,31.738,30.762,42.969,64.941,0
1508319881.292,30.762,30.273,37.109,45.410,22.949,0
1508319881.296,23.926,32.715,38.086,43.457,40.039,0
1508319881.300,32.227,42.969,34.668,50.293,44.922,0
1508319881.304,37.109,45.898,34.180,49.805,46.387,0
1508319881.308,35.645,45.410,41.992,48.340,53.223,0
1508319881.312,36.133,44.922,35.156,45.410,16.113,0
1508319881.315,31.250,35.645,30.762,42.480,20.996,0
1508319881.319,29.785,31.738,38.086,45.410,37.109,0
1508319881.323,32.715,37.109,30.762,40.039,19.531,0
1508319881.327,35.645,46.875,32.227,31.738,19.043,0
1508319881.331,33.691,44.434,35.645,37.598,18.066,0
1508319881.335,35.645,38.086,33.203,38.086,19.043,0
1508319881.339,41.016,34.668,37.109,34.180,38.086,0
1508319881.343,36.133,43.945,33.691,39.551,44.922,0
1508319881.347,33.203,55.176,31.250,38.086,29.297,0
1508319881.351,34.668,48.340,36.133,35.645,50.781,0
1508319881.354,40.527,45.898,28.809,37.109,66.895,0
1508319881.358,43.945,45.410,25.391,33.203,51.758,0
1508319881.362,41.992,38.574,27.832,28.320,20.996,0
1508319881.366,39.551,36.621,26.367,20.020,23.438,0
1508319881.370,45.410,44.434,35.645,23.438,51.758,0
1508319881.374,38.086,42.480,37.109,30.273,48.340,0
1508319881.378,31.250,36.621,36.133,27.832,20.508,0
1508319881.382,24.902,32.227,36.133,26.367,-16.113,0
1508319881.386,12.695,31.738,33.203,29.785,19.043,0
1508319881.390,11.719,34.668,40.039,34.668,67.383,0
1508319881.394,14.160,34.180,34.668,37.109,11.230,0
1508319881.397,9.277,27.832,33.203,38.086,-20.996,0
1508319881.401,10.742,29.785,35.156,37.109,31.250,0
1508319881.405,19.531,31.738,26.855,44.434,47.363,0
1508319881.409,18.555,26.855,25.391,46.875,17.090,0
1508319881.413,21.484,27.344,23.926,45.898,-12.207,0
1508319881.417,25.879,27.832,23.926,45.898,4.395,0
1508319881.421,20.020,33.691,30.762,51.270,50.781,0
1508319881.425,17.578,34.668,35.645,51.270,33.691,0
1508319881.429,23.926,32.715,40.039,43.457,18.555,0
1508319881.433,28.809,41.504,40.039,44.922,24.902,0
1508319881.437,23.438,39.062,36.133,42.969,33.691,0
1508319881.440,19.043,35.156,34.180,38.574,29.785,0
1508319881.444,24.414,39.551,28.809,36.621,35.645,0
1508319881.448,23.926,38.574,26.855,37.109,51.758,0
1508319881.452,28.809,41.016,26.855,41.992,31.738,0
1508319881.456,35.156,37.598,27.344,45.410,36.621,0
1508319881.460,18.555,33.691,17.578,35.156,18.555,0
1508319881.464,6.348,34.180,18.066,27.344,4.883,0
1508319881.468,9.766,34.668,33.691,32.227,22.949,0
1508319881.472,15.625,32.227,36.133,39.551,15.625,0
1508319881.476,20.508,33.203,34.180,28.320,27.832,0
1508319881.479,22.949,29.297,32.715,20.996,28.320,0
1508319881.483,21.484,31.250,31.738,26.367,29.785,0
1508319881.487,19.531,38.574,44.434,36.133,82.031,0
1508319881.491,17.578,26.367,41.016,33.691,75.684,0
1508319881.495,16.113,18.066,29.297,21.973,32.715,0
1508319881.499,15.625,27.344,39.551,26.855,32.715,0
1508319881.503,12.695,33.203,46.875,33.691,55.664,0
1508319881.507,12.695,26.367,43.945,38.574,46.875,0
1508319881.511,13.184,29.297,30.762,31.738,0.488,0
1508319881.515,12.695,25.879,19.043,24.414,-6.836,0
1508319881.519,16.113,22.461,34.180,38.086,33.203,0
1508319881.522,20.996,28.809,48.828,46.387,68.848,0
1508319881.526,20.508,35.156,50.293,40.039,14.648,0
1508319881.530,22.949,39.551,53.223,40.039,1.953,0
1508319881.534,28.809,37.598,42.969,49.316,47.852,0
1508319881.538,32.715,33.203,36.621,50.781,70.312,0
1508319881.542,30.273,31.250,42.969,46.387,57.617,0
1508319881.546,32.227,28.809,41.992,42.969,16.113,0
1508319881.550,28.809,35.645,38.086,39.062,6.836,0
1508319881.554,26.367,40.039,40.527,40.527,26.367,0
1508319881.558,31.738,41.016,35.156,37.109,19.043,0
1508319881.562,35.645,42.969,37.598,37.109,-33.203,0
1508319881.565,34.668,38.086,37.598,43.457,-18.555,0
1508319881.569,36.133,38.086,28.809,51.270,50.293,0
1508319881.573,40.527,33.203,43.457,51.758,32.715,0
1508319881.577,38.086,22.949,46.875,44.922,-5.859,0
1508319881.581,32.227,22.949,39.062,43.457,13.672,0
1508319881.585,40.527,31.738,49.805,43.457,39.062,0
1508319881.589,45.898,37.598,51.758,41.016,28.809,0
1508319881.593,26.367,32.227,40.527,31.738,23.438,0
1508319881.597,16.602,35.156,35.645,32.227,36.133,0
1508319881.601,21.973,43.457,38.574,36.133,24.414,0
1508319881.604,24.902,40.039,43.457,37.109,22.461,0
1508319881.608,25.391,32.715,42.480,34.668,0.977,0
1508319881.612,22.461,37.598,38.086,28.809,-8.789,0
1508319881.616,19.531,29.785,36.621,30.273,36.621,0
1508319881.620,19.043,29.297,43.457,31.738,62.012,0
1508319881.624,22.949,42.969,53.223,34.180,46.387,0
1508319881.628,22.461,40.527,42.969,40.039,32.227,2
1508319881.632,20.508,36.621,33.203,33.691,24.902,0
1508319881.636,22.461,29.785,46.875,31.738,33.691,0
1508319881.640,27.344,29.297,58.105,47.363,44.434,0
1508319881.644,32.715,37.109,51.270,48.340,33.203,0
1508319881.647,38.086,35.645,46.875,38.086,20.996,0
1508319881.651,41.016,32.715,50.293,42.480,17.578,0
1508319881.655,42.480,38.086,44.922,44.922,50.293,0
1508319881.659,43.945,45.410,47.852,46.875,46.387,0
1508319881.663,45.898,35.156,49.316,50.293,25.391,0
1508319881.667,44.922,27.832,46.387,50.781,15.137,0
1508319881.671,40.039,35.645,39.551,45.898,15.625,0
1508319881.675,45.898,39.551,39.062,43.457,35.156,0
1508319881.679,47.363,43.457,43.457,49.805,22.461,0
1508319881.683,39.062,47.363,44.922,46.875,34.180,0
1508319881.687,38.574,41.992,50.293,41.992,89.844,0
1508319881.690,39.062,37.109,50.781,41.504,46.387,0
1508319881.694,35.156,40.527,48.340,43.457,1.465,0
1508319881.698,24.902,35.156,43.945,42.480,10.254,0
1508319881.702,22.461,37.598,50.293,39.551,34.180,0
1508319881.706,27.832,42.480,52.734,39.062,59.570,0
1508319881.710,25.391,38.086,46.387,38.574,0.977,0
1508319881.714,24.902,39.062,39.551,36.621,-23.926,0
1508319881.718,30.273,45.410,41.992,37.109,41.992,0
1508319881.722,35.645,44.922,50.781,36.621,75.195,0
1508319881.726,33.691,42.480,41.016,36.621,25.879,0
1508319881.729,24.414,40.039,31.250,32.715,-4.883,0
1508319881.733,21.484,37.109,37.109,23.438,32.715,0
1508319881.737,27.832,37.598,48.340,30.273,41.016,0
1508319881.741,28.809,41.992,58.105,32.715,11.230,0
1508319881.745,25.391,41.016,49.316,23.438,12.207,0
1508319881.749,23.438,39.551,42.969,22.949,33.691,0
1508319881.753,27.832,38.574,43.457,33.203,41.992,0
1508319881.757,28.320,38.086,42.480,37.598,1.953,0
1508319881.761,29.297,42.480,46.387,34.180,9.766,0
1508319881.765,30.762,37.109,53.223,38.086,50.781,0
1508319881.769,30.273,33.203,41.992,38.574,71.777,0
1508319881.772,36.621,36.133,41.016,46.387,60.547,0
1508319881.776,38.086,36.621,47.852,52.734,22.461,0
1508319881.780,36.133,34.180,45.898,48.340,36.133,0
1508319881.784,38.574,33.691,52.734,50.781,70.801,0
1508319881.788,33.203,35.156,49.805,52.734,43.945,0
1508319881.792,25.879,41.504,44.922,55.176,-26.855,0
1508319881.796,28.320,45.410,45.410,54.688,-29.785,0
1508319881.800,36.133,42.969,47.363,56.152,-13.184,0
1508319881.804,37.598,47.363,51.270,53.223,29.785,0
1508319881.808,37.598,47.363,50.293,37.109,90.820,0
1508319881.812,33.691,42.969,39.062,31.738,52.734,0
1508319881.815,24.902,37.598,32.715,36.133,33.203,0
1508319881.819,22.461,34.180,45.898,40.039,70.312,0
1508319881.823,27.344,36.621,48.340,39.062,60.547,0
1508319881.827,29.785,34.668,40.039,35.645,6.348,0
1508319881.831,24.414,31.738,43.457,37.598,-20.996,0
1508319881.835,17.090,34.668,41.504,38.574,24.414,0
1508319881.839,20.020,39.062,41.016,39.062,70.801,0
1508319881.843,21.973,41.504,44.434,36.133,25.879,0
1508319881.847,21.484,38.086,40.527,35.156,-25.879,0
1508319881.851,27.832,38.086,30.273,33.203,16.602,0
1508319881.854,32.227,42.969,31.250,26.367,74.707,0
1508319881.858,32.227,43.945,42.969,27.344,30.273,0
1508319881.862,30.273,43.945,46.387,26.367,-1.465,0
1508319881.866,30.762,41.992,44.434,28.809,47.363,0
1508319881.870,25.391,35.645,47.852,35.156,77.148,0
1508319881.874,14.648,38.086,48.340,37.109,59.082,0
1508319881.878,9.766,31.738,39.551,37.109,18.555,0
1508319881.882,14.160,30.273,31.250,38.574,20.508,0
1508319881.886,18.066,37.598,38.086,51.270,55.176,0
1508319881.890,15.137,30.273,49.805,54.688,48.340,0
1508319881.894,13.672,30.273,43.945,41.992,-13.184,0
1508319881.897,18.555,33.203,40.039,44.922,-5.371,0
1508319881.901,19.043,27.344,46.387,48.340,49.316,0
1508319881.905,17.090,26.367,47.852,37.109,38.574,0
1508319881.909,18.555,29.297,47.363,26.367,16.602,0
1508319881.913,23.438,28.809,52.246,32.227,44.922,0
1508319881.917,31.738,31.738,45.410,44.922,58.105,0
1508319881.921,33.203,29.297,42.480,42.480,41.992,0
1508319881.925,32.227,35.645,45.410,37.109,44.434,0
1508319881.929,34.180,41.016,45.410,36.133,14.160,0
1508319881.933,39.062,44.922,39.551,39.062,11.230,0
1508319881.937,39.062,49.805,31.250,38.086,25.879,0
1508319881.940,45.898,43.945,37.109,39.062,31.250,0
1508319881.944,43.457,43.945,36.133,39.551,32.227,0
1508319881.948,31.738,47.363,27.832,29.297,18.555,0
1508319881.952,29.785,41.504,31.250,27.344,43.945,0
1508319881.956,31.738,44.922,35.645,29.785,41.016,0
1508319881.960,42.480,47.852,36.133,39.551,19.531,0
1508319881.964,41.992,45.898,37.598,41.016,0.977,0
1508319881.968,40.527,41.504,34.668,33.203,16.602,0
1508319881.972,40.039,34.180,34.180,36.133,51.270,0
1508319881.976,30.273,34.180,38.086,37.109,21.484,0
1508319881.979,23.438,39.551,39.062,38.574,-15.137,0
1508319881.983,15.137,47.363,33.203,40.527,9.766,0
1508319881.987,9.766,39.551,30.273,38.086,67.871,0
1508319881.991,8.789,33.691,34.668,33.203,55.664,0
1508319881.995,0.977,39.551,36.621,24.902,-14.648,0
1508319881.999,-1.465,42.480,36.621,22.461,10.254,0
1508319882.003,-2.441,31.738,38.086,30.762,73.730,0
1508319882.007,1.953,28.320,39.062,35.156,52.246,0
1508319882.011,12.207,38.086,41.504,35.645,19.043,0
1508319882.015,18.066,41.016,42.480,45.410,12.207,0
1508319882.019,14.648,36.133,35.156,45.410,49.316,0
1508319882.022,17.578,35.156,36.133,40.039,33.203,0
1508319882.026,29.297,38.086,35.645,38.086,-20.996,0
1508319882.030,28.809,40.039,27.832,40.039,6.348,0
1508319882.034,26.855,39.551,28.320,44.434,46.387,0
1508319882.038,27.344,34.180,39.062,39.062,31.250,0
1508319882.042,24.414,33.203,33.691,32.715,-4.395,0
1508319882.046,27.344,41.016,23.926,37.109,14.160,0
1508319882.050,33.203,51.270,32.227,39.062,66.895,0
1508319882.054,32.227,54.688,31.738,36.133,74.219,0
1508319882.058,35.645,45.410,23.926,35.156,32.715,0
1508319882.062,39.551,44.922,20.508,35.645,15.625,0
1508319882.065,35.156,53.223,25.391,39.062,34.180,0
1508319882.069,42.480,49.805,41.016,43.457,47.852,0
1508319882.073,44.434,40.039,41.504,45.410,43.457,0
1508319882.077,41.016,43.457,27.832,34.668,29.785,0
1508319882.081,42.480,35.645,32.227,29.297,21.973,0
1508319882.085,38.086,36.133,41.016,38.086,4.395,0
1508319882.089,41.016,47.852,41.504,41.992,4.395,0
1508319882.093,41.504,46.875,31.250,38.086,31.250,0
1508319882.097,38.086,43.457,32.227,37.109,35.156,0
1508319882.101,36.621,36.621,43.945,45.410,17.090,0
1508319882.104,38.086,37.598,35.156,47.363,56.152,0
1508319882.108,42.480,37.598,32.227,47.363,68.848,0
1508319882.112,39.062,33.203,47.363,44.922,15.625,0
1508319882.116,29.297,41.992,53.223,29.297,11.230,0
1508319882.120,21.973,34.668,46.875,18.555,48.828,0
1508319882.124,13.184,29.297,44.434,23.926,57.617,0
1508319882.128,11.230,39.062,47.363,37.598,1.953,3
1508319882.132,11.719,39.062,40.527,37.109,-7.812,0
1508319882.136,3.418,33.691,39.551,31.250,55.664,0
1508319882.140,4.883,35.156,34.180,36.133,83.496,0
1508319882.144,2.441,37.598,35.645,37.598,20.020,0
1508319882.147,-2.930,35.156,43.457,36.133,-6.348,0
1508319882.151,2.930,35.645,40.039,38.086,55.664,0
1508319882.155,6.836,41.992,39.062,42.969,77.637,0
1508319882.159,6.836,38.086,40.039,47.363,45.410,0
1508319882.163,6.836,33.691,34.180,40.039,21.484,0
1508319882.167,19.043,44.434,29.785,38.086,25.391,0
1508319882.171,31.250,38.574,30.762,42.969,50.293,0
1508319882.175,28.320,34.180,29.785,50.293,17.578,0
1508319882.179,26.367,38.574,33.691,53.223,-36.621,0
1508319882.183,31.738,48.340,36.133,47.363,1.465,0
1508319882.187,31.738,50.293,29.297,40.039,45.410,0
1508319882.190,30.273,46.875,24.902,33.691,48.828,0
1508319882.194,25.879,45.898,31.250,34.668,33.691,0
1508319882.198,23.926,42.969,42.480,35.645,19.043,0
1508319882.202,33.203,48.340,41.016,33.691,50.781,0
1508319882.206,20.508,41.504,39.551,30.273,56.152,0
1508319882.210,19.043,38.086,45.898,37.109,20.020,0
1508319882.214,26.855,41.016,39.551,35.156,20.996,0
1508319882.218,23.926,39.551,39.062,37.109,41.016,0
1508319882.222,23.438,43.457,41.504,39.551,31.738,0
1508319882.226,20.996,41.504,33.691,33.691,8.301,0
1508319882.229,20.020,31.250,29.785,28.320,20.020,0
1508319882.233,24.902,35.645,41.016,26.855,48.828,0
1508319882.237,29.785,40.527,40.039,33.203,69.824,0
1508319882.241,24.902,36.621,32.715,36.133,66.406,0
1508319882.245,22.461,32.715,39.062,37.109,37.109,0
1508319882.249,31.738,31.738,41.992,49.805,34.180,0
1508319882.253,33.203,40.039,41.992,59.082,41.016,0
1508319882.257,36.621,45.410,36.621,62.012,30.762,0
1508319882.261,45.410,42.480,34.180,61.035,1.465,0
1508319882.265,41.992,37.598,36.133,52.734,-10.254,0
1508319882.269,35.645,42.969,30.762,52.734,32.227,0
1508319882.272,35.156,44.922,27.832,56.641,40.039,0
1508319882.276,32.227,30.762,38.574,56.641,30.762,0
1508319882.280,30.762,36.133,32.227,49.805,26.367,0
1508319882.284,31.738,41.992,32.227,55.664,27.344,0
1508319882.288,27.832,36.133,42.480,56.641,84.473,0
1508319882.292,21.973,34.668,34.668,40.527,57.617,0
1508319882.296,25.391,36.621,29.785,31.738,-2.441,0
1508319882.300,31.250,43.945,35.156,32.715,28.809,0
1508319882.304,27.344,42.969,37.598,33.203,50.293,0
1508319882.308,25.391,41.016,33.691,33.691,6.836,0
1508319882.312,27.832,48.340,29.785,31.738,-20.020,0
1508319882.315,24.414,42.969,25.879,27.344,15.137,0
1508319882.319,21.484,34.668,31.250,29.785,43.457,0
1508319882.323,22.461,37.109,29.785,33.691,7.812,0
1508319882.327,23.438,36.133,27.344,31.738,-30.273,0
1508319882.331,23.438,33.691,33.691,24.902,0.977,0
1508319882.335,27.344,37.109,37.109,21.973,69.336,0
1508319882.339,27.832,37.598,34.668,24.902,83.984,0
1508319882.343,26.367,33.691,40.039,34.180,31.738,0
1508319882.347,38.086,32.715,52.734,41.016,18.066,0
1508319882.351,40.527,41.504,50.293,23.438,27.832,0
1508319882.354,28.320,45.410,37.598,13.184,23.926,0
1508319882.358,34.668,45.898,23.438,26.855,19.531,0
1508319882.362,40.039,42.969,20.996,34.180,25.879,0
1508319882.366,30.762,37.598,36.621,28.809,39.062,0
1508319882.370,26.855,42.480,36.133,28.320,62.988,0
1508319882.374,25.391,40.039,26.855,32.227,76.660,0
1508319882.378,20.508,44.922,26.367,36.621,39.062,0
1508319882.382,20.508,43.945,33.203,44.434,11.230,0
1508319882.386,15.625,33.691,38.086,43.945,33.203,0
1508319882.390,19.043,31.738,28.809,39.551,41.016,0
1508319882.394,31.738,31.738,32.715,40.527,19.043,0
1508319882.397,32.227,34.180,43.945,50.293,13.672,0
1508319882.401,31.738,39.551,36.133,56.641,0.000,0
1508319882.405,35.645,38.574,40.039,54.688,21.973,0
1508319882.409,34.180,31.250,48.340,56.641,50.293,0
1508319882.413,26.367,33.203,47.363,56.641,16.602,0
1508319882.417,26.855,39.062,44.434,52.246,22.461,0
1508319882.421,37.109,37.598,40.527,50.293,51.270,0
1508319882.425,34.668,30.762,39.062,52.246,41.992,0
1508319882.429,31.738,41.504,33.203,45.410,23.926,0
1508319882.433,34.668,41.016,33.691,30.762,49.316,0
1508319882.437,36.133,41.992,41.992,34.668,73.242,0
1508319882.440,33.203,43.457,34.668,35.156,17.090,0
1508319882.444,32.227,43.945,20.508,37.109,-25.391,0
1508319882.448,40.527,49.805,26.367,35.645,-1.465,0
1508319882.452,45.410,40.039,31.738,26.367,49.316,0
1508319882.456,38.086,34.180,29.785,24.414,36.133,0
1508319882.460,20.020,36.621,32.227,10.742,30.762,0
1508319882.464,18.066,34.668,41.504,3.906,40.527,0
1508319882.468,21.484,29.785,49.805,4.883,52.734,0
1508319882.472,17.090,29.297,43.457,5.859,64.453,0
1508319882.476,17.090,39.551,39.551,8.301,2.930,0
1508319882.479,19.043,43.945,43.457,12.695,0.000,0
1508319882.483,10.254,35.645,46.387,24.902,53.223,0
1508319882.487,10.254,37.109,45.898,32.227,57.617,0
1508319882.491,17.090,27.344,45.898,30.273,20.996,0
1508319882.495,20.508,26.367,44.922,29.785,-7.812,0
1508319882.499,26.367,32.227,39.551,31.738,20.020,0
1508319882.503,25.879,29.785,44.922,39.551,71.777,0
1508319882.507,19.043,27.344,44.434,40.527,29.297,0
1508319882.511,13.672,28.320,43.945,28.809,2.930,0
1508319882.515,14.648,34.180,42.969,30.273,25.879,0
1508319882.519,14.648,35.156,43.457,45.410,38.086,0
1508319882.522,17.090,28.809,47.852,54.688,55.664,0
1508319882.526,26.367,21.484,45.410,51.758,31.738,0
1508319882.530,24.902,19.531,41.504,43.457,12.695,0
1508319882.534,23.926,20.020,38.574,48.340,43.945,0
1508319882.538,34.180,22.461,53.711,64.941,53.711,0
1508319882.542,34.668,32.227,49.805,62.988,41.016,0
1508319882.546,30.273,41.992,29.785,40.527,14.648,0
1508319882.550,31.738,42.969,31.250,32.715,9.277,0
1508319882.554,29.297,45.410,33.691,41.504,39.062,0
1508319882.558,29.785,42.480,33.203,43.945,52.246,0
1508319882.562,29.785,36.133,37.598,37.109,-5.371,0
1508319882.565,24.414,35.156,38.574,28.320,-27.832,0
1508319882.569,30.273,45.410,35.645,21.484,26.855,0
1508319882.573,34.668,45.898,27.832,16.113,51.270,0
1508319882.577,30.273,47.363,25.391,14.160,47.363,0
1508319882.581,27.344,56.152,37.109,16.602,9.277,0
1508319882.585,22.949,46.875,38.574,13.184,9.766,0
1508319882.589,14.648,42.969,27.344,8.789,54.199,0
1508319882.593,20.508,42.480,32.227,16.113,31.738,0
1508319882.597,31.738,38.574,36.133,24.902,-29.297,0
1508319882.601,27.832,39.062,32.227,27.832,25.391,0
1508319882.604,17.578,39.551,30.762,20.020,66.406,0
1508319882.608,15.625,41.016,31.250,15.137,18.555,0
1508319882.612,18.555,41.016,36.621,24.902,-12.695,0
1508319882.616,21.973,47.852,34.180,26.367,13.672,0
1508319882.620,24.414,47.363,31.250,22.949,55.664,0
1508319882.624,22.949,40.039,37.598,32.715,32.227,0
1508319882.628,20.508,38.574,42.480,41.992,0.488,4
1508319882.632,15.625,37.598,42.969,47.852,14.648,0
1508319882.636,20.508,39.551,47.363,49.805,58.594,0
1508319882.640,22.949,41.504,47.852,46.875,46.387,0
1508319882.644,22.949,38.086,50.293,43.945,-1.953,0
1508319882.647,23.438,34.180,43.945,53.223,22.461,0
1508319882.651,21.484,34.668,39.062,60.547,55.176,0
1508319882.655,19.043,27.344,44.434,57.617,47.852,0
1508319882.659,20.508,29.297,45.898,53.223,24.902,0
1508319882.663,16.602,37.109,41.992,44.922,13.672,0
1508319882.667,16.113,34.180,35.645,38.086,11.719,0
1508319882.671,23.926,37.598,37.109,34.668,47.363,0
1508319882.675,14.648,40.039,36.621,26.855,43.945,0
1508319882.679,14.160,34.180,46.387,28.809,15.625,0
1508319882.683,25.879,40.527,53.223,33.691,11.719,0
1508319882.687,30.762,40.527,48.828,29.297,5.859,0
1508319882.690,31.250,32.227,47.852,37.109,30.273,0
1508319882.694,29.785,32.227,41.504,39.062,16.113,0
1508319882.698,28.809,32.715,35.156,28.809,-14.160,0
1508319882.702,27.344,36.621,38.574,26.367,14.160,0
1508319882.706,19.043,38.086,42.969,36.133,67.871,0
1508319882.710,20.508,38.086,36.133,35.156,68.848,0
1508319882.714,22.949,39.062,32.715,20.508,27.344,0
1508319882.718,16.113,38.574,32.715,15.625,36.133,0
1508319882.722,14.648,37.109,36.621,21.973,58.105,0
1508319882.726,10.742,34.668,41.016,22.461,56.152,0
1508319882.729,10.742,37.109,40.039,18.066,46.875,0
1508319882.733,21.973,35.156,44.922,28.809,15.137,0
1508319882.737,33.203,39.551,47.363,42.969,48.340,0
1508319882.741,28.809,43.457,48.828,38.574,62.988,0
1508319882.745,22.461,36.133,50.293,33.691,10.742,0
1508319882.749,20.996,37.109,47.363,40.527,30.273,0
1508319882.753,15.137,33.691,48.828,46.875,71.289,0
1508319882.757,18.066,35.156,47.363,51.270,55.176,0
1508319882.761,24.902,33.203,43.457,51.270,29.297,0
1508319882.765,24.414,30.273,36.621,45.410,16.602,0
1508319882.769,28.809,38.574,36.133,47.852,60.547,0
1508319882.772,25.879,40.039,48.340,38.574,53.223,0
1508319882.776,26.855,34.180,54.199,36.621,-26.855,0
1508319882.780,25.879,33.691,47.363,44.434,16.602,0
1508319882.784,22.949,35.645,43.457,44.922,68.359,0
1508319882.788,26.855,36.621,43.457,49.805,72.754,0
1508319882.792,18.555,30.273,47.363,51.758,55.664,0
1508319882.796,13.672,31.738,49.316,45.898,10.254,0
1508319882.800,18.555,32.715,43.457,47.852,41.016,0
1508319882.804,18.066,36.621,40.039,50.293,59.082,0
1508319882.808,16.602,36.621,42.969,48.828,21.484,0
1508319882.812,20.508,29.297,40.527,49.805,39.551,0
1508319882.815,16.602,35.645,32.227,43.945,72.754,0
1508319882.819,20.020,42.480,41.016,41.504,56.641,0
1508319882.823,31.738,40.527,50.781,38.086,53.711,0
1508319882.827,32.227,37.598,50.781,36.621,31.738,0
1508319882.831,33.691,41.504,45.410,41.016,15.137,0
1508319882.835,36.133,43.457,44.434,41.504,36.621,0
1508319882.839,38.574,41.992,46.875,42.480,25.879,0
1508319882.843,31.738,44.434,49.805,40.527,0.977,0
1508319882.847,22.949,44.434,47.852,35.156,-8.789,0
1508319882.851,28.809,44.922,41.016,40.039,25.391,0
1508319882.854,35.645,53.223,35.645,43.457,43.945,0
1508319882.858,34.180,46.387,29.297,41.992,44.922,0
1508319882.862,32.227,33.691,33.203,35.645,14.160,0
1508319882.866,35.156,43.457,36.621,34.180,25.879,0
1508319882.870,30.762,41.016,42.969,35.156,52.246,0
1508319882.874,22.461,34.668,51.270,34.180,31.250,0
1508319882.878,9.277,31.738,38.086,30.762,15.137,0
1508319882.882,0.977,31.738,30.762,26.367,26.367,0
1508319882.886,-1.465,40.527,38.574,25.391,83.008,0
1508319882.890,0.000,38.086,39.551,26.855,87.891,0
1508319882.894,12.207,36.133,42.969,34.668,-2.441,0
1508319882.897,14.648,35.645,42.969,36.621,-21.484,0
1508319882.901,9.277,27.344,41.504,35.156,39.062,0
1508319882.905,4.395,24.414,44.434,26.367,62.012,0
1508319882.909,4.883,34.668,30.273,20.996,27.832,0
1508319882.913,17.578,41.504,33.691,26.367,-2.930,0
1508319882.917,23.438,40.527,42.480,30.762,55.664,0
1508319882.921,18.555,37.598,40.527,37.598,85.449,0
1508319882.925,18.066,39.551,45.410,37.598,54.199,0
1508319882.929,24.902,38.086,39.062,38.574,14.648,0
1508319882.933,28.320,34.668,38.574,44.434,21.973,0
1508319882.937,27.832,35.156,44.922,38.086,66.895,0
1508319882.940,22.461,30.762,36.621,27.832,29.785,0
1508319882.944,20.020,38.574,33.691,30.762,-8.789,0
1508319882.948,25.391,40.039,40.039,39.551,45.898,0
1508319882.952,22.461,30.273,46.875,43.945,63.477,0
1508319882.956,13.672,35.645,41.992,46.387,39.551,0
1508319882.960,13.672,41.016,31.738,41.504,9.277,0
1508319882.964,19.531,40.527,42.969,39.062,-28.320,0
1508319882.968,23.438,39.062,52.734,35.645,-6.348,0
1508319882.972,23.438,41.504,47.852,36.133,24.902,0
1508319882.976,22.461,43.457,39.062,34.180,17.090,0
1508319882.979,12.207,37.598,32.227,26.367,20.996,0
1508319882.983,8.301,36.621,35.156,18.066,45.898,0
1508319882.987,14.648,36.133,33.691,23.926,45.410,0
1508319882.991,17.578,34.668,30.762,20.508,50.781,0
1508319882.995,24.414,39.551,27.344,20.508,22.461,0
1508319882.999,25.391,47.363,31.250,19.531,1.465,0
1508319883.003,20.508,47.852,37.598,10.742,42.480,0
1508319883.007,16.602,42.969,35.156,15.625,44.922,0
1508319883.011,14.160,42.969,36.133,18.066,14.160,0
1508319883.015,14.648,45.898,40.039,19.043,32.227,0
1508319883.019,3.418,47.363,39.551,9.277,47.852,0
1508319883.022,-13.184,44.434,41.016,-8.789,70.801,0
1508319883.026,-18.066,45.410,41.504,-16.113,57.129,0
1508319883.030,-27.832,45.898,43.457,-24.414,-2.441,0
1508319883.034,-35.156,47.363,49.805,-31.250,-2.930,0
1508319883.038,-44.922,45.898,46.387,-37.109,50.781,0
1508319883.042,-59.082,44.922,47.363,-44.434,53.711,0
1508319883.046,-66.406,48.828,47.852,-58.105,8.301,0
1508319883.050,-76.660,46.387,49.805,-66.406,32.227,0
1508319883.054,-87.891,43.945,56.641,-78.613,61.523,0
1508319883.058,-98.145,43.945,53.223,-94.238,25.391,0
1508319883.062,-109.375,34.668,45.410,-94.727,-20.996,0
1508319883.065,-119.629,32.715,48.340,-104.004,3.418,0
1508319883.069,-127.930,34.668,49.805,-121.582,50.293,0
1508319883.073,-134.277,21.484,56.152,-126.465,19.043,0
1508319883.077,-136.719,19.531,60.547,-129.883,-17.578,0
1508319883.081,-139.160,26.855,52.246,-132.324,11.230,0
1508319883.085,-134.766,13.184,57.617,-125.488,71.289,0
1508319883.089,-124.023,8.789,66.895,-122.559,57.129,0
1508319883.093,-116.699,16.602,64.453,-119.629,30.273,0
1508319883.097,-115.723,9.766,61.035,-112.793,38.086,0
1508319883.101,-97.656,9.277,54.199,-96.680,34.668,0
1508319883.104,-77.148,17.578,54.199,-81.055,53.711,0
1508319883.108,-66.895,26.855,57.129,-71.289,36.133,0
1508319883.112,-49.805,27.344,62.988,-48.828,26.855,0
1508319883.116,-33.203,16.602,57.617,-27.832,52.246,0
1508319883.120,-20.508,16.602,52.734,-13.184,23.438,0
1508319883.124,-8.301,25.879,54.199,1.953,-12.695,0
1508319883.128,-5.859,24.414,36.621,6.348,21.973,5
1508319883.132,2.930,26.855,38.574,12.207,45.898,0
1508319883.136,21.973,34.668,52.734,27.832,40.039,0
1508319883.140,39.062,40.527,50.293,33.203,53.223,0
1508319883.144,43.945,44.434,40.039,37.109,46.387,0
1508319883.147,47.852,33.691,27.832,51.270,-5.371,0
1508319883.151,50.781,31.250,18.066,50.293,1.953,0
1508319883.155,51.270,41.504,28.809,50.781,52.734,0
1508319883.159,58.594,43.457,40.039,57.129,41.016,0
1508319883.163,64.941,38.086,30.762,61.035,-8.789,0
1508319883.167,66.895,43.945,22.949,73.242,24.902,0
1508319883.171,66.895,39.062,26.367,77.637,100.586,0
1508319883.175,66.406,36.621,22.949,68.848,83.008,0
1508319883.179,74.707,42.480,9.766,72.754,16.602,0
1508319883.183,78.613,52.734,9.277,77.148,30.762,0
1508319883.187,79.102,47.363,6.836,83.496,40.039,0
1508319883.190,80.566,41.992,10.742,97.168,17.090,0
1508319883.194,79.102,43.945,20.020,98.633,-3.418,0
1508319883.198,76.172,43.457,24.414,85.449,-4.883,0
1508319883.202,78.613,47.363,25.391,83.984,77.637,0
1508319883.206,84.473,42.480,19.043,83.008,92.773,0
1508319883.210,86.426,44.922,24.414,88.867,13.184,0
1508319883.214,96.191,48.828,29.297,96.191,-0.488,0
1508319883.218,98.633,46.875,34.668,96.191,46.875,0
1508319883.222,90.820,45.410,35.645,105.469,49.316,0
1508319883.226,89.355,53.711,21.973,108.887,7.812,0
1508319883.229,92.773,52.734,20.508,102.539,2.930,0
1508319883.233,98.633,46.875,30.273,98.633,37.598,0
1508319883.237,91.309,46.387,31.250,99.121,54.688,0
1508319883.241,86.426,46.387,25.391,91.797,20.020,0
1508319883.245,90.332,48.828,32.227,87.402,-18.555,0
1508319883.249,89.844,47.363,37.598,89.355,7.812,0
1508319883.253,85.938,46.875,27.344,88.867,56.152,0
1508319883.257,80.078,45.898,32.227,92.773,15.625,0
1508319883.261,72.266,45.410,37.598,85.938,-14.648,0
1508319883.265,66.406,46.387,34.180,74.219,41.016,0
1508319883.269,71.289,46.387,27.832,77.148,54.199,0
1508319883.272,77.148,51.270,25.391,82.031,28.809,0
1508319883.276,77.637,48.828,27.832,78.125,29.297,0
1508319883.280,79.590,43.945,31.250,71.289,45.410,0
1508319883.284,79.590,38.574,29.785,82.520,64.941,0
1508319883.288,70.801,34.180,32.227,84.961,53.223,0
1508319883.292,69.336,46.387,41.504,80.566,7.324,0
1508319883.296,74.219,42.969,41.016,83.008,9.766,0
1508319883.300,73.242,42.969,36.621,72.754,33.203,0
1508319883.304,73.730,50.293,33.203,76.172,18.066,0
1508319883.308,78.125,40.039,37.598,85.938,32.227,0
1508319883.312,75.684,36.621,38.574,75.195,7.812,0
1508319883.315,72.754,36.621,35.156,70.312,-3.906,0
1508319883.319,74.219,33.203,37.109,72.754,70.801,0
1508319883.323,75.195,40.527,45.898,80.566,77.637,0
1508319883.327,79.102,48.828,41.016,80.078,-10.254,0
1508319883.331,78.613,40.527,36.133,85.449,-13.672,0
1508319883.335,80.078,43.457,41.016,87.402,42.480,0
1508319883.339,80.078,45.410,40.527,75.195,57.617,0
1508319883.343,80.078,35.645,44.922,71.289,6.836,0
1508319883.347,84.961,39.551,49.316,70.801,-29.297,0
1508319883.351,83.008,40.527,44.922,70.801,22.949,0
1508319883.354,82.520,39.551,35.645,73.242,62.500,0
1508319883.358,79.590,40.039,33.203,72.754,14.160,0
1508319883.362,72.754,42.969,38.086,68.359,-14.648,0
1508319883.366,75.684,42.969,44.434,67.383,50.781,0
1508319883.370,78.613,37.598,41.992,72.266,85.449,0
1508319883.374,79.102,41.504,39.551,70.801,59.570,0
1508319883.378,81.543,49.316,42.480,65.430,13.184,0
1508319883.382,72.266,43.945,35.156,58.105,3.906,0
1508319883.386,61.035,31.738,32.227,57.617,36.621,0
1508319883.390,62.500,36.133,44.434,64.453,29.785,0
1508319883.394,56.152,39.062,44.922,59.570,6.836,0
1508319883.397,52.246,41.016,41.992,53.711,35.156,0
1508319883.401,56.152,42.480,39.062,54.199,64.453,0
1508319883.405,58.105,40.527,46.875,59.570,28.320,0
1508319883.409,59.570,38.574,49.316,60.547,-6.836,0
1508319883.413,50.781,35.645,36.621,52.734,34.180,0
1508319883.417,53.223,40.039,35.156,52.734,42.969,0
1508319883.421,53.711,45.410,38.086,52.246,44.434,0
1508319883.425,48.828,41.504,40.039,46.387,53.711,0
1508319883.429,46.387,38.574,40.527,44.922,7.812,0
1508319883.433,48.828,46.875,30.762,47.852,-5.371,0
1508319883.437,49.316,41.016,27.344,43.945,27.832,0
1508319883.440,50.293,34.180,38.086,47.363,28.320,0
1508319883.444,54.199,35.156,33.203,53.223,12.695,0
1508319883.448,49.805,32.227,33.691,46.875,16.602,0
1508319883.452,43.457,37.598,44.922,43.457,34.668,0
1508319883.456,42.480,32.715,41.016,47.363,33.691,0
1508319883.460,49.316,37.598,36.621,52.734,-2.441,0
1508319883.464,53.223,48.340,45.898,50.781,-20.996,0
1508319883.468,50.293,48.828,46.387,56.152,-3.906,0
1508319883.472,50.781,40.527,45.410,62.012,37.598,0
1508319883.476,48.828,37.598,41.504,55.664,25.391,0
1508319883.479,41.016,40.527,35.645,44.434,11.230,0
1508319883.483,40.039,41.992,36.133,37.598,41.992,0
1508319883.487,39.551,42.480,24.414,35.645,31.738,0
1508319883.491,36.133,43.945,19.043,37.598,-13.672,0
1508319883.495,34.668,44.922,34.180,30.273,-15.137,0
1508319883.499,37.109,44.922,39.062,25.391,11.230,0
1508319883.503,40.039,37.598,39.551,28.809,54.688,0
1508319883.507,38.086,39.062,45.898,31.738,43.945,0
1508319883.511,35.156,40.039,42.480,30.762,-24.414,0
1508319883.515,39.551,36.133,42.480,29.297,1.953,0
1508319883.519,39.551,38.574,44.434,25.879,71.777,0
1508319883.522,40.039,35.156,43.457,29.785,58.105,0
1508319883.526,42.969,30.762,36.133,40.039,-28.320,0
1508319883.530,38.086,32.715,28.809,39.551,-24.902,0
1508319883.534,34.668,40.039,30.762,35.156,42.480,0
1508319883.538,32.715,42.480,34.180,38.086,45.898,0
1508319883.542,32.715,32.715,38.574,39.551,16.602,0
1508319883.546,40.039,30.273,45.410,33.691,18.066,0
1508319883.550,43.945,37.109,45.898,31.738,20.508,0
1508319883.554,48.340,42.969,38.574,34.180,37.109,0
1508319883.558,53.223,36.133,28.320,32.227,50.781,0
1508319883.562,47.852,28.320,33.691,27.344,6.348,0
1508319883.565,48.828,43.457,45.410,31.250,4.883,0
1508319883.569,45.898,46.875,38.574,29.297,46.387,0
1508319883.573,41.504,38.086,41.504,26.367,10.254,0
1508319883.577,45.898,38.574,52.734,37.598,10.742,0
1508319883.581,40.527,39.551,34.180,47.852,32.227,0
1508319883.585,37.109,33.203,26.855,53.223,13.672,0
1508319883.589,33.203,30.273,40.039,45.898,24.414,0
1508319883.593,30.762,30.762,26.367,41.992,21.484,0
1508319883.597,33.203,29.785,26.855,50.781,15.137,0
1508319883.601,32.227,34.180,47.852,50.781,8.301,0
1508319883.604,26.367,35.645,44.922,42.480,22.461,0
1508319883.608,28.809,31.250,36.133,40.039,60.059,0
1508319883.612,34.668,36.621,39.551,45.410,35.156,0
1508319883.616,34.668,40.039,49.316,49.316,16.113,0
1508319883.620,29.297,40.039,41.504,43.945,44.434,0
1508319883.624,28.320,41.504,28.320,38.086,52.734,0
1508319883.628,34.668,32.227,28.320,41.504,34.668,0
1508319883.632,29.297,31.250,31.250,37.598,4.883,0
1508319883.636,28.809,41.504,36.621,38.574,52.734,0
1508319883.640,28.809,39.062,40.039,40.039,72.754,0
1508319883.644,26.367,38.086,34.180,32.227,-8.301,0
1508319883.647,30.273,41.016,43.945,36.621,-15.137,0
1508319883.651,31.250,35.645,42.480,39.062,52.246,0
1508319883.655,23.438,36.621,33.691,31.250,62.012,0
1508319883.659,23.926,42.969,39.062,30.762,12.695,0
1508319883.663,26.367,42.969,39.062,36.621,-1.465,0
1508319883.667,22.461,41.992,32.227,37.109,29.785,0
1508319883.671,29.785,45.898,36.133,38.574,57.129,0
1508319883.675,34.668,48.828,38.086,42.480,28.320,0
1508319883.679,23.926,41.504,31.250,41.992,-16.602,0
1508319883.683,28.320,39.062,37.109,43.945,30.762,0
1508319883.687,40.039,41.992,43.457,49.805,77.637,0
1508319883.690,41.992,41.504,42.969,51.758,23.926,0
1508319883.694,37.109,39.551,33.203,48.340,-7.324,0
1508319883.698,26.855,32.715,35.156,49.805,23.438,0
1508319883.702,22.461,37.598,44.434,56.152,57.129,0
1508319883.706,25.391,47.852,35.156,55.664,59.082,0
1508319883.710,32.227,35.156,29.785,47.363,44.434,0
1508319883.714,28.809,34.180,37.109,38.086,44.922,0
1508319883.718,27.344,41.504,43.457,35.156,65.918,0
1508319883.722,30.762,32.227,40.039,44.434,47.363,0
1508319883.726,29.785,34.180,35.645,48.828,21.973,0
1508319883.729,32.715,35.156,41.016,35.156,33.691,0
1508319883.733,29.785,32.227,47.852,32.227,64.453,0
1508319883.737,22.949,36.621,44.922,38.574,52.734,0
1508319883.741,26.855,38.086,44.434,36.621,20.020,0
1508319883.745,25.391,33.203,39.062,33.691,19.043,0
1508319883.749,23.926,39.551,28.320,32.715,25.879,0
1508319883.753,27.832,39.551,29.785,34.180,41.504,0
1508319883.757,31.738,37.598,33.691,32.715,31.250,0
1508319883.761,38.086,39.062,31.738,30.762,7.812,0
1508319883.765,38.574,36.621,25.391,30.273,-9.277,0
1508319883.769,33.203,40.527,24.902,27.344,3.906,0
1508319883.772,38.086,42.969,32.715,28.809,19.043,0
1508319883.776,40.527,36.621,34.180,29.297,5.859,0
1508319883.780,45.410,36.133,40.039,32.227,2.930,0
1508319883.784,48.828,37.598,45.898,35.156,53.223,0
1508319883.788,42.480,40.039,42.969,35.156,82.031,0
1508319883.792,38.574,40.039,33.203,39.062,25.879,0
1508319883.796,40.527,36.621,34.180,43.945,0.488,0
1508319883.800,41.504,37.109,45.898,44.434,18.555,0
1508319883.804,46.387,42.480,46.875,50.293,64.941,0
1508319883.808,46.387,41.016,36.621,47.852,41.504,0
1508319883.812,35.645,42.480,20.020,35.156,-18.066,0
1508319883.815,36.133,37.598,28.320,38.574,10.254,0
1508319883.819,38.086,25.391,47.852,35.645,51.270,0
1508319883.823,33.691,30.762,48.340,41.016,46.875,0
1508319883.827,28.809,36.133,39.551,48.340,1.953,0
1508319883.831,31.250,37.109,41.016,40.039,31.738,0
1508319883.835,32.227,36.621,49.316,41.016,73.242,0
1508319883.839,30.273,38.574,45.898,40.039,26.855,0
1508319883.843,24.414,41.992,41.016,32.715,20.020,0
1508319883.847,28.320,39.062,44.922,41.992,42.480,0
1508319883.851,25.391,36.133,35.645,43.945,60.547,0
1508319883.854,21.484,34.668,38.086,41.992,33.203,0
1508319883.858,26.855,31.250,48.340,43.457,-19.043,0
1508319883.862,29.297,39.062,44.434,35.156,7.324,0
1508319883.866,30.762,44.434,43.945,26.855,51.758,0
1508319883.870,28.809,43.945,43.457,33.691,27.832,0
1508319883.874,27.832,42.480,45.898,39.551,8.789,0
1508319883.878,29.297,42.480,45.410,34.668,13.184,0
1508319883.882,34.668,42.480,41.992,34.668,0.000,0
1508319883.886,32.715,37.598,41.016,27.344,34.180,0
1508319883.890,24.902,36.621,44.922,21.484,53.711,0
1508319883.894,28.320,44.922,51.270,32.715,10.742,0
1508319883.897,31.738,41.992,50.781,33.691,-20.020,0
1508319883.901,26.855,34.180,45.410,26.855,-0.488,0
1508319883.905,31.738,40.527,41.504,28.320,34.668,0
1508319883.909,35.156,48.340,44.434,21.484,55.664,0
1508319883.913,21.484,43.945,46.875,18.555,10.742,0
1508319883.917,13.184,43.945,47.852,16.602,-8.301,0
1508319883.921,11.719,48.828,50.293,10.742,57.129,0
1508319883.925,-1.465,51.758,51.270,4.883,38.574,0
1508319883.929,-6.836,53.223,50.781,-6.348,-0.488,0
1508319883.933,-16.113,45.898,51.270,-11.719,23.926,0
1508319883.937,-25.879,44.922,49.805,-17.578,47.852,0
1508319883.940,-30.273,51.758,51.270,-28.809,49.316,0
1508319883.944,-49.316,47.852,53.711,-38.086,4.883,0
1508319883.948,-72.754,36.621,57.129,-48.340,-4.395,0
1508319883.952,-85.938,41.992,54.688,-68.359,29.785,0
1508319883.956,-85.938,42.969,56.641,-77.637,40.039,0
1508319883.960,-87.891,34.180,62.988,-83.984,-2.930,0
1508319883.964,-99.609,41.504,48.828,-97.168,5.371,0
1508319883.968,-111.328,41.992,42.969,-99.121,56.152,0
1508319883.972,-121.582,35.645,62.012,-103.027,57.617,0
1508319883.976,-125.977,37.109,66.406,-113.281,-1.953,0
1508319883.979,-130.371,37.598,63.477,-123.535,-39.551,0
1508319883.983,-135.254,29.297,67.383,-118.164,0.977,0
1508319883.987,-125.977,25.879,71.777,-104.980,50.293,0
1508319883.991,-119.629,30.762,68.848,-112.305,40.039,0
1508319883.995,-118.164,20.020,64.453,-114.258,-11.230,0
1508319883.999,-110.352,16.113,64.453,-104.492,21.484,0
1508319884.003,-104.004,29.785,70.312,-95.215,55.176,0
1508319884.007,-95.215,20.996,66.406,-82.031,-8.301,0
1508319884.011,-81.543,7.324,52.734,-75.684,-7.324,0
1508319884.015,-61.523,14.648,58.105,-62.012,38.086,0
1508319884.019,-41.504,21.973,62.500,-39.062,46.387,0
1508319884.022,-27.344,20.996,59.570,-21.484,50.293,0
1508319884.026,-12.695,28.809,61.523,-6.836,34.180,0
1508319884.030,0.488,33.203,55.176,6.836,28.320,0
1508319884.034,11.230,24.902,58.105,19.531,42.480,0
1508319884.038,19.531,21.484,58.594,24.902,29.297,0
1508319884.042,35.645,25.879,49.316,32.715,2.441,0
1508319884.046,41.992,26.855,46.387,48.340,12.207,0
1508319884.050,46.387,38.086,43.457,62.988,6.836,0
1508319884.054,53.711,36.133,46.387,68.848,18.555,0
1508319884.058,54.199,24.414,44.922,67.871,62.988,0
1508319884.062,60.547,29.785,36.621,70.801,31.738,0
1508319884.065,70.801,35.156,35.645,84.473,-1.465,0
1508319884.069,79.102,40.039,37.598,98.145,41.504,0
1508319884.073,90.820,42.969,37.109,98.633,61.035,0
1508319884.077,95.215,36.621,34.668,103.516,23.438,0
1508319884.081,96.191,37.598,34.180,121.582,7.324,0
1508319884.085,100.098,41.992,29.785,116.211,30.273,0
1508319884.089,99.121,41.992,28.809,104.980,52.734,0
1508319884.093,96.680,40.039,27.832,103.516,17.578,0
1508319884.097,97.656,38.574,21.973,103.027,-25.879,0
1508319884.101,98.633,41.992,15.625,104.492,28.320,0
1508319884.104,91.309,56.641,19.043,95.703,71.289,0
1508319884.108,90.332,56.152,23.438,93.750,6.348,0
1508319884.112,93.750,37.109,20.508,95.703,-30.762,0
1508319884.116,97.168,40.527,26.367,102.051,28.320,0
1508319884.120,102.051,46.875,25.879,108.887,63.965,0
1508319884.124,104.492,45.410,23.438,110.840,41.504,0
1508319884.128,101.562,44.434,17.090,107.422,20.508,0
1508319884.132,95.703,46.387,15.137,102.051,-0.488,0
1508319884.136,94.238,42.480,27.344,100.586,34.180,0
1508319884.140,90.332,51.270,28.809,100.586,39.551,0
1508319884.144,82.031,53.223,29.297,100.098,-3.418,0
1508319884.147,79.102,41.016,29.297,94.238,20.996,0
1508319884.151,73.242,47.852,24.414,85.449,49.805,0
1508319884.155,74.707,39.551,19.531,80.566,38.086,0
1508319884.159,79.102,20.996,16.113,76.660,15.137,0
1508319884.163,81.543,33.203,22.461,83.496,25.879,0
1508319884.167,85.938,47.363,28.320,95.215,49.316,0
1508319884.171,81.055,41.504,32.715,92.773,45.410,0
1508319884.175,77.637,34.180,38.086,91.309,33.203,0
1508319884.179,84.473,38.086,33.203,91.797,52.246,0
1508319884.183,90.820,36.621,33.203,91.797,68.848,0
1508319884.187,95.703,35.156,37.598,104.004,49.805,0
1508319884.190,85.449,29.785,37.109,103.027,32.227,0
1508319884.194,85.449,31.738,41.504,99.609,23.438,0
1508319884.198,94.727,44.434,42.969,103.027,24.414,0
1508319884.202,92.773,47.852,32.715,106.934,62.988,0
1508319884.206,99.609,42.969,29.297,113.281,73.730,0
1508319884.210,111.328,47.852,27.344,110.352,28.320,0
1508319884.214,109.863,49.316,31.250,109.863,12.207,0
1508319884.218,104.980,41.504,41.016,103.516,67.383,0
1508319884.222,101.562,45.898,37.109,98.145,69.824,0
1508319884.226,90.820,49.805,34.180,97.656,10.742,0
1508319884.229,84.473,47.363,32.227,90.332,-23.438,0
1508319884.233,77.148,50.293,25.879,80.566,8.301,0
1508319884.237,63.477,46.875,22.949,72.754,59.082,0
1508319884.241,59.082,41.016,32.715,72.754,21.484,0
1508319884.245,47.363,37.109,28.809,62.500,-11.719,0
1508319884.249,37.109,39.551,23.438,53.711,17.090,0
1508319884.253,37.109,43.945,34.180,53.223,73.730,0
1508319884.257,37.109,43.945,30.273,52.246,48.828,0
1508319884.261,38.086,41.992,28.809,61.035,15.625,0
1508319884.265,33.691,44.434,40.039,60.547,28.320,0
1508319884.269,31.250,45.898,41.016,58.594,49.316,0
1508319884.272,33.691,40.039,47.852,65.430,42.480,0
1508319884.276,36.621,39.551,47.363,61.523,-19.043,0
1508319884.280,36.133,40.039,38.574,52.734,-4.395,0
1508319884.284,39.062,40.039,41.016,51.270,51.270,0
1508319884.288,41.016,42.480,36.133,54.199,43.945,0
1508319884.292,41.504,42.969,37.109,62.012,15.625,0
1508319884.296,46.875,46.387,39.062,65.430,12.695,0
1508319884.300,49.316,43.945,45.410,67.383,42.969,0
1508319884.304,53.223,41.016,50.293,73.242,60.547,0
1508319884.308,53.711,46.875,47.363,74.219,46.875,0
1508319884.312,45.898,48.340,47.363,76.172,5.371,0
1508319884.315,40.039,42.969,38.086,77.148,12.695,0
1508319884.319,45.898,40.527,37.598,72.266,54.688,0
1508319884.323,48.828,41.504,49.316,75.195,42.480,0
1508319884.327,48.828,28.809,51.270,71.777,0.488,0
1508319884.331,47.852,29.785,44.434,64.453,9.766,0
1508319884.335,42.480,41.992,39.551,63.477,42.969,0
1508319884.339,37.598,41.992,36.133,56.152,25.391,0
1508319884.343,32.227,43.457,33.203,54.688,24.902,0
1508319884.347,30.762,44.922,29.785,48.828,26.855,0
1508319884.351,30.762,44.434,30.273,42.480,37.598,0
1508319884.354,22.949,45.410,34.668,43.457,64.941,0
1508319884.358,22.949,41.016,31.250,41.016,48.828,0
1508319884.362,25.391,39.062,35.645,32.227,38.574,0
1508319884.366,19.043,41.504,32.227,25.391,25.879,0
1508319884.370,15.625,45.410,21.973,28.809,18.066,0
1508319884.374,14.648,39.551,30.762,28.320,49.316,0
1508319884.378,19.043,35.156,35.156,23.438,44.922,0
1508319884.382,24.902,36.621,28.809,27.344,28.320,0
1508319884.386,24.414,42.480,30.273,27.344,59.570,0
1508319884.390,26.855,35.645,39.062,25.879,58.105,0
1508319884.394,26.367,36.621,29.785,27.344,13.672,0
1508319884.397,37.598,43.945,19.043,21.973,5.371,0
1508319884.401,45.898,37.109,30.762,34.180,54.199,0
1508319884.405,48.340,37.598,38.086,50.293,58.105,0
1508319884.409,48.340,29.785,30.762,57.617,14.648,0
1508319884.413,54.199,30.273,35.645,62.012,-3.906,0
1508319884.417,50.293,40.039,32.715,54.199,32.715,0
1508319884.421,37.598,36.133,19.043,46.875,38.574,0
1508319884.425,48.828,35.156,26.855,52.246,3.418,0
1508319884.429,51.758,33.203,41.016,54.688,6.348,0
1508319884.433,47.363,37.598,43.945,48.828,33.691,0
1508319884.437,48.340,37.109,38.574,55.664,53.223,0
1508319884.440,48.828,24.414,33.691,60.547,43.945,0
1508319884.444,51.270,33.203,31.250,56.641,19.043,0
1508319884.448,51.758,35.645,30.762,59.082,-7.324,0
1508319884.452,51.758,31.738,34.668,56.152,14.160,0
1508319884.456,49.805,35.645,38.574,51.270,33.203,0
1508319884.460,47.852,38.086,33.691,53.223,-1.953,0
1508319884.464,51.758,39.551,23.438,52.734,1.953,0
1508319884.468,50.781,38.574,30.762,49.316,22.461,0
1508319884.472,41.992,33.203,44.922,53.223,0.000,0
1508319884.476,41.992,34.668,38.574,53.223,5.859,0
1508319884.479,45.898,46.387,24.902,45.898,39.062,0
1508319884.483,41.992,44.434,30.762,41.992,46.387,0
1508319884.487,40.527,35.156,39.551,45.410,34.180,0
1508319884.491,39.551,35.645,34.668,46.387,7.812,0
1508319884.495,41.504,43.945,31.250,38.086,6.348,0
1508319884.499,48.828,47.363,43.945,32.227,22.461,0
1508319884.503,40.527,45.410,43.457,30.273,31.738,0
1508319884.507,31.250,47.852,24.414,32.227,41.504,0
1508319884.511,25.391,43.457,25.879,34.668,7.812,0
1508319884.515,23.438,42.969,32.715,29.297,-19.531,0
1508319884.519,23.438,46.875,32.715,26.367,27.832,0
1508319884.522,21.484,47.852,35.645,21.973,81.055,0
1508319884.526,18.555,36.621,35.645,20.020,47.852,0
1508319884.530,14.160,25.391,34.668,20.020,22.949,0
1508319884.534,11.719,34.180,34.180,20.996,71.777,0
1508319884.538,7.324,38.086,28.809,24.902,81.055,0
1508319884.542,9.277,36.621,33.203,31.250,56.152,0
1508319884.546,18.066,40.527,38.086,34.180,17.578,0
1508319884.550,20.508,43.457,31.738,26.855,33.203,0
1508319884.554,18.066,41.016,33.691,31.250,79.102,0
1508319884.558,15.625,39.551,31.738,38.086,57.617,0
1508319884.562,16.113,39.062,27.832,36.133,22.949,0
1508319884.565,20.508,37.109,32.227,41.992,44.922,0
1508319884.569,23.438,43.457,39.062,52.246,85.938,0
1508319884.573,21.973,43.457,33.203,46.387,51.270,0
1508319884.577,22.949,43.945,24.902,45.898,-3.906,0
1508319884.581,25.879,36.621,32.715,48.340,25.391,0
1508319884.585,34.180,35.645,36.133,51.270,63.965,0
1508319884.589,36.133,44.434,28.320,47.363,60.059,0
1508319884.593,31.738,46.875,24.414,38.086,31.738,0
1508319884.597,36.621,44.434,33.691,44.434,29.785,0
1508319884.601,40.039,37.598,37.598,40.527,45.898,0
1508319884.604,39.062,41.992,34.180,39.062,27.344,0
1508319884.608,39.062,38.086,32.715,42.969,-4.395,0
1508319884.612,29.785,39.551,32.715,38.086,11.719,0
1508319884.616,29.297,45.898,42.969,41.992,26.855,0
1508319884.620,31.250,35.645,41.992,47.852,50.293,0
1508319884.624,29.785,36.133,33.203,52.734,34.668,0
1508319884.628,36.621,41.016,37.109,54.199,12.207,0
1508319884.632,39.062,37.109,40.527,50.781,46.875,0
1508319884.636,34.180,35.156,42.969,51.758,46.387,0
1508319884.640,34.180,40.527,47.363,49.316,24.414,0
1508319884.644,30.273,37.598,37.109,40.527,23.926,0
1508319884.647,22.949,28.809,37.598,37.598,33.203,0
1508319884.651,19.531,27.832,47.852,38.574,26.367,0
1508319884.655,16.113,27.832,51.270,31.250,43.945,0
1508319884.659,19.043,30.273,50.781,24.414,50.293,0
1508319884.663,17.090,33.691,43.457,20.996,8.301,0
1508319884.667,17.578,38.574,45.898,33.203,20.508,0
1508319884.671,15.625,36.133,47.363,36.133,53.223,0
1508319884.675,18.066,28.809,43.457,32.227,22.461,0
1508319884.679,22.461,37.598,37.109,38.574,3.418,0
1508319884.683,25.391,36.133,40.527,41.016,28.809,0
1508319884.687,24.902,28.809,47.852,47.363,50.293,0
1508319884.690,30.273,32.715,40.039,52.734,48.828,0
1508319884.694,40.039,42.969,37.598,58.594,0.000,0
1508319884.698,39.062,44.434,48.828,66.895,4.883,0
1508319884.702,43.945,43.945,52.246,61.523,67.383,0
1508319884.706,56.641,37.109,41.992,58.105,59.082,0
1508319884.710,56.152,35.645,32.227,59.570,-5.371,0
1508319884.714,52.734,37.109,45.410,59.082,-14.648,0
1508319884.718,44.922,36.133,47.852,55.664,25.879,0
1508319884.722,40.039,41.504,38.086,54.199,32.227,0
1508319884.726,48.340,43.457,39.062,60.059,1.953,0
1508319884.729,56.152,37.109,41.016,55.176,1.465,0
1508319884.733,54.199,37.598,35.156,50.293,62.988,0
1508319884.737,56.152,42.969,31.250,58.105,72.266,0
1508319884.741,53.711,42.480,42.969,63.965,12.695,0
1508319884.745,47.852,43.945,48.828,52.246,-20.020,0
1508319884.749,55.176,35.156,48.340,47.363,23.926,0
1508319884.753,50.781,27.832,54.199,56.641,38.086,0
1508319884.757,46.387,41.504,44.434,58.105,-12.207,0
1508319884.761,37.109,39.062,27.344,50.293,-20.996,0
1508319884.765,26.855,23.926,31.250,44.434,14.160,0
1508319884.769,24.902,31.250,36.621,42.969,45.898,0
1508319884.772,20.508,39.551,30.762,32.715,56.152,0
1508319884.776,18.066,38.086,35.156,37.109,40.527,0
1508319884.780,17.090,34.668,47.363,39.062,50.781,0
1508319884.784,10.254,29.785,47.363,33.203,44.434,0
1508319884.788,9.277,32.227,50.293,37.109,18.555,0
1508319884.792,19.043,28.320,45.898,41.016,4.395,0
1508319884.796,22.949,24.902,36.133,43.945,-11.230,0
1508319884.800,25.391,27.832,38.086,41.992,-10.254,0
1508319884.804,20.996,24.414,36.133,36.621,19.043,0
1508319884.808,16.602,28.320,28.320,31.738,33.691,0
1508319884.812,18.066,29.785,26.367,31.738,22.461,0
1508319884.815,14.648,26.855,37.109,34.180,6.348,0
1508319884.819,16.602,29.785,35.645,35.156,42.969,0
1508319884.823,20.508,29.297,40.527,40.527,57.129,0
1508319884.827,19.043,29.785,56.152,40.527,2.930,0
1508319884.831,17.578,21.484,44.922,28.809,29.297,0
1508319884.835,14.648,18.066,34.668,26.367,77.148,0
1508319884.839,20.996,30.273,39.551,25.391,56.152,0
1508319884.843,18.555,29.297,41.504,16.602,22.949,0
1508319884.847,9.766,24.902,36.133,10.254,21.973,0
1508319884.851,9.766,32.715,29.785,9.766,51.270,0
1508319884.854,9.766,34.180,30.762,7.812,62.012,0
1508319884.858,13.672,33.203,23.926,9.766,34.668,0
1508319884.862,19.531,44.922,19.531,17.090,-8.301,0
1508319884.866,20.508,51.758,28.809,19.043,9.277,0
1508319884.870,17.090,42.480,38.574,21.973,60.059,0
1508319884.874,17.578,46.387,33.691,21.484,22.461,0
1508319884.878,28.809,50.293,34.668,22.461,-17.090,0
1508319884.882,26.367,38.574,39.062,22.949,22.949,0
1508319884.886,26.367,33.691,41.016,33.203,61.035,0
1508319884.890,30.273,34.668,49.316,45.898,6.348,0
1508319884.894,25.391,36.621,36.133,33.691,-27.344,0
1508319884.897,27.832,40.039,37.598,30.273,37.598,0
1508319884.901,28.809,42.969,35.156,41.016,51.270,0
1508319884.905,26.367,39.062,23.926,38.574,12.207,0
1508319884.909,25.391,42.480,39.551,40.039,17.090,0
1508319884.913,26.367,46.875,38.574,52.734,19.531,0
1508319884.917,24.414,32.715,28.809,53.223,41.992,0
1508319884.921,31.250,29.785,35.645,49.316,65.430,0
1508319884.925,32.227,33.691,38.086,42.480,34.180,0
1508319884.929,31.738,31.738,41.992,38.086,-12.207,0
1508319884.933,38.086,41.504,51.270,45.898,30.273,0
1508319884.937,29.785,41.504,41.504,41.992,48.340,0
1508319884.940,23.438,36.133,32.227,36.621,-9.277,0
1508319884.944,18.555,38.086,42.480,48.340,-4.395,0
1508319884.948,20.508,31.250,42.969,49.805,19.043,0
1508319884.952,23.438,33.691,35.156,40.527,22.949,0
1508319884.956,17.578,34.668,44.922,42.480,57.129,0
1508319884.960,18.555,27.344,44.922,48.828,37.598,0
1508319884.964,21.484,36.621,39.062,52.734,5.371,0
1508319884.968,19.531,41.504,41.992,49.805,57.617,0
1508319884.972,14.648,35.645,29.785,46.875,70.312,0
1508319884.976,19.043,40.527,23.926,50.293,22.949,0
1508319884.979,25.879,43.457,36.621,50.293,5.371,0
1508319884.983,26.855,37.598,45.410,47.852,22.461,0
1508319884.987,20.996,38.086,41.016,48.828,54.688,0
1508319884.991,24.414,43.457,43.457,44.922,33.203,0
1508319884.995,24.902,35.156,52.246,38.574,4.883,0
1508319884.999,17.090,32.715,46.387,32.227,30.273,0
1508319885.003,19.531,34.668,39.551,33.203,44.922,0
1508319885.007,18.555,34.180,44.434,37.109,13.184,0
1508319885.011,17.578,29.297,44.434,33.691,17.090,0
1508319885.015,19.043,34.180,36.621,31.250,45.898,0
1508319885.019,24.414,37.598,37.598,39.551,77.148,0
1508319885.022,25.391,35.645,37.598,41.504,12.695,0
1508319885.026,25.391,34.180,36.621,32.715,-47.852,0
1508319885.030,21.973,29.297,43.945,30.273,8.301,0
1508319885.034,17.090,32.227,41.016,28.809,53.223,0
1508319885.038,23.438,41.016,46.875,32.715,22.461,0
1508319885.042,24.414,41.992,45.898,33.691,1.465,0
1508319885.046,26.855,35.156,35.156,23.926,17.578,0
1508319885.050,32.227,41.504,37.598,21.484,45.410,0
1508319885.054,35.156,52.246,33.691,25.391,67.871,0
1508319885.058,38.086,45.898,20.996,22.949,31.250,0
1508319885.062,47.363,45.898,23.438,30.762,22.949,0
1508319885.065,48.340,50.293,35.645,35.156,61.523,0
1508319885.069,38.086,46.875,36.621,34.668,34.668,0
1508319885.073,35.156,46.875,34.668,29.297,8.301,0
1508319885.077,47.363,45.898,36.621,28.320,12.695,0
1508319885.081,50.293,42.480,24.902,27.832,35.156,0
1508319885.085,44.922,46.387,20.508,30.273,36.621,0
1508319885.089,45.410,51.270,35.645,37.598,42.480,0
1508319885.093,41.016,45.410,35.645,30.273,38.086,0
1508319885.097,40.527,37.109,24.902,37.598,5.371,0
1508319885.101,44.922,38.086,35.156,44.434,37.109,0
1508319885.104,43.945,39.551,44.922,39.062,69.824,0
1508319885.108,46.387,36.621,48.828,42.480,31.738,0
1508319885.112,48.340,34.668,48.828,44.922,-3.418,0
1508319885.116,44.434,27.344,36.133,46.387,-2.441,0
1508319885.120,48.828,30.273,31.250,57.129,15.625,0
1508319885.124,57.129,35.645,42.969,49.316,34.668,0
1508319885.128,57.617,30.762,42.969,35.645,7.812,0
1508319885.132,50.781,26.367,42.969,41.992,4.395,0
1508319885.136,50.293,31.738,48.340,47.363,49.805,0
1508319885.140,48.828,32.715,41.504,39.551,36.133,0
1508319885.144,41.992,25.391,37.598,36.133,14.648,0
1508319885.147,37.109,32.715,38.086,34.668,16.602,0
1508319885.151,35.645,37.109,41.016,30.762,60.059,0
1508319885.155,35.645,31.250,42.480,23.438,44.922,0
1508319885.159,27.344,33.691,38.086,18.066,-9.766,0
1508319885.163,27.344,41.016,34.180,26.855,15.625,0
1508319885.167,33.203,47.852,33.691,27.344,54.199,0
1508319885.171,23.926,37.109,37.598,17.090,79.102,0
1508319885.175,21.973,34.180,41.992,25.391,2.930,0
1508319885.179,28.320,40.039,48.828,33.203,-60.059,0
1508319885.183,24.902,37.598,48.340,27.832,39.062,0
1508319885.187,20.020,35.156,42.969,33.691,82.520,0
1508319885.190,17.578,34.668,36.621,34.668,39.551,0
1508319885.194,27.832,37.598,38.086,30.762,25.879,0
1508319885.198,29.297,33.691,47.363,38.086,40.527,0
1508319885.202,17.090,35.156,46.875,36.621,54.199,0
1508319885.206,17.090,36.133,42.969,36.133,37.598,0
1508319885.210,19.531,38.086,42.480,38.086,15.625,0
1508319885.214,28.320,42.969,36.133,34.668,0.000,0
1508319885.218,29.785,37.598,29.785,29.785,28.809,0
1508319885.222,20.508,40.039,33.203,38.574,26.367,0
1508319885.226,21.973,27.344,35.156,39.551,12.695,0
1508319885.229,23.926,23.926,37.598,27.832,19.531,0
1508319885.233,23.438,33.203,41.992,25.391,27.344,0
1508319885.237,22.461,30.273,42.969,36.621,54.199,0
1508319885.241,24.902,37.598,38.086,39.062,12.207,0
1508319885.245,27.832,31.738,27.832,32.227,-9.277,0
1508319885.249,29.785,28.320,31.738,33.203,25.879,0
1508319885.253,30.273,30.273,35.645,39.551,59.082,0
1508319885.257,16.602,27.832,30.762,33.691,46.875,0
1508319885.261,9.766,34.668,25.879,26.367,4.395,0
1508319885.265,13.672,30.762,30.762,29.297,-0.488,0
1508319885.269,11.230,33.203,44.434,34.180,29.297,0
1508319885.272,14.648,40.039,39.551,34.668,54.688,0
1508319885.276,19.531,40.527,32.715,35.156,16.113,0
1508319885.280,22.949,47.363,32.715,30.273,7.812,0
1508319885.284,32.715,42.969,29.785,31.250,42.969,0
1508319885.288,32.227,35.156,32.715,36.621,55.664,0
1508319885.292,27.344,36.621,36.621,41.016,29.297,0
1508319885.296,33.203,37.598,28.809,35.645,-17.090,0
1508319885.300,33.691,36.621,35.156,24.902,3.418,0
1508319885.304,33.203,38.574,41.504,25.879,50.781,0
1508319885.308,33.691,39.062,35.645,28.320,24.902,0
1508319885.312,29.785,41.992,34.180,29.297,-31.738,0
1508319885.315,25.879,41.992,41.016,26.855,16.113,0
1508319885.319,29.297,32.715,44.922,29.297,78.125,0
1508319885.323,34.668,31.738,40.527,33.203,62.988,0
1508319885.327,33.203,35.156,41.992,40.527,21.973,0
1508319885.331,32.227,33.691,44.434,46.387,41.504,0
1508319885.335,29.297,25.391,33.203,43.457,65.918,0
1508319885.339,23.926,27.832,33.691,41.504,54.199,0
1508319885.343,22.949,36.621,49.316,40.527,16.113,0
1508319885.347,25.391,30.273,56.152,44.922,26.855,0
1508319885.351,23.438,25.391,47.852,44.922,64.453,0
1508319885.354,16.113,25.391,46.387,45.410,27.832,0
1508319885.358,8.301,24.414,40.527,32.227,-1.465,0
1508319885.362,13.672,29.785,41.992,21.973,3.418,0
1508319885.366,27.344,35.645,52.246,35.645,42.480,0
1508319885.370,25.879,34.668,45.898,30.273,65.918,0
1508319885.374,21.484,41.504,48.340,24.902,26.855,0
1508319885.378,26.855,38.574,43.457,31.250,10.742,0
1508319885.382,25.391,36.621,27.832,40.039,40.039,0
1508319885.386,24.902,42.969,32.227,38.574,63.965,0
1508319885.390,31.250,38.574,40.527,28.320,38.086,0
1508319885.394,24.414,38.574,43.457,24.902,19.531,0
1508319885.397,17.578,41.992,39.551,30.762,17.090,0
1508319885.401,21.484,37.109,33.691,37.109,12.207,0
1508319885.405,29.297,42.969,31.250,29.297,31.250,0
1508319885.409,31.250,51.758,25.391,20.508,33.203,0
1508319885.413,25.391,43.457,30.273,22.949,3.418,0
1508319885.417,23.926,38.574,39.062,27.832,8.789,0
1508319885.421,25.391,39.062,36.621,20.996,50.781,0
1508319885.425,25.391,40.527,31.738,16.602,30.762,0
1508319885.429,28.809,37.598,30.762,26.367,13.672,0
1508319885.433,25.879,35.156,35.645,25.391,12.207,0
1508319885.437,20.996,37.598,44.922,23.438,37.109,0
1508319885.440,20.508,36.621,42.480,30.762,49.316,0
1508319885.444,21.484,40.527,39.551,36.621,-12.207,0
1508319885.448,24.902,42.480,42.480,30.762,-9.277,0
1508319885.452,30.762,43.945,46.387,31.250,53.223,0
1508319885.456,19.531,41.016,35.156,35.645,44.434,0
1508319885.460,-2.930,33.203,32.227,28.809,-34.180,0
1508319885.464,-7.324,32.227,48.340,25.391,-43.457,0
1508319885.468,-1.465,30.762,48.340,25.879,33.691,0
1508319885.472,-0.977,29.785,43.945,28.320,49.316,0
1508319885.476,-0.977,31.250,44.434,30.762,9.766,0
1508319885.479,7.324,31.250,45.898,28.320,17.090,0
1508319885.483,22.949,32.715,38.086,31.738,57.129,0
1508319885.487,22.949,36.133,33.691,33.203,79.102,0
1508319885.491,23.438,39.551,43.457,34.180,44.922,0
1508319885.495,28.320,37.109,43.457,34.668,6.348,0
1508319885.499,30.762,39.551,43.457,38.086,38.574,0
1508319885.503,29.785,34.180,42.969,36.133,81.543,0
1508319885.507,24.414,30.273,36.621,26.855,27.832,0
1508319885.511,30.273,26.855,31.250,24.414,-6.836,0
1508319885.515,31.738,25.879,35.156,27.832,36.133,0
1508319885.519,32.227,33.691,38.574,38.574,35.156,0
1508319885.522,30.762,34.180,34.180,41.504,23.926,0
1508319885.526,36.621,36.133,43.457,35.645,53.223,0
1508319885.530,39.062,38.086,45.410,31.738,28.320,0
1508319885.534,36.621,40.527,45.898,33.203,29.785,0
1508319885.538,38.086,43.945,48.340,41.016,38.086,0
1508319885.542,36.133,34.668,35.645,41.016,35.156,0
1508319885.546,38.086,27.832,38.574,33.691,41.992,0
1508319885.550,39.551,35.645,51.758,29.785,4.883,0
1508319885.554,36.133,41.016,41.504,42.480,7.324,0
1508319885.558,32.227,37.109,40.527,48.340,31.738,0
1508319885.562,24.902,35.645,51.758,36.621,16.602,0
1508319885.565,28.809,37.598,47.852,37.109,26.855,0
1508319885.569,40.039,41.504,41.992,48.340,49.316,0
1508319885.573,39.551,35.645,47.852,42.969,46.875,0
1508319885.577,29.785,29.297,41.504,32.715,18.555,0
1508319885.581,29.785,31.250,41.992,35.645,17.578,0
1508319885.585,25.879,31.250,42.480,37.109,51.270,0
1508319885.589,21.973,34.180,39.062,42.480,64.941,0
1508319885.593,25.391,32.715,43.945,39.551,42.480,0
1508319885.597,21.484,32.715,46.387,22.461,1.465,0
1508319885.601,27.344,41.016,44.922,27.344,28.320,0
1508319885.604,26.367,34.180,41.016,38.086,62.500,0
1508319885.608,12.207,33.691,42.969,40.527,30.762,0
1508319885.612,10.742,40.039,38.086,33.691,10.742,0
1508319885.616,21.973,36.133,37.109,32.227,45.898,0
1508319885.620,28.809,34.668,29.297,34.668,49.316,0
1508319885.624,25.879,36.133,25.879,35.645,31.738,0
1508319885.628,34.180,41.992,31.738,37.109,10.742,0
1508319885.632,41.992,45.410,38.574,37.598,8.301,0
1508319885.636,32.227,40.039,45.898,41.992,42.480,0
1508319885.640,31.250,29.785,41.992,40.039,1.953,0
1508319885.644,40.039,38.086,37.598,37.598,-38.574,0
1508319885.647,41.016,44.434,35.645,37.109,15.625,0
1508319885.651,40.039,39.551,41.504,38.574,38.086,0
1508319885.655,41.016,43.457,44.922,42.969,3.906,0
1508319885.659,44.434,45.410,40.527,46.875,-11.719,0
1508319885.663,48.340,45.898,39.551,50.781,31.250,0
1508319885.667,41.016,42.969,41.992,45.410,74.707,0
1508319885.671,41.504,38.086,36.133,46.387,59.570,0
1508319885.675,35.645,33.691,28.320,44.922,34.668,0
1508319885.679,28.809,31.738,37.598,32.715,16.602,0
1508319885.683,35.156,38.574,39.062,35.645,26.367,0
1508319885.687,33.203,47.852,38.574,36.621,22.949,0
1508319885.690,32.227,45.410,44.922,34.180,8.301,0
1508319885.694,31.738,41.992,42.480,28.809,19.531,0
1508319885.698,32.227,48.340,44.922,32.227,0.977,0
1508319885.702,28.320,46.387,51.270,39.062,40.039,0
1508319885.706,26.367,42.969,47.852,39.551,78.125,0
1508319885.710,29.297,35.156,46.875,41.992,29.297,0
1508319885.714,27.344,34.180,49.805,41.016,0.000,0
1508319885.718,27.344,44.922,41.504,41.992,19.531,0
1508319885.722,19.043,47.363,24.414,33.203,44.922,0
1508319885.726,20.996,53.223,24.902,36.621,56.641,0
1508319885.729,30.762,57.617,31.738,43.945,24.414,0
1508319885.733,30.273,54.688,35.156,34.668,14.648,0
1508319885.737,33.203,49.316,34.668,33.691,60.059,0
1508319885.741,36.133,51.758,34.668,32.227,50.781,0
1508319885.745,34.668,52.734,33.691,31.738,30.273,0
1508319885.749,28.320,47.363,28.809,33.203,43.945,0
1508319885.753,24.414,50.781,35.156,38.574,62.500,0
1508319885.757,28.809,51.270,36.621,45.410,49.805,0
1508319885.761,23.926,45.898,34.180,48.828,-3.906,0
1508319885.765,23.438,45.898,36.621,50.293,45.410,0
1508319885.769,22.949,44.922,30.762,37.598,84.961,0
1508319885.772,20.508,42.480,31.738,34.668,32.715,0
1508319885.776,21.973,45.410,40.527,42.969,-10.742,0
1508319885.780,17.578,44.434,37.598,36.133,5.371,0
1508319885.784,17.578,44.922,43.945,26.367,47.852,0
1508319885.788,25.879,50.781,51.270,30.273,62.500,0
1508319885.792,23.438,39.551,43.457,32.715,20.508,0
1508319885.796,21.973,37.109,34.668,30.273,15.137,0
1508319885.800,29.785,53.223,37.598,31.738,45.898,0
1508319885.804,27.344,45.410,41.504,34.668,42.969,0
1508319885.808,22.949,32.227,38.574,34.180,22.461,0
1508319885.812,16.602,30.762,29.297,27.832,10.742,0
1508319885.815,25.879,33.203,29.297,25.391,53.223,0
1508319885.819,31.738,37.109,38.086,33.203,50.781,0
1508319885.823,17.578,33.691,42.969,31.250,26.855,0
1508319885.827,13.672,32.227,42.480,31.250,39.062,0
1508319885.831,14.648,34.668,38.086,43.457,54.688,0
1508319885.835,16.602,34.668,39.062,50.293,58.594,0
1508319885.839,18.066,38.086,44.434,38.574,59.570,0
1508319885.843,18.555,42.480,43.457,27.832,72.754,0
1508319885.847,20.020,36.621,38.086,29.297,48.340,0
1508319885.851,24.414,35.156,37.598,33.691,41.504,0
1508319885.854,20.020,35.645,43.945,37.109,61.035,0
1508319885.858,20.508,40.527,41.504,35.156,76.172,0
1508319885.862,27.832,48.828,37.109,26.367,60.059,0
1508319885.866,28.320,45.898,34.180,23.926,69.336,0
1508319885.870,32.227,44.434,30.273,28.809,67.871,0
1508319885.874,35.156,47.852,37.598,27.344,27.832,0
1508319885.878,38.574,50.293,41.504,33.691,2.930,0
1508319885.882,42.969,51.270,43.945,41.504,-24.414,0
1508319885.886,42.480,50.293,43.945,29.297,40.527,0
1508319885.890,38.086,44.434,42.480,22.461,88.379,0
1508319885.894,37.109,41.504,46.387,27.344,11.719,0
1508319885.897,32.227,41.504,47.363,30.273,-2.441,0
1508319885.901,30.762,44.922,34.180,38.574,66.406,0
1508319885.905,37.598,47.363,31.250,44.922,58.594,0
1508319885.909,41.504,44.922,35.156,33.691,27.832,0
1508319885.913,36.621,39.062,43.945,32.715,13.672,0
1508319885.917,37.598,32.715,53.223,45.410,37.109,0
1508319885.921,41.992,41.016,50.781,46.387,62.500,0
1508319885.925,45.898,43.945,40.527,41.504,8.789,0
1508319885.929,49.316,35.156,39.551,47.363,-25.879,0
1508319885.933,46.875,34.668,49.316,56.641,38.574,0
1508319885.937,47.363,37.109,51.270,65.430,109.863,0
1508319885.940,49.316,43.945,46.875,70.312,56.641,0
1508319885.944,44.922,44.434,56.152,69.336,12.207,0
1508319885.948,45.898,39.551,57.129,62.500,35.645,0
1508319885.952,42.969,34.668,45.410,60.547,46.875,0
1508319885.956,37.598,33.691,43.457,58.105,38.574,0
1508319885.960,37.109,37.109,49.805,53.711,-12.695,0
1508319885.964,23.438,32.227,54.199,49.805,0.977,0
1508319885.968,16.602,32.227,57.129,47.363,38.574,0
1508319885.972,24.414,43.457,58.594,54.688,23.438,0
1508319885.976,32.227,41.504,46.875,56.152,18.555,0
1508319885.979,32.227,37.598,40.039,44.922,36.133,0
1508319885.983,31.738,44.434,41.992,36.621,41.016,0
1508319885.987,38.574,43.945,44.434,37.109,33.691,0
1508319885.991,42.480,39.062,41.992,38.086,42.969,0
1508319885.995,39.062,44.922,24.414,35.156,41.016,0
1508319885.999,43.457,47.852,31.250,33.203,16.602,0
1508319886.003,49.316,44.922,46.387,39.062,41.504,0
1508319886.007,41.016,40.039,39.551,34.180,38.574,0
1508319886.011,45.898,44.434,35.156,30.273,-14.648,0
1508319886.015,57.129,49.316,39.551,44.434,6.348,0
1508319886.019,48.340,44.434,38.574,42.969,39.062,0
1508319886.022,42.480,45.410,34.668,32.715,59.570,0
1508319886.026,43.945,45.898,38.086,30.273,44.434,0
1508319886.030,45.898,47.852,37.109,27.832,29.297,0
1508319886.034,44.434,44.922,25.391,36.133,68.359,0
1508319886.038,40.527,38.086,36.133,46.875,86.426,0
1508319886.042,43.457,36.133,46.387,43.457,27.832,0
1508319886.046,37.598,35.156,36.133,32.715,-1.953,0
1508319886.050,24.414,31.738,35.156,34.180,4.395,0
1508319886.054,23.926,32.715,39.551,45.410,18.555,0
1508319886.058,26.855,29.785,37.109,49.316,-7.812,0
1508319886.062,25.391,29.297,39.551,41.992,-45.898,0
1508319886.065,32.227,35.156,37.598,44.922,-1.465,0
1508319886.069,32.227,32.227,31.738,49.805,52.246,0
1508319886.073,28.809,28.320,34.668,45.898,15.137,0
1508319886.077,39.551,34.668,41.992,44.922,-34.668,0
1508319886.081,41.992,43.457,35.645,41.016,9.766,0
1508319886.085,34.180,40.039,23.438,34.180,53.711,0
1508319886.089,30.273,38.574,26.367,33.691,34.180,0
1508319886.093,27.344,43.945,40.527,39.551,7.812,0
1508319886.097,24.902,51.758,41.504,41.992,38.086,0
1508319886.101,32.227,55.664,38.574,47.363,68.848,0
1508319886.104,36.133,46.387,35.645,43.457,27.832,0
1508319886.108,30.762,41.016,32.715,24.902,19.531,0
1508319886.112,30.762,37.598,37.598,32.227,23.926,0
1508319886.116,32.227,38.086,36.621,40.527,52.246,0
1508319886.120,37.109,39.551,31.250,41.504,67.871,0
1508319886.124,39.062,38.086,24.902,39.551,-0.488,0
1508319886.128,38.574,37.109,27.344,35.645,-11.719,0
1508319886.132,41.992,43.945,31.738,37.109,26.367,0
1508319886.136,39.062,44.922,35.645,36.133,38.574,0
1508319886.140,32.715,46.387,42.480,38.574,13.672,0
1508319886.144,30.273,53.223,32.715,33.691,1.465,0
1508319886.147,32.227,45.898,24.414,33.203,2.441,0
1508319886.151,36.133,36.621,29.785,38.086,-9.766,0
1508319886.155,35.645,38.086,34.668,34.668,11.230,0
1508319886.159,32.715,38.086,35.645,37.109,26.855,0
1508319886.163,24.902,35.645,32.715,46.875,9.277,0
1508319886.167,22.461,42.969,31.250,46.875,33.691,0
1508319886.171,24.902,48.828,36.133,39.551,53.223,0
1508319886.175,31.250,50.781,33.203,35.645,13.184,0
1508319886.179,38.086,43.945,25.879,36.133,10.742,0
1508319886.183,30.273,41.016,26.367,43.945,57.617,0
1508319886.187,23.926,42.480,30.762,42.480,83.984,0
1508319886.190,24.902,37.109,32.227,43.457,40.039,0
1508319886.194,23.926,38.086,37.598,40.039,-35.156,0
1508319886.198,26.367,46.875,39.062,30.273,-18.555,0
1508319886.202,23.438,38.574,35.645,33.691,31.250,0
1508319886.206,21.484,34.668,41.992,45.898,25.391,0
1508319886.210,30.762,43.945,49.316,50.293,-16.113,0
1508319886.214,26.367,45.410,39.551,44.434,-6.836,0
1508319886.218,18.555,35.156,34.668,40.039,45.410,0
1508319886.222,18.555,37.598,39.062,30.273,49.316,0
1508319886.226,10.742,40.039,37.598,19.043,-20.020,0
1508319886.229,8.789,37.109,31.738,20.996,-37.109,0
1508319886.233,10.742,42.969,26.855,25.879,19.531,0
1508319886.237,18.555,48.340,35.645,26.367,53.711,0
1508319886.241,23.438,44.434,33.691,23.926,44.434,0
1508319886.245,22.949,43.457,44.922,20.020,-10.254,0
1508319886.249,25.879,42.969,55.176,26.367,21.484,0
1508319886.253,21.973,42.969,38.086,33.691,52.246,0
1508319886.257,26.855,47.363,31.738,48.828,1.465,0
1508319886.261,32.227,44.434,35.645,54.199,-12.207,0
1508319886.265,33.203,40.039,32.227,43.457,15.137,0
1508319886.269,37.109,41.016,32.715,39.551,29.297,0
1508319886.272,32.227,46.387,24.902,40.527,22.461,0
1508319886.276,31.250,41.504,23.926,44.434,21.973,0
1508319886.280,38.574,38.086,40.039,52.246,18.066,0
1508319886.284,35.645,34.180,50.781,50.293,31.250,0
1508319886.288,35.645,35.156,42.969,44.434,28.809,0
1508319886.292,40.039,40.039,37.598,40.527,5.859,0
1508319886.296,37.598,35.645,36.133,37.598,17.578,0
1508319886.300,35.645,38.574,37.598,44.434,28.809,0
1508319886.304,30.762,44.922,43.945,49.316,43.457,0
1508319886.308,32.227,47.363,45.898,49.805,40.039,0
1508319886.312,41.016,44.434,47.363,45.898,10.742,0
1508319886.315,40.039,38.574,47.363,50.293,15.137,0
1508319886.319,41.992,39.551,49.805,64.941,25.391,0
1508319886.323,39.062,43.457,32.715,64.453,38.574,0
1508319886.327,36.133,31.738,11.719,55.176,22.949,0
1508319886.331,35.156,26.367,25.879,51.758,11.719,0
1508319886.335,38.574,28.320,46.875,49.316,55.176,0
1508319886.339,44.434,33.691,54.199,49.805,48.340,0
1508319886.343,30.273,41.016,53.711,52.734,4.395,0
1508319886.347,24.902,41.016,46.875,54.688,-24.902,0
1508319886.351,29.785,37.598,44.922,43.945,22.461,0
1508319886.354,28.809,33.203,45.410,37.598,88.867,0
1508319886.358,34.668,34.180,38.574,40.527,39.062,0
1508319886.362,39.062,30.273,40.527,41.992,-13.184,0
1508319886.366,37.598,32.715,42.480,35.645,27.832,0
1508319886.370,34.668,36.133,40.039,36.133,62.988,0
1508319886.374,35.645,33.691,45.898,42.969,27.344,0
1508319886.378,34.180,36.621,31.738,40.039,4.883,0
1508319886.382,32.715,40.039,28.320,37.109,23.438,0
1508319886.386,20.508,38.574,46.875,31.738,43.457,0
1508319886.390,16.113,35.156,48.828,29.297,12.207,0
1508319886.394,22.461,34.180,45.410,32.715,-30.762,0
1508319886.397,14.648,32.227,41.992,34.668,7.812,0
1508319886.401,13.184,33.203,42.969,34.668,43.945,0
1508319886.405,18.066,31.738,39.062,35.156,19.531,0
1508319886.409,23.438,40.039,33.691,41.016,4.883,0
1508319886.413,30.273,43.457,34.668,52.734,27.832,0
1508319886.417,26.855,30.762,30.273,45.410,45.898,0
1508319886.421,28.809,32.715,35.156,29.785,54.688,0
1508319886.425,35.156,43.945,42.969,32.227,69.824,0
1508319886.429,38.086,43.945,34.180,37.109,55.176,0
1508319886.433,41.016,35.645,36.133,43.945,38.086,0
1508319886.437,35.645,35.645,45.410,47.363,25.879,0
1508319886.440,33.691,38.574,42.480,41.016,10.254,0
1508319886.444,45.410,41.992,43.457,40.527,8.789,0
1508319886.448,45.410,43.457,43.945,51.758,9.277,0
1508319886.452,43.945,45.898,41.504,53.223,22.949,0
1508319886.456,42.480,45.410,40.527,45.898,9.766,0
1508319886.460,40.039,37.598,44.922,52.734,19.043,0
1508319886.464,43.945,40.039,49.316,57.617,15.625,0
1508319886.468,39.551,40.039,42.969,44.922,20.996,0
1508319886.472,33.691,28.809,34.668,42.480,62.988,0
1508319886.476,34.668,31.738,32.227,47.363,9.766,0
1508319886.479,27.832,35.156,33.203,38.574,-41.992,0
1508319886.483,18.066,30.273,39.062,35.156,15.625,0
1508319886.487,20.996,34.180,43.945,42.969,63.965,0
1508319886.491,22.461,36.133,41.992,45.410,27.832,0
1508319886.495,20.996,39.551,36.133,41.504,13.184,0
1508319886.499,25.879,41.992,42.480,35.156,39.062,0
1508319886.503,25.879,38.086,43.945,30.273,62.988,0
1508319886.507,21.484,37.109,36.133,31.250,57.617,0
1508319886.511,20.508,40.527,35.156,41.992,30.273,0
1508319886.515,20.020,37.598,34.668,42.969,36.133,0
1508319886.519,20.996,39.062,41.992,30.762,70.801,0
1508319886.522,20.020,32.715,35.156,21.484,38.086,0
1508319886.526,14.160,33.691,20.508,20.508,-41.992,0
1508319886.530,19.531,41.992,30.762,28.320,-23.926,0
1508319886.534,28.809,39.062,37.598,30.273,76.660,0
1508319886.538,31.738,40.039,38.086,26.367,65.430,0
1508319886.542,32.715,41.504,41.016,20.020,29.297,0
1508319886.546,37.109,43.457,41.992,26.855,52.734,0
1508319886.550,37.598,40.527,38.574,40.527,69.336,0
1508319886.554,34.180,32.715,37.109,41.504,71.777,0
1508319886.558,38.574,41.016,34.180,36.133,44.434,0
1508319886.562,37.598,34.180,30.762,40.039,17.578,0
1508319886.565,40.527,28.809,34.668,40.527,27.344,0
1508319886.569,46.387,37.598,39.062,39.551,37.109,0
1508319886.573,37.598,31.738,28.320,42.480,28.809,0
1508319886.577,45.410,34.668,26.855,56.152,2.441,0
1508319886.581,58.105,49.316,31.738,57.129,25.391,0
1508319886.585,47.852,39.551,39.551,48.340,35.156,0
1508319886.589,30.762,29.785,45.410,43.457,-2.441,0
1508319886.593,21.484,29.785,46.387,35.156,30.762,0
1508319886.597,27.344,22.461,53.711,39.062,36.621,0
1508319886.601,22.949,17.578,44.922,46.875,15.625,0
1508319886.604,19.531,21.973,41.504,53.711,41.992,0
1508319886.608,21.973,32.227,42.969,50.781,36.621,0
1508319886.612,21.973,28.320,35.645,42.969,20.508,0
1508319886.616,17.090,23.438,36.133,37.109,4.883,0
1508319886.620,13.184,36.133,42.480,35.156,18.555,0
1508319886.624,11.719,28.320,35.156,34.668,29.297,0
1508319886.628,8.301,24.414,41.992,28.809,10.254,0
1508319886.632,11.230,36.621,46.387,22.461,-2.930,0
1508319886.636,18.066,35.156,39.551,29.785,38.574,0
1508319886.640,21.973,32.227,45.898,39.551,44.434,0
1508319886.644,18.555,29.785,43.457,41.992,-3.418,0
1508319886.647,19.043,32.715,39.551,32.715,11.230,0
1508319886.651,13.672,30.273,36.621,28.320,58.105,0
1508319886.655,9.277,32.227,42.969,35.156,52.734,0
1508319886.659,15.137,36.133,40.527,33.203,18.066,0
1508319886.663,21.484,35.156,31.738,34.668,11.230,0
1508319886.667,23.926,38.086,38.574,41.992,6.836,0
1508319886.671,25.391,37.598,42.480,47.852,42.480,0
1508319886.675,26.855,40.039,42.480,46.875,21.484,0
1508319886.679,27.344,41.504,37.109,41.504,-29.297,0
1508319886.683,23.926,39.062,36.133,43.945,11.230,0
1508319886.687,24.414,40.527,42.480,46.875,46.875,0
1508319886.690,24.414,41.992,35.645,42.969,40.039,0
1508319886.694,24.902,50.293,34.668,48.340,11.230,0
1508319886.698,21.973,49.316,39.551,48.340,28.320,0
1508319886.702,14.160,32.715,46.387,43.457,86.426,0
1508319886.706,17.090,40.039,47.363,43.457,65.430,0
1508319886.710,21.973,50.781,41.016,36.133,14.160,0
1508319886.714,26.855,47.852,45.410,38.086,21.973,0
1508319886.718,26.367,44.434,43.945,40.039,44.434,0
1508319886.722,19.043,41.016,37.109,27.344,9.766,0
1508319886.726,20.508,46.875,37.598,25.391,-16.113,0
1508319886.729,29.785,50.781,40.039,33.203,16.113,0
1508319886.733,33.203,49.316,41.992,36.621,44.434,0
1508319886.737,35.645,47.852,41.504,40.527,35.645,0
1508319886.741,36.133,48.340,42.969,34.668,28.809,0
1508319886.745,34.668,49.316,44.434,31.738,19.531,0
1508319886.749,33.691,41.992,45.410,35.156,26.855,0
1508319886.753,29.785,43.945,44.922,28.809,38.086,0
1508319886.757,27.832,55.664,44.922,23.926,27.344,0
1508319886.761,23.438,53.711,50.293,21.973,30.273,0
1508319886.765,12.207,41.992,50.293,7.324,26.367,0
1508319886.769,9.766,47.363,46.387,-4.883,7.812,0
1508319886.772,4.395,46.875,50.781,-6.836,21.973,0
1508319886.776,-10.742,36.621,51.270,-8.789,8.301,0
1508319886.780,-21.973,41.504,50.781,-16.602,-13.184,0
1508319886.784,-33.691,55.664,45.410,-31.250,29.297,0
1508319886.788,-47.363,53.711,42.969,-47.852,73.730,0
1508319886.792,-56.152,48.340,53.711,-58.105,32.227,0
1508319886.796,-62.012,50.293,52.734,-63.477,5.371,0
1508319886.800,-65.918,53.223,53.711,-64.941,58.594,0
1508319886.804,-71.777,55.176,55.176,-67.383,79.102,0
1508319886.808,-84.473,51.270,47.852,-76.172,17.578,0
1508319886.812,-93.750,40.527,32.227,-80.566,-37.109,0
1508319886.815,-88.379,45.410,31.250,-83.984,1.953,0
1508319886.819,-91.309,56.152,51.758,-89.844,67.871,0
1508319886.823,-100.586,42.969,58.594,-98.633,50.293,0
1508319886.827,-98.145,40.039,49.316,-99.121,14.648,0
1508319886.831,-94.238,34.180,54.199,-88.379,50.293,0
1508319886.835,-90.332,23.438,62.988,-78.613,75.684,0
1508319886.839,-83.008,34.668,54.688,-72.754,62.988,0
1508319886.843,-76.172,30.762,59.082,-71.777,50.293,0
1508319886.847,-76.172,22.461,65.430,-66.406,54.199,0
1508319886.851,-67.871,26.855,66.895,-53.711,68.359,0
1508319886.854,-47.852,34.668,62.012,-44.434,53.223,0
1508319886.858,-41.016,36.133,56.152,-40.527,9.277,0
1508319886.862,-42.969,35.645,42.480,-40.039,3.418,0
1508319886.866,-27.832,36.621,37.109,-36.133,41.016,0
1508319886.870,-20.508,36.621,53.223,-25.391,50.781,0
1508319886.874,-26.367,41.016,50.293,-16.602,37.598,0
1508319886.878,-15.625,36.621,38.086,-20.020,22.949,0
1508319886.882,-9.277,32.227,35.156,-14.160,21.484,0
1508319886.886,-4.395,40.527,40.039,0.977,60.547,0
1508319886.890,2.930,40.527,39.062,3.418,56.641,0
1508319886.894,17.090,38.574,31.738,10.742,10.254,0
1508319886.897,31.250,42.480,36.133,26.855,30.762,0
1508319886.901,37.109,49.316,41.992,32.227,62.012,0
1508319886.905,41.992,39.062,41.016,39.062,55.176,0
1508319886.909,52.246,40.039,37.109,45.898,37.598,0
1508319886.913,62.500,47.852,29.785,48.828,34.668,0
1508319886.917,68.848,29.785,34.668,60.547,25.879,0
1508319886.921,70.312,30.273,37.598,65.918,38.574,0
1508319886.925,72.754,36.621,40.527,71.289,54.199,0
1508319886.929,76.660,26.855,36.621,77.637,34.180,0
1508319886.933,76.172,22.461,25.391,82.031,20.020,0
1508319886.937,75.684,28.320,36.621,89.355,39.062,0
1508319886.940,78.125,31.250,39.062,102.539,71.289,0
1508319886.944,80.078,36.621,24.902,104.004,30.762,0
1508319886.948,84.961,38.086,30.273,100.098,23.926,0
1508319886.952,83.496,26.855,38.086,104.492,70.312,0
1508319886.956,82.520,27.832,34.668,109.375,48.340,0
1508319886.960,86.914,35.156,30.273,105.469,-3.906,0
1508319886.964,92.285,35.645,34.180,106.445,-11.719,0
1508319886.968,87.402,29.297,40.039,108.398,66.406,0
1508319886.972,81.543,36.133,31.738,102.051,77.148,0
1508319886.976,81.543,39.551,30.762,94.238,33.691,0
1508319886.979,76.172,31.250,33.203,94.238,40.039,0
1508319886.983,74.707,35.156,29.297,89.355,60.547,0
1508319886.987,80.566,45.898,34.180,95.215,62.988,0
1508319886.991,81.055,48.828,34.668,99.609,32.715,0
1508319886.995,78.125,41.992,30.762,91.309,13.184,0
1508319886.999,83.008,41.504,28.809,93.262,40.527,0
1508319887.003,83.008,51.758,31.738,86.914,61.035,0
1508319887.007,75.684,50.293,28.809,80.078,28.809,0
1508319887.011,78.613,51.270,20.508,83.496,12.695,0
1508319887.015,80.078,54.688,24.414,81.055,61.523,0
1508319887.019,76.660,48.340,27.344,71.289,75.195,0
1508319887.022,68.359,48.828,26.855,71.777,38.574,0
1508319887.026,65.918,44.922,32.227,74.707,38.574,0
1508319887.030,62.500,44.434,25.879,70.312,42.480,0
1508319887.034,60.547,46.875,30.273,71.777,52.246,0
1508319887.038,67.383,41.992,41.016,72.266,75.684,0
1508319887.042,62.500,44.434,35.645,67.383,58.105,0
1508319887.046,56.641,44.922,34.668,67.871,37.109,0
1508319887.050,55.176,41.992,36.133,67.383,36.621,0
1508319887.054,60.059,40.039,35.156,65.918,26.367,0
1508319887.058,63.965,41.992,35.156,67.871,3.418,0
1508319887.062,65.430,43.945,37.598,67.871,-19.531,0
1508319887.065,69.336,46.387,34.668,68.359,18.066,0
1508319887.069,75.684,47.852,38.574,77.148,72.754,0
1508319887.073,84.961,46.875,41.016,74.707,51.270,0
1508319887.077,86.914,40.527,35.645,72.266,12.207,0
1508319887.081,83.496,36.133,37.109,71.777,13.184,0
1508319887.085,80.566,36.133,28.809,75.195,53.223,0
1508319887.089,74.707,39.062,23.438,86.914,67.871,0
1508319887.093,74.707,44.434,38.086,86.426,17.578,0
1508319887.097,68.848,46.387,37.109,84.961,10.742,0
1508319887.101,55.664,40.039,30.273,72.266,47.363,0
1508319887.104,48.828,36.133,32.715,59.082,63.477,0
1508319887.108,53.711,31.250,37.109,63.477,19.531,0
1508319887.112,54.688,32.715,38.086,62.988,-27.832,0
1508319887.116,49.316,37.109,45.898,59.570,23.438,0
1508319887.120,50.781,34.180,40.527,58.105,66.406,0
1508319887.124,51.270,31.250,29.785,53.711,11.230,0
1508319887.128,45.898,36.621,35.645,50.293,-16.113,0
1508319887.132,47.852,49.316,35.645,53.223,29.785,0
1508319887.136,45.898,42.969,33.203,46.875,74.707,0
1508319887.140,45.898,32.227,33.203,52.246,32.227,0
1508319887.144,45.410,33.203,31.250,60.059,-8.301,0
1508319887.147,43.457,34.668,36.621,58.105,50.293,0
1508319887.151,46.875,43.945,36.133,59.570,82.031,0
1508319887.155,44.434,49.805,36.621,64.941,43.457,0
1508319887.159,40.527,40.527,30.273,64.941,21.973,0
1508319887.163,39.551,37.598,31.738,54.199,27.344,0
1508319887.167,48.828,40.527,39.062,56.152,37.109,0
1508319887.171,55.176,42.480,37.109,62.012,30.762,0
1508319887.175,51.270,38.086,41.504,64.453,-14.160,0
1508319887.179,43.945,25.879,43.457,66.895,-10.742,0
1508319887.183,37.598,31.250,41.016,66.406,10.254,0
1508319887.187,33.203,35.156,37.598,64.941,-2.441,0
1508319887.190,33.691,26.367,41.992,65.918,24.902,0
1508319887.194,34.180,36.133,45.410,69.336,28.320,0
1508319887.198,38.086,41.504,41.504,64.453,28.320,0
1508319887.202,42.969,37.109,44.434,63.477,64.453,0
1508319887.206,41.016,36.133,39.551,69.824,60.547,0
1508319887.210,36.621,30.273,40.039,64.453,36.621,0
1508319887.214,34.668,29.785,46.387,58.594,36.621,0
1508319887.218,33.691,33.203,40.039,63.965,37.598,0
1508319887.222,38.574,33.691,42.969,63.965,39.062,0
1508319887.226,44.434,42.969,41.016,56.641,22.949,0
1508319887.229,51.270,53.223,37.598,56.152,10.254,0
1508319887.233,51.270,45.410,38.574,50.781,20.996,0
1508319887.237,51.758,40.527,38.086,44.434,52.734,0
1508319887.241,56.152,49.316,35.645,35.645,46.875,0
1508319887.245,52.734,49.805,31.738,32.227,6.836,0
1508319887.249,53.711,47.852,28.809,31.738,15.137,0
1508319887.253,59.082,43.945,31.738,27.344,53.711,0
1508319887.257,56.152,45.410,35.645,29.785,55.176,0
1508319887.261,48.340,45.410,35.156,27.832,17.578,0
1508319887.265,46.875,43.945,35.156,26.855,22.461,0
1508319887.269,44.434,50.293,39.062,30.273,40.527,0
1508319887.272,37.598,45.410,39.062,32.227,23.926,0
1508319887.276,37.109,32.715,42.480,40.039,-20.996,0
1508319887.280,44.434,32.227,43.457,45.410,-22.949,0
1508319887.284,44.922,30.273,45.898,52.246,31.250,0
1508319887.288,43.457,31.250,44.922,54.688,26.855,0
1508319887.292,41.992,26.367,33.691,46.875,-17.090,0
1508319887.296,41.992,31.250,38.574,51.758,-6.836,0
1508319887.300,45.410,41.504,48.828,62.012,49.805,0
1508319887.304,46.875,43.945,41.992,65.918,47.363,0
1508319887.308,45.898,45.410,33.691,71.289,9.277,0
1508319887.312,40.527,37.598,42.969,67.871,25.391,0
1508319887.315,44.922,32.227,52.246,64.941,47.852,0
1508319887.319,47.852,37.109,42.480,60.547,47.363,0
1508319887.323,44.434,41.992,32.227,59.570,3.418,0
1508319887.327,38.086,32.715,41.016,62.500,-17.090,0
1508319887.331,32.715,35.156,41.016,54.688,36.133,0
1508319887.335,33.691,41.016,42.480,56.152,60.547,0
1508319887.339,32.227,33.203,45.898,52.734,33.203,0
1508319887.343,30.762,36.621,45.898,44.434,28.809,0
1508319887.347,18.066,39.062,44.922,37.598,11.719,0
1508319887.351,8.301,37.598,43.945,30.273,40.527,0
1508319887.354,12.207,34.668,44.434,29.297,51.758,0
1508319887.358,20.996,33.203,51.270,28.320,19.531,0
1508319887.362,23.926,40.527,51.270,27.344,34.180,0
1508319887.366,22.461,39.551,43.945,26.367,50.293,0
1508319887.370,22.949,29.297,46.387,21.484,33.203,0
1508319887.374,27.344,33.203,48.828,16.113,38.574,0
1508319887.378,28.809,36.133,32.715,12.207,36.621,0
1508319887.382,26.855,29.785,16.602,16.113,19.531,0
1508319887.386,32.715,34.180,30.762,19.531,49.316,0
1508319887.390,40.527,40.527,40.527,23.926,52.246,0
1508319887.394,40.527,36.621,41.992,28.320,-3.906,0
1508319887.397,37.109,40.039,41.992,35.645,0.977,0
1508319887.401,43.945,46.875,35.645,43.945,46.875,0
1508319887.405,45.898,40.039,39.062,44.922,15.625,0
1508319887.409,39.551,34.180,40.039,48.340,-12.207,0
1508319887.413,41.016,31.250,39.062,57.129,9.277,0
1508319887.417,39.062,34.180,41.016,62.012,14.648,0
1508319887.421,36.621,33.691,39.551,62.500,40.527,0
1508319887.425,40.527,33.691,41.992,67.871,2.441,0
1508319887.429,41.016,35.156,41.504,64.453,-28.809,0
1508319887.433,40.527,37.598,42.969,57.129,23.926,0
