timestamps,TP9,AF7,AF8,TP10,Right AUX,Marker0
1508233031.867,52.734,42.969,43.457,42.969,30.762,0
1508233031.871,43.945,35.645,38.086,43.457,31.738,0
1508233031.875,34.180,30.273,36.133,38.086,-5.371,0
1508233031.879,36.133,36.621,37.109,25.879,-5.371,0
1508233031.883,32.227,62.012,33.203,20.508,44.922,0
1508233031.887,40.039,54.199,41.992,37.598,36.133,0
1508233031.891,41.504,41.016,44.922,40.039,-5.371,0
1508233031.894,37.109,46.387,42.480,35.156,-11.230,0
1508233031.898,52.734,42.969,43.945,36.621,20.996,0
1508233031.902,52.246,44.922,38.086,36.621,31.250,0
1508233031.906,45.410,39.551,36.621,41.504,42.480,0
1508233031.910,38.574,40.039,38.086,38.574,56.152,0
1508233031.914,38.574,43.457,30.273,44.922,11.230,0
1508233031.918,39.062,50.293,29.785,55.664,-0.977,0
1508233031.922,37.109,49.316,34.180,55.664,21.973,0
1508233031.926,37.598,33.203,33.203,46.875,19.531,0
1508233031.930,29.297,25.879,24.414,36.621,16.602,0
1508233031.934,32.227,35.645,23.926,42.969,7.812,0
1508233031.937,34.668,33.691,26.367,44.922,4.883,0
1508233031.941,36.133,41.016,29.297,39.551,19.531,0
1508233031.945,38.086,42.969,27.344,41.504,20.996,0
1508233031.949,41.016,34.668,23.438,34.180,8.789,0
1508233031.953,44.434,44.434,34.180,20.996,25.879,0
1508233031.957,46.387,40.039,34.180,27.344,50.293,0
1508233031.961,42.969,38.574,26.855,26.855,37.598,0
1508233031.965,38.574,52.246,26.367,21.973,18.555,0
1508233031.969,45.410,46.387,34.180,31.250,43.457,0
1508233031.973,44.922,24.414,33.203,28.320,58.105,0
1508233031.977,53.711,26.367,41.016,38.086,-12.207,0
1508233031.980,54.199,47.852,43.457,43.457,-38.086,0
1508233031.984,44.922,44.922,36.621,39.551,13.184,0
1508233031.988,42.969,24.414,36.133,55.176,41.016,0
1508233031.992,43.457,21.484,39.062,61.523,-3.906,0
1508233031.996,45.410,23.926,41.016,60.547,-30.273,0
1508233032.000,41.016,40.527,37.598,59.570,37.598,0
1508233032.004,44.434,24.902,40.527,66.895,69.336,0
1508233032.008,43.945,7.812,41.992,66.895,42.969,0
1508233032.012,49.316,22.461,40.527,64.453,19.531,0
1508233032.016,49.316,36.133,37.598,62.012,43.945,0
1508233032.019,41.992,27.344,36.133,59.082,68.848,0
1508233032.023,41.992,31.738,46.875,62.012,32.715,0
1508233032.027,40.527,36.133,48.828,54.199,-12.207,0
1508233032.031,28.809,24.902,41.504,47.852,9.766,0
1508233032.035,26.367,27.344,35.645,42.969,46.387,0
1508233032.039,30.273,32.227,33.691,33.691,-12.695,0
1508233032.043,22.461,31.738,40.527,27.344,-46.387,0
1508233032.047,23.438,29.297,42.480,33.203,22.949,0
1508233032.051,29.297,31.250,34.180,31.250,54.688,0
1508233032.055,40.039,33.691,34.180,28.809,52.734,0
1508233032.059,30.762,29.785,43.457,22.949,20.020,0
1508233032.062,18.066,33.203,36.621,11.230,-6.836,0
1508233032.066,31.738,23.926,37.109,17.090,57.129,0
1508233032.070,30.273,30.762,37.598,20.996,94.727,0
1508233032.074,27.344,46.387,36.621,23.926,44.922,0
1508233032.078,35.156,22.949,39.551,24.902,20.020,0
1508233032.082,29.297,22.461,28.809,13.672,17.578,0
1508233032.086,35.156,23.438,27.344,16.113,-15.137,0
1508233032.090,41.504,25.391,29.785,21.973,2.930,0
1508233032.094,29.785,38.086,31.738,23.926,4.883,1
1508233032.098,31.250,43.457,33.691,33.203,-10.254,0
1508233032.102,39.062,34.668,38.574,39.062,27.344,0
1508233032.105,41.016,36.621,36.621,44.434,63.477,0
1508233032.109,31.738,37.598,27.832,47.852,27.832,0
1508233032.113,35.156,40.527,35.645,47.852,10.742,0
1508233032.117,41.016,42.480,40.039,49.805,53.711,0
1508233032.121,31.738,28.809,36.621,44.922,55.664,0
1508233032.125,25.879,25.391,36.133,40.039,38.574,0
1508233032.129,20.508,24.414,33.691,39.551,-5.371,0
1508233032.133,14.160,25.879,33.691,33.203,-6.836,0
1508233032.137,19.531,34.668,37.109,32.227,46.875,0
1508233032.141,23.926,34.180,31.738,31.250,31.738,0
1508233032.144,21.973,25.391,29.297,18.555,19.043,0
1508233032.148,32.227,20.996,36.621,19.531,42.969,0
1508233032.152,32.227,19.531,35.645,28.320,71.289,0
1508233032.156,28.809,26.855,29.297,30.273,38.086,0
1508233032.160,22.461,32.715,32.715,20.996,-13.672,0
1508233032.164,26.855,31.738,40.527,18.555,2.441,0
1508233032.168,32.227,41.992,41.016,20.020,44.434,0
1508233032.172,21.484,47.363,31.250,13.184,7.812,0
1508233032.176,24.414,36.133,28.320,9.766,-22.949,0
1508233032.180,29.297,32.715,29.785,14.160,32.227,0
1508233032.184,26.855,35.156,27.832,21.484,41.992,0
1508233032.187,25.391,42.480,24.414,18.555,33.691,0
1508233032.191,40.039,32.715,26.367,30.762,28.320,0
1508233032.195,34.668,25.391,24.414,26.855,24.902,0
1508233032.199,26.367,37.598,27.832,16.113,42.480,0
1508233032.203,41.016,39.551,34.180,32.227,61.035,0
1508233032.207,48.340,40.527,29.785,38.574,76.172,0
1508233032.211,36.133,45.898,23.926,25.391,59.570,0
1508233032.215,32.715,33.203,28.809,23.438,6.348,0
1508233032.219,36.133,24.414,34.180,29.785,0.977,0
1508233032.223,27.832,28.320,33.203,27.832,14.648,0
1508233032.227,22.949,15.137,37.109,24.902,24.902,0
1508233032.230,29.785,11.719,38.574,34.180,6.836,0
1508233032.234,43.945,15.625,40.039,47.852,22.461,0
1508233032.238,41.504,22.949,43.457,45.898,37.109,0
1508233032.242,32.715,18.066,41.992,29.785,9.277,0
1508233032.246,33.691,8.789,38.574,26.367,-6.348,0
1508233032.250,42.480,21.484,40.527,36.621,19.043,0
1508233032.254,47.852,36.621,41.504,33.691,69.824,0
1508233032.258,33.691,34.668,25.391,21.973,41.504,0
1508233032.262,24.902,15.137,26.855,22.461,-24.902,0
1508233032.266,23.926,10.742,34.180,22.949,0.488,0
1508233032.269,19.043,20.996,34.668,26.367,66.895,0
1508233032.273,20.020,23.926,34.180,32.227,74.219,0
1508233032.277,18.066,30.273,31.250,26.855,-2.441,0
1508233032.281,17.578,28.809,25.391,16.113,-26.855,0
1508233032.285,20.020,15.625,25.391,10.742,62.012,0
1508233032.289,24.902,21.973,36.621,22.461,71.289,0
1508233032.293,28.320,31.250,41.992,27.832,3.906,0
1508233032.297,20.020,20.996,33.691,16.113,14.648,0
1508233032.301,25.391,14.648,31.250,17.090,69.336,0
1508233032.305,32.227,27.832,28.809,22.461,56.152,0
1508233032.309,27.832,38.086,26.855,21.484,-2.930,0
1508233032.312,29.297,34.180,29.785,31.738,-9.277,0
1508233032.316,25.879,23.926,24.414,27.832,26.367,0
1508233032.320,24.902,23.438,36.621,27.832,46.875,0
1508233032.324,34.180,34.180,41.992,41.016,6.836,0
1508233032.328,33.203,40.039,29.785,29.297,-25.391,0
1508233032.332,37.598,43.945,34.180,16.602,31.738,0
1508233032.336,38.086,28.809,37.598,23.438,64.941,0
1508233032.340,35.645,25.879,41.016,33.691,20.996,0
1508233032.344,39.062,26.367,40.527,28.809,-5.859,0
1508233032.348,37.598,23.438,33.691,26.367,11.719,0
1508233032.352,39.062,42.969,37.109,35.645,30.273,0
1508233032.355,40.039,45.898,40.527,41.016,19.531,0
1508233032.359,41.016,24.414,37.109,45.898,-1.465,0
1508233032.363,42.480,26.367,32.227,45.410,0.488,0
1508233032.367,44.922,29.297,34.668,51.758,20.508,0
1508233032.371,40.527,24.902,40.527,50.293,10.254,0
1508233032.375,36.133,31.738,36.133,48.340,40.039,0
1508233032.379,34.180,39.551,25.391,42.969,33.203,0
1508233032.383,40.527,43.457,36.621,43.457,13.672,0
1508233032.387,36.621,33.203,43.945,46.875,53.223,0
1508233032.391,24.414,28.320,36.133,38.086,51.270,0
1508233032.394,25.391,34.668,38.574,42.480,4.395,0
1508233032.398,35.645,35.156,39.062,36.621,-6.836,0
1508233032.402,39.062,36.133,36.133,20.508,55.664,0
1508233032.406,36.133,30.273,36.621,19.531,61.523,0
1508233032.410,27.832,23.438,36.133,13.672,2.930,0
1508233032.414,20.996,18.066,39.551,14.648,-61.035,0
1508233032.418,28.809,27.832,41.016,25.391,-38.574,0
1508233032.422,25.879,34.180,34.180,17.578,26.855,0
1508233032.426,18.066,26.367,35.156,9.277,7.324,0
1508233032.430,16.602,22.949,36.621,11.230,-2.930,0
1508233032.434,17.090,24.902,32.227,11.230,32.715,0
1508233032.437,19.531,29.297,34.668,15.137,45.410,0
1508233032.441,23.926,23.438,39.551,16.602,15.137,0
1508233032.445,27.832,37.598,43.945,20.508,-12.207,0
1508233032.449,25.879,38.574,38.574,21.484,1.953,0
1508233032.453,26.367,20.508,23.926,21.484,32.715,0
1508233032.457,26.855,29.785,25.391,22.461,-8.789,0
1508233032.461,31.250,27.832,38.574,35.156,-53.711,0
1508233032.465,38.086,33.691,35.645,40.039,11.719,0
1508233032.469,41.016,38.574,32.715,32.715,40.527,0
1508233032.473,44.434,31.250,37.598,40.527,6.836,0
1508233032.477,46.387,34.180,38.086,47.852,-5.859,0
1508233032.480,49.805,32.227,41.016,52.246,-2.441,0
1508233032.484,50.781,35.645,42.480,58.105,44.434,0
1508233032.488,54.199,43.457,43.945,59.082,60.547,0
1508233032.492,50.781,35.156,46.875,56.641,4.883,0
1508233032.496,49.316,31.738,42.969,46.875,-8.789,0
1508233032.500,46.875,28.320,44.434,33.691,21.484,0
1508233032.504,43.945,31.738,48.340,33.691,7.812,0
1508233032.508,61.523,41.016,57.617,52.246,-12.207,0
1508233032.512,50.293,44.434,44.434,41.992,16.113,0
1508233032.516,32.715,46.875,32.227,21.484,8.301,0
1508233032.519,35.645,34.668,38.574,22.461,-4.883,0
1508233032.523,36.621,33.203,28.809,17.090,15.137,0
1508233032.527,34.668,39.551,21.484,18.555,16.602,0
1508233032.531,46.387,48.340,36.621,28.320,3.906,0
1508233032.535,51.758,69.824,30.762,32.715,29.297,0
1508233032.539,45.898,63.965,21.484,30.762,41.504,0
1508233032.543,53.223,58.105,38.086,31.250,3.418,0
1508233032.547,51.758,64.453,35.645,33.203,-17.090,0
1508233032.551,50.781,46.875,28.809,36.621,-23.438,0
1508233032.555,50.781,41.992,32.715,39.062,-1.953,0
1508233032.559,51.270,47.852,36.133,43.457,0.000,0
1508233032.562,59.082,54.199,36.133,49.316,-26.367,0
1508233032.566,60.059,62.988,36.133,52.246,-5.371,0
1508233032.570,67.383,67.871,36.621,49.316,32.715,0
1508233032.574,60.547,55.664,27.832,35.645,18.066,0
1508233032.578,47.852,42.480,23.438,28.809,-4.395,0
1508233032.582,49.805,48.340,25.391,37.109,-15.625,0
1508233032.586,52.246,54.688,33.203,40.039,40.039,0
1508233032.590,46.875,45.898,31.738,35.645,34.180,0
1508233032.594,38.086,41.992,31.738,36.133,-40.527,0
1508233032.598,40.527,41.992,41.016,37.109,-6.348,0
1508233032.602,36.621,38.574,38.086,31.738,51.758,0
1508233032.605,28.809,37.598,36.621,24.902,30.273,0
1508233032.609,41.016,46.387,41.992,28.809,-1.465,0
1508233032.613,46.387,54.688,45.898,37.109,-0.977,0
1508233032.617,46.875,46.875,45.898,44.922,20.508,0
1508233032.621,45.898,41.016,37.598,45.410,22.461,0
1508233032.625,40.039,44.434,35.645,44.922,-3.418,0
1508233032.629,42.969,43.457,41.504,42.969,2.441,0
1508233032.633,44.922,40.039,36.133,39.062,26.367,0
1508233032.637,46.875,46.875,42.480,44.922,14.648,0
1508233032.641,36.621,54.199,44.922,36.133,-9.766,0
1508233032.644,33.691,50.781,38.086,31.738,-20.508,0
1508233032.648,39.551,41.504,39.062,36.621,31.250,0
1508233032.652,39.062,39.551,38.086,38.086,76.660,0
1508233032.656,31.250,40.527,33.203,29.297,41.016,0
1508233032.660,23.926,36.133,24.902,26.367,9.277,0
1508233032.664,29.785,41.504,27.832,35.645,25.391,0
1508233032.668,25.879,45.410,27.344,28.320,7.324,0
1508233032.672,22.949,28.809,18.066,23.926,-5.859,0
1508233032.676,25.879,34.668,23.438,30.273,23.438,0
1508233032.680,27.832,43.945,32.715,30.762,35.156,0
1508233032.684,29.785,46.875,31.250,25.879,22.949,0
1508233032.687,25.879,54.199,31.738,25.391,19.043,0
1508233032.691,29.785,27.344,44.434,32.227,3.906,0
1508233032.695,27.344,13.184,40.527,31.738,-10.742,0
1508233032.699,30.273,20.020,41.016,38.574,-19.043,0
1508233032.703,40.527,20.508,46.875,40.527,-15.625,0
1508233032.707,38.574,19.531,41.992,25.879,13.184,0
1508233032.711,31.738,20.996,39.551,21.484,-9.766,0
1508233032.715,29.785,30.273,38.086,23.926,4.883,0
1508233032.719,48.828,39.062,47.363,36.621,51.758,0
1508233032.723,46.387,32.715,46.875,36.621,39.551,0
1508233032.727,42.969,31.738,41.504,37.109,18.066,0
1508233032.730,41.992,30.762,32.715,37.598,5.371,0
1508233032.734,36.133,27.344,31.738,39.551,11.719,0
1508233032.738,35.645,28.320,44.434,41.992,35.156,0
1508233032.742,34.180,30.762,42.480,38.574,28.320,0
1508233032.746,39.551,33.203,36.133,47.363,3.418,0
1508233032.750,35.645,24.414,25.391,44.434,35.156,0
1508233032.754,26.855,20.020,17.090,32.227,81.055,0
1508233032.758,23.438,23.438,21.973,30.762,20.996,0
1508233032.762,29.785,26.855,22.949,35.156,-31.250,0
1508233032.766,27.832,37.598,21.484,37.109,19.531,0
1508233032.769,19.531,27.832,17.090,33.691,52.246,0
1508233032.773,30.273,21.484,20.020,42.969,42.480,0
1508233032.777,28.809,24.902,26.855,50.781,13.672,0
1508233032.781,27.344,29.785,32.227,48.340,14.160,0
1508233032.785,31.250,41.016,33.203,37.109,73.242,0
1508233032.789,27.344,47.363,28.320,30.762,34.668,0
1508233032.793,19.043,39.551,23.438,26.855,-29.785,0
1508233032.797,13.184,24.414,17.090,17.578,18.066,0
1508233032.801,22.461,30.273,20.508,23.926,54.199,0
1508233032.805,15.625,34.668,27.832,22.949,57.617,0
1508233032.809,10.742,23.926,25.879,10.742,26.855,0
1508233032.812,18.555,39.551,23.438,14.648,40.039,0
1508233032.816,19.531,48.828,25.391,20.020,55.176,0
1508233032.820,31.250,43.945,31.250,23.926,20.996,0
1508233032.824,32.227,37.109,34.180,23.926,20.508,0
1508233032.828,23.438,31.250,31.738,20.020,3.418,0
1508233032.832,33.691,34.668,35.645,21.484,9.766,0
1508233032.836,37.109,33.203,29.297,22.949,32.715,0
1508233032.840,34.180,26.367,24.902,29.785,32.227,0
1508233032.844,40.527,28.320,34.668,33.691,26.855,0
1508233032.848,36.621,41.504,36.621,28.320,22.949,0
1508233032.852,37.109,43.945,38.086,29.297,24.414,0
1508233032.855,37.109,31.738,41.016,38.086,60.059,0
1508233032.859,25.391,13.672,37.598,40.039,50.293,0
1508233032.863,28.320,7.324,37.598,41.016,-9.277,0
1508233032.867,37.598,24.902,43.945,47.852,29.297,0
1508233032.871,45.898,36.133,44.434,53.223,81.543,0
1508233032.875,45.410,32.715,39.062,48.828,27.832,0
1508233032.879,35.156,27.344,43.457,45.898,8.789,0
1508233032.883,35.645,28.320,49.805,53.223,58.594,0
1508233032.887,30.762,25.391,38.574,53.711,65.430,0
1508233032.891,20.020,20.020,35.645,42.480,51.270,0
1508233032.894,20.508,22.949,45.410,39.062,-30.273,0
1508233032.898,23.438,40.039,49.805,45.898,-7.324,0
1508233032.902,26.367,41.016,49.316,47.852,83.008,0
1508233032.906,15.137,39.551,44.434,41.016,46.387,0
1508233032.910,8.301,52.246,50.781,30.762,2.930,0
1508233032.914,18.066,34.180,52.734,31.250,16.113,0
1508233032.918,10.742,15.137,42.969,27.344,49.316,0
1508233032.922,7.812,23.926,37.109,28.320,53.223,0
1508233032.926,8.301,28.320,41.992,26.367,1.465,0
1508233032.930,2.930,39.062,40.039,26.367,2.441,0
1508233032.934,11.719,44.434,37.109,42.969,55.176,0
1508233032.937,25.391,39.062,43.945,49.316,42.969,0
1508233032.941,21.484,40.039,45.898,39.062,1.465,0
1508233032.945,22.461,37.598,43.457,31.250,-3.418,0
1508233032.949,33.203,40.039,38.574,33.691,34.180,0
1508233032.953,29.785,43.945,33.203,27.344,62.500,0
1508233032.957,31.738,36.133,36.133,34.668,45.898,0
1508233032.961,29.297,24.414,40.527,45.898,20.996,0
1508233032.965,33.203,22.461,44.434,45.410,14.160,0
1508233032.969,43.457,26.367,42.969,49.805,4.883,0
1508233032.973,42.969,33.203,39.551,52.246,19.531,0
1508233032.977,45.898,40.527,41.504,57.617,30.762,0
1508233032.980,39.551,40.039,38.086,58.105,25.391,0
1508233032.984,36.133,33.203,39.551,50.293,23.926,0
1508233032.988,41.504,24.414,42.480,46.875,27.344,0
1508233032.992,50.781,29.785,48.828,53.223,54.688,0
1508233032.996,51.758,36.133,49.316,58.105,4.395,0
1508233033.000,42.480,34.668,47.363,58.105,-14.160,0
1508233033.004,42.480,41.016,50.293,56.152,44.434,0
1508233033.008,44.434,43.945,46.875,50.781,29.785,0
1508233033.012,32.227,34.668,41.016,38.086,-15.137,0
1508233033.016,22.461,30.762,37.598,27.344,22.461,0
1508233033.019,23.438,31.250,42.969,27.832,64.453,0
1508233033.023,28.320,25.879,47.363,35.645,32.227,0
1508233033.027,31.738,26.855,46.387,36.133,-11.230,0
1508233033.031,27.832,29.297,42.969,32.227,-12.695,0
1508233033.035,35.645,28.809,47.363,38.574,52.246,0
1508233033.039,38.086,32.227,49.805,32.715,48.340,0
1508233033.043,24.902,35.156,31.738,21.973,-15.137,0
1508233033.047,30.762,31.738,40.039,34.668,18.066,0
1508233033.051,34.668,35.156,43.457,38.086,63.965,0
1508233033.055,37.109,42.969,31.738,33.203,53.711,0
1508233033.059,38.574,37.109,39.551,31.250,40.039,0
1508233033.062,43.457,21.973,40.527,35.156,26.367,0
1508233033.066,47.363,20.508,37.109,32.715,38.086,0
1508233033.070,44.434,28.320,35.645,32.227,35.156,0
1508233033.074,39.551,25.391,30.273,32.715,-31.250,0
1508233033.078,37.109,31.250,37.109,38.086,-40.039,0
1508233033.082,32.715,31.250,41.016,40.039,31.250,0
1508233033.086,32.227,26.367,27.832,37.109,43.457,0
1508233033.090,34.180,27.832,31.250,36.621,14.160,0
1508233033.094,32.227,28.809,42.480,31.250,41.016,0
1508233033.098,36.133,34.668,48.340,40.527,44.434,0
1508233033.102,40.039,35.645,50.293,50.293,10.254,0
1508233033.105,33.203,33.203,39.551,42.969,7.812,0
1508233033.109,26.855,29.297,31.738,34.668,0.488,0
1508233033.113,30.762,23.926,33.203,28.320,0.000,0
1508233033.117,28.809,22.949,19.043,22.461,5.371,0
1508233033.121,23.438,35.156,22.461,25.391,19.043,0
1508233033.125,18.555,35.156,39.551,29.297,37.598,0
1508233033.129,30.273,31.250,43.945,38.574,37.598,0
1508233033.133,28.809,22.949,42.969,37.598,42.969,0
1508233033.137,16.602,23.438,33.691,18.066,38.574,0
1508233033.141,17.090,31.250,34.180,8.301,31.738,0
1508233033.144,16.113,26.367,32.227,9.277,32.227,0
1508233033.148,10.254,33.691,24.414,6.348,49.805,0
1508233033.152,12.207,32.715,35.156,12.695,54.688,0
1508233033.156,14.648,31.250,27.832,18.066,16.113,0
1508233033.160,16.113,30.762,25.391,21.484,6.348,0
1508233033.164,16.602,32.715,39.062,23.438,1.465,0
1508233033.168,21.484,39.551,36.621,20.508,20.508,0
1508233033.172,29.785,34.668,37.109,24.902,52.734,0
1508233033.176,27.344,25.879,29.785,19.043,13.184,0
1508233033.180,23.926,38.574,25.391,13.672,4.395,0
1508233033.184,32.227,48.340,34.180,20.508,55.664,0
1508233033.187,36.133,47.363,35.156,28.809,75.195,0
1508233033.191,35.645,42.969,28.320,36.133,35.156,0
1508233033.195,37.598,33.691,39.551,37.598,2.441,0
1508233033.199,41.016,49.805,48.340,41.992,30.273,0
1508233033.203,48.828,46.387,39.062,41.504,80.078,0
1508233033.207,39.551,33.203,39.551,39.551,20.508,0
1508233033.211,32.715,35.645,33.203,34.180,-39.062,0
1508233033.215,45.410,31.738,30.273,28.809,19.531,0
1508233033.219,53.223,35.645,39.551,34.668,54.688,0
1508233033.223,52.734,36.133,37.598,35.156,23.926,0
1508233033.227,45.898,34.180,37.109,37.109,-1.953,0
1508233033.230,34.180,35.645,32.227,33.203,34.180,0
1508233033.234,32.715,28.809,33.203,25.879,60.547,0
1508233033.238,37.109,28.809,43.457,28.809,57.129,0
1508233033.242,30.762,22.949,37.109,24.902,14.648,0
1508233033.246,23.926,22.949,35.645,23.438,-5.859,0
1508233033.250,20.996,37.598,39.062,22.949,19.531,0
1508233033.254,25.391,26.367,38.086,22.461,-15.137,0
1508233033.258,31.250,31.738,41.992,19.043,-44.434,0
1508233033.262,28.320,46.875,40.527,18.066,-18.555,0
1508233033.266,26.855,41.992,35.156,17.578,-2.930,0
1508233033.269,26.367,30.273,33.203,12.695,15.137,0
1508233033.273,26.855,24.414,33.691,15.137,26.855,0
1508233033.277,36.621,37.109,43.457,25.391,-5.371,0
1508233033.281,35.645,42.969,44.922,24.414,-29.297,0
1508233033.285,27.344,32.715,38.086,17.090,-8.301,0
1508233033.289,21.973,24.414,30.762,16.113,30.273,0
1508233033.293,24.414,38.574,32.227,24.414,26.855,0
1508233033.297,41.016,39.062,43.457,32.715,-13.672,0
1508233033.301,44.434,36.133,39.062,26.367,0.000,0
1508233033.305,41.992,43.457,35.156,20.508,48.340,0
1508233033.309,53.223,32.227,39.551,33.691,42.969,0
1508233033.312,55.664,25.391,32.715,38.574,7.812,0
1508233033.316,60.547,37.598,27.832,32.715,18.066,0
1508233033.320,66.406,47.852,37.109,36.133,46.387,0
1508233033.324,67.871,45.898,41.504,42.969,26.855,0
1508233033.328,63.477,44.434,37.109,42.969,-3.418,0
1508233033.332,57.129,41.992,35.645,39.551,19.531,0
1508233033.336,57.617,39.551,30.762,39.551,38.086,0
1508233033.340,58.594,31.738,33.203,38.574,-9.277,0
1508233033.344,52.246,19.043,38.574,39.551,-62.500,0
1508233033.348,43.457,16.113,35.156,39.062,-34.180,0
1508233033.352,33.691,24.902,33.203,35.645,19.043,0
1508233033.355,30.273,27.832,30.273,39.062,14.160,2
1508233033.359,31.250,13.672,27.832,41.504,-1.465,0
1508233033.363,33.203,24.414,43.457,43.945,-25.391,0
1508233033.367,39.062,37.598,49.805,43.945,10.254,0
1508233033.371,42.969,28.809,42.480,36.621,44.922,0
1508233033.375,37.598,34.180,37.598,29.785,7.324,0
1508233033.379,27.344,50.781,37.109,28.320,-10.742,0
1508233033.383,33.691,34.668,37.598,28.809,-3.906,0
1508233033.387,35.156,14.648,35.645,27.832,1.953,0
1508233033.391,35.156,22.949,40.039,30.762,4.395,0
1508233033.394,37.109,36.621,30.762,32.227,0.488,0
1508233033.398,31.250,43.945,22.949,30.762,9.766,0
1508233033.402,34.180,45.410,39.551,35.645,12.695,0
1508233033.406,33.691,38.086,41.992,35.156,-16.602,0
1508233033.410,34.180,28.809,30.762,28.320,-19.043,0
1508233033.414,46.875,29.297,33.691,38.086,11.719,0
1508233033.418,51.270,33.691,38.086,42.969,43.945,0
1508233033.422,49.805,30.273,34.668,36.133,27.832,0
1508233033.426,54.688,24.414,26.855,31.250,2.930,0
1508233033.430,57.617,30.762,33.691,36.621,15.625,0
1508233033.434,54.199,31.250,40.527,44.434,34.668,0
1508233033.437,56.641,25.391,34.668,39.551,43.945,0
1508233033.441,62.012,21.973,30.762,45.898,30.762,0
1508233033.445,57.129,25.879,43.457,53.223,24.902,0
1508233033.449,62.500,34.180,48.828,53.711,3.906,0
1508233033.453,68.848,31.250,39.062,54.199,5.859,0
1508233033.457,74.219,37.109,40.039,56.641,35.156,0
1508233033.461,61.035,33.203,42.969,49.316,4.883,0
1508233033.465,42.480,18.066,40.527,39.551,-10.254,0
1508233033.469,50.293,31.738,40.039,44.434,48.828,0
1508233033.473,39.062,33.203,37.598,44.434,59.082,0
1508233033.477,46.387,24.414,49.316,67.383,2.441,0
1508233033.480,66.895,36.133,49.805,81.055,-10.254,0
1508233033.484,69.336,47.363,40.039,70.801,36.621,0
1508233033.488,80.078,50.781,41.504,77.637,48.828,0
1508233033.492,91.797,44.922,37.109,87.402,15.625,0
1508233033.496,118.164,27.832,45.898,112.793,-15.137,0
1508233033.500,135.742,38.574,53.711,135.254,13.184,0
1508233033.504,142.090,64.453,42.969,145.020,47.363,0
1508233033.508,179.199,90.820,54.199,177.734,21.484,0
1508233033.512,207.520,77.148,68.848,193.359,-13.184,0
1508233033.516,199.219,68.848,60.059,189.941,20.508,0
1508233033.519,188.477,92.285,49.316,186.035,73.730,0
1508233033.523,181.641,88.379,52.246,183.594,46.387,0
1508233033.527,191.895,79.590,53.711,195.312,3.418,0
1508233033.531,204.102,87.402,53.223,208.496,9.766,0
1508233033.535,208.008,99.609,59.570,213.379,28.809,0
1508233033.539,211.426,83.984,65.430,218.750,0.488,0
1508233033.543,192.383,70.801,46.875,201.172,-18.555,0
1508233033.547,179.199,85.938,40.039,181.152,22.949,0
1508233033.551,190.918,91.797,49.805,192.383,61.035,0
1508233033.555,188.477,86.426,43.945,198.242,44.434,0
1508233033.559,179.688,88.867,43.945,187.012,12.207,0
1508233033.562,175.293,91.309,39.551,177.734,16.113,0
1508233033.566,166.992,77.148,36.621,168.457,28.809,0
1508233033.570,168.945,64.453,47.363,168.457,12.695,0
1508233033.574,189.453,67.871,70.312,190.918,12.695,0
1508233033.578,183.105,73.242,61.035,181.641,14.160,0
1508233033.582,155.273,73.730,30.273,146.484,13.184,0
1508233033.586,152.832,53.223,33.203,146.484,15.625,0
1508233033.590,143.066,64.453,35.156,145.508,20.996,0
1508233033.594,138.672,79.102,32.715,143.066,0.977,0
1508233033.598,134.277,72.754,38.574,143.555,-25.879,0
1508233033.602,127.930,67.871,42.480,139.648,0.000,0
1508233033.605,130.371,63.477,37.109,135.254,62.988,0
1508233033.609,123.047,66.406,32.227,132.324,35.156,0
1508233033.613,116.699,62.012,44.434,131.836,-0.488,0
1508233033.617,116.211,51.758,47.363,127.441,32.227,0
1508233033.621,102.539,50.781,36.133,122.070,57.129,0
1508233033.625,91.309,48.340,33.691,112.793,30.273,0
1508233033.629,90.332,52.734,39.062,102.539,-29.785,0
1508233033.633,91.797,62.012,39.551,96.680,-18.555,0
1508233033.637,84.473,50.781,37.598,91.797,41.504,0
1508233033.641,87.891,46.387,37.109,99.609,50.293,0
1508233033.644,92.285,41.504,33.203,101.562,6.836,0
1508233033.648,88.867,40.527,37.598,91.797,20.508,0
1508233033.652,95.703,51.270,42.969,101.074,74.219,0
1508233033.656,93.750,62.500,46.875,101.074,41.992,0
1508233033.660,93.262,57.129,48.340,96.680,13.184,0
1508233033.664,87.402,37.109,41.992,89.844,42.480,0
1508233033.668,84.961,35.645,35.645,81.543,36.621,0
1508233033.672,90.332,41.992,40.039,85.938,13.184,0
1508233033.676,82.520,41.504,38.574,76.660,-30.273,0
1508233033.680,78.125,33.691,37.109,67.871,1.465,0
1508233033.684,83.496,34.668,41.992,75.684,69.824,0
1508233033.687,80.078,41.504,32.715,82.031,38.574,0
1508233033.691,71.289,36.621,33.203,74.707,-0.977,0
1508233033.695,67.871,30.762,41.504,68.848,12.207,0
1508233033.699,75.195,38.086,45.898,70.801,64.941,0
1508233033.703,80.078,45.410,52.246,76.172,60.547,0
1508233033.707,75.195,51.270,52.246,84.473,24.902,0
1508233033.711,69.824,39.551,46.875,87.891,27.832,0
1508233033.715,69.824,30.273,46.387,83.008,19.043,0
1508233033.719,67.383,29.785,45.410,78.125,23.926,0
1508233033.723,52.734,26.367,45.410,74.219,9.277,0
1508233033.727,47.363,24.902,42.480,63.965,2.930,0
1508233033.730,58.594,25.391,39.551,71.289,18.555,0
1508233033.734,57.129,38.086,45.410,71.777,72.266,0
1508233033.738,46.875,27.344,46.387,64.453,82.520,0
1508233033.742,44.922,22.949,41.992,62.500,33.203,0
1508233033.746,44.434,41.992,45.410,52.246,37.598,0
1508233033.750,39.551,41.504,44.922,52.246,38.574,0
1508233033.754,30.762,24.414,36.621,53.223,43.457,0
1508233033.758,20.020,31.738,39.062,42.969,62.012,0
1508233033.762,25.391,36.133,47.363,41.504,40.039,0
1508233033.766,28.320,41.016,43.945,41.016,30.762,0
1508233033.769,22.949,39.062,44.922,44.922,33.203,0
1508233033.773,28.320,28.809,40.039,41.016,32.227,0
1508233033.777,23.438,30.273,26.367,33.203,5.371,0
1508233033.781,20.020,26.367,36.133,38.086,-14.160,0
1508233033.785,38.574,20.996,46.875,49.316,58.105,0
1508233033.789,39.062,31.250,44.922,45.898,92.773,0
1508233033.793,30.762,42.969,41.992,37.598,27.344,0
1508233033.797,23.926,41.992,40.039,40.039,8.789,0
1508233033.801,16.113,37.598,25.391,41.992,71.777,0
1508233033.805,20.508,29.785,17.578,37.109,69.336,0
1508233033.809,23.926,29.297,36.133,33.203,25.879,0
1508233033.812,31.250,28.809,49.805,35.156,36.621,0
1508233033.816,31.738,19.043,37.109,38.574,28.320,0
1508233033.820,24.902,15.625,24.902,39.062,19.043,0
1508233033.824,27.832,25.879,30.762,39.062,15.137,0
1508233033.828,27.344,20.508,35.156,32.715,-3.906,0
1508233033.832,30.762,27.832,41.016,37.598,15.625,0
1508233033.836,28.320,40.527,33.691,37.109,54.688,0
1508233033.840,23.438,24.902,29.297,30.273,1.465,0
1508233033.844,23.926,18.066,29.785,32.227,-15.137,0
1508233033.848,22.461,13.672,23.438,38.086,6.348,0
1508233033.852,25.391,20.020,29.297,42.480,2.441,0
1508233033.855,22.461,41.504,34.668,35.645,-5.371,3
1508233033.859,20.508,39.062,26.855,25.879,-3.418,0
1508233033.863,20.508,32.227,14.160,12.207,12.695,0
1508233033.867,13.672,38.086,14.160,6.348,13.184,0
1508233033.871,7.812,38.086,30.762,16.113,6.348,0
1508233033.875,14.648,36.621,36.133,22.949,21.484,0
1508233033.879,23.438,32.715,26.855,18.555,19.043,0
1508233033.883,25.391,37.109,26.855,15.625,2.441,0
1508233033.887,24.414,34.180,26.367,15.625,18.066,0
1508233033.891,20.020,24.902,21.484,11.719,7.812,0
1508233033.894,32.715,30.273,36.133,28.809,-4.883,0
1508233033.898,41.992,40.527,40.527,35.156,17.578,0
1508233033.902,22.461,36.621,19.531,10.254,39.551,0
1508233033.906,17.578,30.273,12.695,4.883,8.789,0
1508233033.910,14.160,36.621,17.090,14.648,-27.344,0
1508233033.914,18.066,50.293,20.508,11.230,-24.902,0
1508233033.918,22.949,47.852,16.602,0.000,10.742,0
1508233033.922,19.531,38.086,10.254,1.465,36.621,0
1508233033.926,24.902,47.852,7.324,2.930,-15.137,0
1508233033.930,21.484,41.504,9.277,0.977,-11.230,0
1508233033.934,29.297,41.504,17.578,14.160,15.137,0
1508233033.937,29.785,48.340,5.859,10.742,35.156,0
1508233033.941,17.090,41.504,0.000,-0.977,38.574,0
1508233033.945,25.391,47.852,5.859,14.160,-7.324,0
1508233033.949,32.715,46.387,4.395,20.020,0.488,0
1508233033.953,33.203,53.223,13.672,12.207,19.531,0
1508233033.957,37.109,65.430,16.113,14.648,3.418,0
1508233033.961,31.250,56.641,9.277,7.812,-24.414,0
1508233033.965,29.785,45.898,15.625,-1.465,6.348,0
1508233033.969,39.062,46.387,20.020,6.348,55.664,0
1508233033.973,32.227,42.969,20.508,16.113,42.480,0
1508233033.977,24.414,41.504,13.672,9.766,9.766,0
1508233033.980,24.414,40.039,6.836,4.395,4.883,0
1508233033.984,24.902,50.293,14.648,10.742,37.598,0
1508233033.988,27.344,56.152,20.020,15.625,23.438,0
1508233033.992,31.738,56.641,16.113,18.555,-20.996,0
1508233033.996,32.715,64.453,19.531,19.531,-1.953,0
1508233034.000,34.180,39.062,20.996,21.973,35.156,0
1508233034.004,43.945,27.832,9.766,24.902,20.508,0
1508233034.008,40.527,44.922,19.043,20.508,-0.977,0
1508233034.012,30.273,41.504,27.344,17.578,-2.441,0
1508233034.016,34.180,48.340,22.461,31.738,13.184,0
1508233034.019,33.203,48.340,22.949,36.133,44.922,0
1508233034.023,25.879,36.133,23.438,27.832,28.809,0
1508233034.027,26.855,35.645,25.391,33.691,-18.555,0
1508233034.031,32.227,56.152,29.297,37.109,-38.086,0
1508233034.035,35.156,47.852,28.320,32.227,-7.324,0
1508233034.039,32.715,20.020,35.156,35.645,28.320,0
1508233034.043,35.645,24.414,37.598,37.598,-13.184,0
1508233034.047,36.621,35.156,30.273,32.715,-38.574,0
1508233034.051,38.574,37.598,28.809,32.227,31.250,0
1508233034.055,43.945,29.297,34.668,31.738,37.598,0
1508233034.059,47.852,32.227,46.387,44.922,15.625,0
1508233034.062,46.387,37.598,47.852,40.527,10.254,0
1508233034.066,45.898,34.180,39.062,25.879,9.766,0
1508233034.070,36.621,29.785,31.250,25.879,46.387,0
1508233034.074,32.715,21.484,32.227,23.926,34.180,0
1508233034.078,34.668,22.949,33.203,22.461,-26.855,0
1508233034.082,33.691,35.645,32.227,23.438,-19.043,0
1508233034.086,37.598,38.086,26.855,34.180,63.477,0
1508233034.090,37.598,34.668,25.879,32.227,79.590,0
1508233034.094,39.062,31.738,39.551,32.715,3.906,0
1508233034.098,36.621,47.363,41.504,34.668,-14.648,0
1508233034.102,42.480,52.246,41.016,32.227,17.090,0
1508233034.105,50.781,22.949,41.992,38.574,16.602,0
1508233034.109,51.758,22.461,42.480,38.574,5.859,0
1508233034.113,46.875,30.273,45.898,39.551,5.859,0
1508233034.117,36.621,26.855,34.668,32.227,41.992,0
1508233034.121,29.297,30.273,21.973,20.996,41.992,0
1508233034.125,36.621,37.598,24.414,20.996,45.410,0
1508233034.129,44.434,32.715,30.273,31.250,47.852,0
1508233034.133,33.691,28.809,17.578,24.902,46.387,0
1508233034.137,34.180,28.809,21.973,20.020,9.766,0
1508233034.141,49.316,28.809,40.039,34.668,-33.691,0
1508233034.144,50.781,29.297,36.621,38.574,-23.926,0
1508233034.148,44.922,21.973,29.297,31.738,4.883,0
1508233034.152,48.828,29.297,29.785,29.297,33.691,0
1508233034.156,43.457,40.039,31.250,29.297,15.137,0
1508233034.160,35.156,42.969,26.367,24.414,9.277,0
1508233034.164,31.250,47.363,30.273,23.926,43.457,0
1508233034.168,21.484,30.762,26.367,22.949,50.293,0
1508233034.172,31.738,26.367,28.809,31.738,47.363,0
1508233034.176,31.738,46.875,35.645,33.203,47.363,0
1508233034.180,28.320,40.039,36.621,42.480,24.902,0
1508233034.184,29.785,21.973,43.945,43.945,38.086,0
1508233034.187,28.320,18.555,49.805,34.180,48.340,0
1508233034.191,34.668,25.391,52.246,40.039,13.672,0
1508233034.195,35.645,24.902,45.410,45.410,2.930,0
1508233034.199,32.227,24.902,45.898,47.852,-7.324,0
1508233034.203,27.832,27.832,50.293,41.016,14.160,0
1508233034.207,31.738,19.531,50.781,38.086,41.504,0
1508233034.211,34.180,16.113,49.805,39.551,-6.836,0
1508233034.215,28.320,27.832,41.992,32.227,-29.297,0
1508233034.219,32.227,36.621,37.598,34.180,40.039,0
1508233034.223,36.133,34.668,41.992,40.039,57.129,0
1508233034.227,30.273,43.945,41.992,35.156,-5.859,0
1508233034.230,27.344,32.227,40.527,31.250,-21.484,0
1508233034.234,25.391,21.973,44.922,37.598,18.555,0
1508233034.238,24.414,40.039,47.363,39.062,37.598,0
1508233034.242,17.090,37.109,38.086,30.273,23.438,0
1508233034.246,16.113,32.715,29.297,33.203,1.465,0
1508233034.250,18.066,24.902,29.785,28.809,20.508,0
1508233034.254,19.531,32.715,32.227,25.879,48.828,0
1508233034.258,33.691,45.410,35.156,36.133,34.180,0
1508233034.262,34.668,19.531,33.691,31.250,6.348,0
1508233034.266,27.832,27.344,31.738,22.949,51.270,0
1508233034.269,42.480,34.180,33.203,26.855,61.523,0
1508233034.273,43.457,23.438,33.203,25.391,13.672,0
1508233034.277,36.621,35.645,26.855,32.227,4.883,0
1508233034.281,41.992,40.039,28.320,38.086,21.484,0
1508233034.285,41.992,29.297,32.227,25.879,49.316,0
1508233034.289,31.738,34.180,32.715,15.625,-4.883,0
1508233034.293,26.855,31.250,37.598,16.602,-39.062,0
1508233034.297,37.598,16.602,43.457,28.809,8.301,0
1508233034.301,28.809,12.207,34.668,19.043,24.414,0
1508233034.305,6.348,14.648,22.461,2.930,20.996,0
1508233034.309,-15.137,19.531,34.668,0.000,7.812,0
1508233034.312,-27.832,9.277,52.246,-2.930,13.184,0
1508233034.316,-33.691,0.977,51.270,-21.484,34.668,0
1508233034.320,-59.570,-2.930,40.039,-58.594,36.133,0
1508233034.324,-75.195,-14.160,37.598,-78.613,4.395,0
1508233034.328,-85.449,-10.254,42.480,-77.637,-13.672,0
1508233034.332,-98.633,-2.930,48.340,-85.449,1.953,0
1508233034.336,-102.539,-13.184,40.527,-99.121,3.418,0
1508233034.340,-101.562,-28.809,39.062,-105.957,7.812,0
1508233034.344,-105.469,-33.203,42.969,-114.746,20.020,0
1508233034.348,-122.070,-28.809,29.785,-130.859,-2.441,0
1508233034.352,-123.047,-15.137,27.344,-138.184,2.930,0
1508233034.355,-121.094,-15.625,30.273,-133.789,37.109,4
1508233034.359,-129.395,-8.789,27.344,-134.277,8.301,0
1508233034.363,-130.371,-4.883,22.949,-129.395,5.859,0
1508233034.367,-120.605,-14.160,15.625,-129.395,23.438,0
1508233034.371,-115.723,-17.578,15.137,-129.395,31.250,0
1508233034.375,-114.746,-12.695,19.043,-128.906,26.855,0
1508233034.379,-109.863,-4.395,22.461,-128.906,-20.020,0
1508233034.383,-113.281,-5.859,23.438,-120.605,-10.742,0
1508233034.387,-111.328,-11.230,25.879,-112.793,53.223,0
1508233034.391,-111.816,-11.230,31.250,-118.164,54.688,0
1508233034.394,-120.117,-9.766,26.855,-125.977,18.555,0
1508233034.398,-122.070,-4.395,22.461,-123.047,18.555,0
1508233034.402,-118.164,0.000,17.090,-123.535,77.148,0
1508233034.406,-111.816,-16.113,19.531,-118.652,48.340,0
1508233034.410,-119.141,-22.461,22.461,-114.258,-3.906,0
1508233034.414,-102.539,-10.254,34.668,-101.074,28.809,0
1508233034.418,-90.820,-10.742,34.180,-103.027,46.387,0
1508233034.422,-96.680,-18.066,20.996,-109.375,25.391,0
1508233034.426,-89.844,-0.488,21.484,-101.562,-3.418,0
1508233034.430,-76.660,3.418,18.555,-98.145,19.043,0
1508233034.434,-63.477,5.859,18.555,-84.961,73.730,0
1508233034.437,-71.777,9.277,27.344,-87.891,71.289,0
1508233034.441,-78.613,1.465,36.133,-94.238,47.852,0
1508233034.445,-67.871,9.766,34.180,-87.891,52.246,0
1508233034.449,-60.059,20.508,27.344,-77.148,28.809,0
1508233034.453,-64.453,5.371,21.484,-81.543,40.039,0
1508233034.457,-63.477,4.395,20.508,-83.496,40.527,0
1508233034.461,-54.199,4.883,26.367,-73.242,-4.883,0
1508233034.465,-55.664,-4.395,27.832,-70.312,-0.488,0
1508233034.469,-53.711,13.672,29.785,-67.383,14.160,0
1508233034.473,-40.527,20.020,33.203,-50.781,-9.766,0
1508233034.477,-43.945,5.859,27.344,-46.875,-2.930,0
1508233034.480,-41.504,3.906,33.203,-46.875,38.574,0
1508233034.484,-24.902,11.230,33.203,-43.457,31.250,0
1508233034.488,-27.344,20.020,32.715,-45.410,14.648,0
1508233034.492,-41.504,19.043,29.785,-49.805,16.113,0
1508233034.496,-36.133,1.465,27.832,-44.434,9.277,0
1508233034.500,-28.320,9.277,32.715,-29.785,19.531,0
1508233034.504,-29.785,19.043,30.762,-23.926,28.320,0
1508233034.508,-27.832,7.324,42.480,-10.254,31.738,0
1508233034.512,-23.926,4.883,47.363,-9.277,5.371,0
1508233034.516,-19.531,15.137,34.668,-20.020,-18.555,0
1508233034.519,-15.137,17.578,27.832,-15.137,9.277,0
1508233034.523,-15.625,10.742,24.902,-12.207,43.945,0
1508233034.527,-7.324,16.113,37.109,-9.766,21.484,0
1508233034.531,-5.859,0.488,38.086,-11.230,17.090,0
1508233034.535,-8.789,4.883,28.809,-15.137,63.477,0
1508233034.539,-3.418,34.180,29.297,-18.066,60.059,0
1508233034.543,-0.488,23.438,31.250,-14.160,18.066,0
1508233034.547,1.953,11.719,39.551,-8.789,15.625,0
1508233034.551,3.418,10.742,42.969,-11.230,45.898,0
1508233034.555,10.254,15.625,41.504,-7.324,43.945,0
1508233034.559,11.230,10.254,40.039,5.371,-12.207,0
1508233034.562,4.395,4.395,35.645,2.441,0.488,0
1508233034.566,17.578,30.762,37.598,6.836,40.039,0
1508233034.570,26.367,40.039,46.875,17.578,57.617,0
1508233034.574,17.578,19.043,43.945,14.648,14.648,0
1508233034.578,18.555,18.066,39.062,20.020,-51.758,0
1508233034.582,24.902,23.438,37.109,22.461,-7.324,0
1508233034.586,36.133,19.531,38.086,29.297,37.109,0
1508233034.590,33.691,22.949,38.086,35.156,14.160,0
1508233034.594,26.367,20.996,34.668,35.156,3.906,0
1508233034.598,21.484,6.836,37.109,33.691,6.348,0
1508233034.602,19.043,8.301,38.574,29.297,36.621,0
1508233034.605,23.926,15.625,40.039,34.668,22.461,0
1508233034.609,29.785,19.531,38.574,38.574,-15.625,0
1508233034.613,34.668,25.879,40.039,37.109,1.465,0
1508233034.617,27.344,47.363,42.480,37.109,20.508,0
1508233034.621,33.203,40.527,46.387,42.969,-17.090,0
1508233034.625,33.203,20.020,45.898,43.457,-27.832,0
1508233034.629,26.855,20.508,41.992,32.715,4.395,0
1508233034.633,36.621,22.949,46.387,34.180,15.137,0
1508233034.637,39.062,22.461,44.922,36.133,-7.812,0
1508233034.641,36.621,26.367,45.410,36.621,-6.348,0
1508233034.644,33.203,30.273,47.363,34.180,-2.930,0
1508233034.648,29.297,25.879,38.086,22.461,-4.395,0
1508233034.652,35.156,26.367,30.762,27.832,-1.465,0
1508233034.656,44.434,26.367,37.109,42.480,21.484,0
1508233034.660,47.852,26.367,54.688,52.734,33.203,0
1508233034.664,49.316,29.785,49.805,53.223,6.348,0
1508233034.668,48.340,22.949,44.922,46.387,29.297,0
1508233034.672,57.617,30.273,50.293,52.246,68.359,0
1508233034.676,63.965,43.945,52.246,55.664,51.758,0
1508233034.680,55.664,23.438,53.223,52.734,11.719,0
1508233034.684,50.781,23.926,54.688,59.082,25.879,0
1508233034.687,46.875,29.297,52.246,60.547,56.641,0
1508233034.691,50.781,5.859,54.199,68.359,16.602,0
1508233034.695,56.641,5.859,52.734,64.941,-26.367,0
1508233034.699,51.758,21.973,46.875,52.734,0.488,0
1508233034.703,46.875,32.715,44.922,53.223,20.996,0
1508233034.707,40.527,32.227,43.457,56.641,-6.348,0
1508233034.711,40.527,27.344,47.363,49.316,-60.547,0
1508233034.715,43.457,35.645,44.922,40.527,-33.203,0
1508233034.719,49.805,45.898,52.246,45.898,37.109,0
1508233034.723,54.199,35.156,56.641,45.898,34.180,0
1508233034.727,51.270,16.602,51.270,45.410,-23.438,0
1508233034.730,48.340,16.602,43.945,40.039,-9.766,0
1508233034.734,51.270,23.438,36.133,36.133,51.758,0
1508233034.738,51.270,31.738,41.504,46.387,42.969,0
1508233034.742,41.504,20.508,39.062,46.387,-1.465,0
1508233034.746,37.109,14.648,29.297,40.527,-18.555,0
1508233034.750,35.645,36.621,35.156,37.109,13.672,0
1508233034.754,29.785,31.250,37.598,32.715,26.367,0
1508233034.758,38.574,20.508,41.504,41.992,9.277,0
1508233034.762,31.738,33.203,41.016,47.852,15.137,0
1508233034.766,24.902,54.688,46.387,52.246,48.828,0
1508233034.769,36.621,41.504,52.246,61.523,50.781,0
1508233034.773,39.062,26.367,45.410,56.152,30.762,0
1508233034.777,38.086,22.949,41.016,54.199,15.137,0
1508233034.781,38.574,24.902,45.410,57.129,16.113,0
1508233034.785,41.992,34.180,38.086,54.199,34.668,0
1508233034.789,51.758,25.879,29.785,57.617,34.668,0
1508233034.793,53.711,30.273,40.039,52.246,3.418,0
1508233034.797,54.688,32.715,41.992,53.223,4.883,0
1508233034.801,52.246,29.297,38.086,53.223,8.301,0
1508233034.805,57.617,44.434,41.016,58.105,45.410,0
1508233034.809,56.641,44.434,38.574,51.758,43.457,0
1508233034.812,55.176,24.414,33.691,47.852,19.531,0
1508233034.816,55.664,22.461,32.715,49.316,42.969,0
1508233034.820,50.781,40.039,37.598,41.504,42.969,0
1508233034.824,46.875,39.062,36.133,35.156,41.992,0
1508233034.828,46.875,30.762,36.621,31.738,21.973,0
1508233034.832,35.156,32.227,34.180,14.648,28.320,0
1508233034.836,26.855,34.668,27.344,8.301,72.754,0
1508233034.840,31.250,31.738,34.668,20.996,51.758,0
1508233034.844,45.410,23.926,47.363,36.133,-14.160,0
1508233034.848,46.387,27.832,43.945,36.133,-8.789,0
1508233034.852,26.367,26.367,33.203,20.996,53.223,0
1508233034.855,21.973,20.508,30.273,20.996,45.898,5
1508233034.859,27.344,21.973,37.598,33.203,17.090,0
1508233034.863,20.020,36.133,41.992,27.832,21.973,0
1508233034.867,19.043,38.086,38.574,28.320,70.312,0
1508233034.871,25.391,21.973,36.621,37.598,68.848,0
1508233034.875,23.438,14.648,36.621,32.227,22.949,0
1508233034.879,24.902,24.902,29.297,32.227,21.484,0
1508233034.883,22.949,22.949,23.438,33.203,48.828,0
1508233034.887,19.531,16.113,34.668,37.109,37.109,0
1508233034.891,16.602,15.137,41.504,43.945,-3.418,0
1508233034.894,14.160,20.020,43.457,37.598,19.043,0
1508233034.898,24.414,29.785,46.387,30.273,62.988,0
1508233034.902,24.902,24.414,37.598,27.344,57.617,0
1508233034.906,19.531,29.785,34.180,17.578,31.250,0
1508233034.910,21.973,41.504,41.016,18.066,40.527,0
1508233034.914,24.902,35.156,42.480,21.484,73.242,0
1508233034.918,31.250,34.180,41.016,22.949,57.617,0
1508233034.922,33.691,27.344,34.668,20.996,16.113,0
1508233034.926,30.762,21.484,22.949,14.160,-15.137,0
1508233034.930,26.367,27.344,30.762,9.277,9.766,0
1508233034.934,27.344,25.879,41.016,7.812,14.160,0
1508233034.937,26.367,32.715,34.180,9.277,-4.883,0
1508233034.941,18.066,34.180,27.832,4.883,20.996,0
1508233034.945,15.625,29.785,32.227,4.883,3.418,0
1508233034.949,27.832,31.250,38.574,14.160,-21.973,0
1508233034.953,31.250,27.832,35.156,15.625,23.926,0
1508233034.957,31.738,28.809,34.668,25.391,28.320,0
1508233034.961,37.109,41.016,39.551,38.574,2.930,0
1508233034.965,30.762,34.180,40.527,35.156,13.672,0
1508233034.969,36.133,33.203,36.133,35.156,34.180,0
1508233034.973,41.016,34.668,34.668,45.410,49.316,0
1508233034.977,25.879,32.227,40.527,37.598,28.320,0
1508233034.980,25.879,24.414,45.898,35.645,14.160,0
1508233034.984,32.227,14.160,41.016,41.992,53.223,0
1508233034.988,28.320,38.086,34.668,40.039,58.105,0
1508233034.992,32.227,43.457,36.621,39.062,13.184,0
1508233034.996,29.785,22.461,37.109,33.203,-30.273,0
1508233035.000,20.020,10.742,35.645,26.367,19.043,0
1508233035.004,21.973,26.367,33.691,21.484,66.895,0
1508233035.008,21.484,20.508,34.180,20.020,30.762,0
1508233035.012,17.090,11.230,44.434,22.949,22.461,0
1508233035.016,20.508,22.461,47.852,26.367,53.223,0
1508233035.019,21.973,25.391,35.645,20.996,50.293,0
1508233035.023,20.020,38.086,36.133,23.926,28.320,0
1508233035.027,16.602,37.109,37.109,18.555,13.184,0
1508233035.031,7.812,33.203,25.879,12.695,14.160,0
1508233035.035,12.207,22.461,26.367,17.090,47.363,0
1508233035.039,25.391,15.137,34.668,16.602,31.250,0
1508233035.043,26.855,35.645,39.551,24.902,5.371,0
1508233035.047,26.367,49.805,37.598,36.621,9.277,0
1508233035.051,23.926,51.270,27.832,34.180,5.859,0
1508233035.055,16.113,32.715,23.926,30.273,8.789,0
1508233035.059,24.414,17.578,35.645,31.738,22.949,0
1508233035.062,37.109,23.926,44.434,35.156,52.246,0
1508233035.066,30.762,31.250,39.551,33.691,53.223,0
1508233035.070,33.691,34.180,41.016,41.504,63.965,0
1508233035.074,35.156,28.809,43.945,44.434,33.691,0
1508233035.078,28.809,26.855,34.180,32.715,13.184,0
1508233035.082,36.621,36.621,33.203,35.156,19.043,0
1508233035.086,39.062,40.039,32.227,34.668,52.734,0
1508233035.090,45.410,27.832,33.203,29.785,72.754,0
1508233035.094,56.641,26.855,38.086,37.598,42.480,0
1508233035.098,57.129,23.438,38.086,39.062,26.855,0
1508233035.102,48.340,23.926,29.297,36.133,49.805,0
1508233035.105,38.086,50.293,26.367,32.715,63.477,0
1508233035.109,39.551,38.574,36.621,34.668,19.531,0
1508233035.113,38.574,14.648,27.832,27.832,0.000,0
1508233035.117,39.062,27.832,22.461,20.020,23.926,0
1508233035.121,43.457,35.645,23.926,23.926,44.434,0
1508233035.125,42.969,24.414,30.762,36.133,0.977,0
1508233035.129,35.645,25.879,32.715,30.273,-19.043,0
1508233035.133,25.879,33.691,29.297,20.508,18.555,0
1508233035.137,33.691,26.367,30.273,27.344,47.852,0
1508233035.141,37.598,29.297,39.062,29.785,-0.977,0
1508233035.144,31.738,29.785,29.297,23.438,-17.090,0
1508233035.148,28.320,33.691,23.438,20.020,32.715,0
1508233035.152,29.297,34.180,41.504,22.461,48.828,0
1508233035.156,32.715,15.625,46.387,27.344,42.480,0
1508233035.160,33.691,18.555,40.527,29.785,24.414,0
1508233035.164,33.691,29.297,40.039,32.715,30.273,0
1508233035.168,35.645,41.016,45.410,35.156,36.621,0
1508233035.172,33.691,35.156,44.434,37.598,29.785,0
1508233035.176,30.762,20.508,36.621,31.738,-10.742,0
1508233035.180,40.039,41.016,39.062,30.273,-20.020,0
1508233035.184,41.992,51.270,29.785,32.227,41.504,0
1508233035.187,48.828,28.320,28.809,35.645,27.832,0
1508233035.191,54.199,21.973,34.668,35.156,-14.648,0
1508233035.195,45.410,9.277,35.645,28.809,0.000,0
1508233035.199,41.016,10.742,37.109,36.621,22.461,0
1508233035.203,45.410,36.621,38.574,43.457,43.945,0
1508233035.207,51.758,44.922,42.480,41.016,34.180,0
1508233035.211,50.293,36.621,35.156,35.156,13.672,0
1508233035.215,51.758,26.855,30.273,34.180,28.809,0
1508233035.219,56.641,29.785,35.156,44.922,23.926,0
1508233035.223,54.199,26.855,29.785,44.434,17.090,0
1508233035.227,48.340,31.738,8.301,38.086,27.832,0
1508233035.230,34.180,28.809,9.277,33.691,8.301,0
1508233035.234,30.762,21.973,20.996,32.227,15.625,0
1508233035.238,45.410,25.391,18.555,30.762,36.621,0
1508233035.242,38.086,31.250,15.137,23.926,14.648,0
1508233035.246,32.227,35.156,17.090,23.438,1.465,0
1508233035.250,33.691,20.996,23.926,25.391,44.434,0
1508233035.254,30.273,28.809,28.809,30.762,61.523,0
1508233035.258,33.691,33.691,30.762,34.180,27.344,0
1508233035.262,33.691,24.414,37.109,35.156,0.000,0
1508233035.266,32.715,18.555,31.738,28.320,-17.578,0
1508233035.269,33.203,15.625,28.320,31.250,-2.930,0
1508233035.273,24.414,25.391,36.621,35.645,8.789,0
1508233035.277,22.461,23.438,33.691,29.785,17.090,0
1508233035.281,26.855,18.066,42.969,35.156,52.734,0
1508233035.285,26.855,24.902,45.898,41.992,60.059,0
1508233035.289,32.227,13.184,37.598,38.574,35.645,0
1508233035.293,35.156,13.184,36.621,28.320,22.949,0
1508233035.297,28.809,25.879,36.133,26.367,42.480,0
1508233035.301,25.879,27.832,39.551,36.621,64.453,0
1508233035.305,24.414,29.297,51.270,43.457,57.617,0
1508233035.309,20.508,23.926,46.875,47.363,25.879,0
1508233035.312,22.461,16.602,35.156,44.922,-8.301,0
1508233035.316,28.809,12.207,46.387,43.457,11.230,0
1508233035.320,37.109,23.926,54.688,50.781,65.430,0
1508233035.324,40.039,32.227,45.898,46.387,13.184,0
1508233035.328,36.621,24.414,44.922,45.410,-20.996,0
1508233035.332,34.180,23.926,38.086,45.410,39.062,0
1508233035.336,37.109,28.320,32.715,37.598,47.852,0
1508233035.340,32.715,29.785,40.039,37.109,20.996,0
1508233035.344,33.691,38.574,41.016,31.738,-3.906,0
1508233035.348,39.551,35.156,41.016,32.715,19.531,0
1508233035.352,36.621,25.391,38.086,38.086,60.547,0
1508233035.355,25.879,20.996,33.203,33.691,37.598,0
1508233035.359,32.227,18.066,41.504,43.457,-8.301,0
1508233035.363,33.691,40.039,40.527,42.480,11.230,0
1508233035.367,29.297,45.410,33.691,30.273,43.945,0
1508233035.371,26.367,31.250,37.109,22.461,39.062,0
1508233035.375,16.113,23.438,39.062,21.484,45.410,0
1508233035.379,12.207,25.879,35.156,20.996,17.090,0
1508233035.383,7.324,29.785,38.086,19.043,22.949,0
1508233035.387,11.230,17.090,41.016,23.926,67.383,0
1508233035.391,14.160,30.762,42.480,25.879,40.527,0
1508233035.394,16.113,39.551,38.574,26.367,9.277,0
1508233035.398,10.742,19.531,25.391,19.531,25.391,0
1508233035.402,4.883,21.484,26.367,9.766,43.457,0
1508233035.406,23.926,31.250,36.621,22.949,19.531,0
1508233035.410,27.344,30.273,39.551,24.414,-1.953,0
1508233035.414,18.555,27.832,28.320,20.508,-23.438,0
1508233035.418,29.785,28.320,30.762,29.297,-4.883,0
1508233035.422,33.203,25.879,36.133,27.832,31.738,0
1508233035.426,34.180,27.344,41.504,34.668,18.555,0
1508233035.430,31.738,36.621,38.086,37.598,29.297,0
1508233035.434,32.227,41.504,35.156,37.109,70.312,0
1508233035.437,38.086,26.367,35.645,33.691,78.125,0
1508233035.441,34.180,16.602,34.668,38.086,17.090,0
1508233035.445,37.109,21.484,40.039,44.922,-19.043,0
1508233035.449,30.273,31.250,29.785,25.879,20.508,0
1508233035.453,36.133,35.645,33.203,22.461,44.434,0
1508233035.457,38.574,28.320,36.133,24.902,1.953,0
1508233035.461,20.996,28.320,25.879,9.766,-31.250,0
1508233035.465,22.461,26.367,27.344,9.766,15.625,0
1508233035.469,27.832,19.043,36.621,14.160,59.082,0
1508233035.473,24.902,38.086,40.527,19.531,40.039,0
1508233035.477,18.066,40.527,30.273,17.090,14.648,0
1508233035.480,15.137,22.949,25.391,5.371,21.484,0
1508233035.484,11.230,29.785,11.230,3.418,30.762,0
1508233035.488,7.324,30.273,1.465,4.395,51.758,0
1508233035.492,16.113,30.762,14.648,-5.859,30.762,0
1508233035.496,22.949,41.504,21.973,-0.977,19.531,0
1508233035.500,17.090,21.973,17.578,-0.977,47.363,0
1508233035.504,15.137,21.484,8.301,-6.348,24.902,0
1508233035.508,18.066,43.457,13.184,2.930,0.977,0
1508233035.512,18.555,24.414,16.113,6.348,41.016,0
1508233035.516,7.324,17.090,11.719,0.977,55.664,0
1508233035.519,16.602,26.367,19.531,8.301,42.480,0
1508233035.523,28.320,28.320,22.949,21.973,31.250,0
1508233035.527,21.973,34.668,7.812,17.090,6.836,0
1508233035.531,25.879,28.809,21.484,20.508,-20.508,0
1508233035.535,22.461,35.645,35.156,31.738,9.766,0
1508233035.539,10.742,49.805,23.438,24.414,24.902,0
1508233035.543,17.090,33.691,30.273,21.973,-7.812,0
1508233035.547,29.785,25.879,41.016,34.668,-3.418,0
1508233035.551,28.320,36.621,31.738,30.762,15.625,0
1508233035.555,22.461,28.320,18.066,12.207,16.602,0
1508233035.559,22.461,25.879,16.602,6.836,20.020,0
1508233035.562,25.391,30.762,32.715,21.484,0.000,0
1508233035.566,14.160,21.484,27.832,19.531,-4.395,0
1508233035.570,7.324,25.391,21.484,12.695,36.133,0
1508233035.574,9.766,32.227,39.551,18.555,24.414,0
1508233035.578,11.230,23.438,37.598,9.766,14.648,0
1508233035.582,5.859,16.602,27.832,-3.418,32.227,0
1508233035.586,6.348,18.555,26.367,1.465,59.082,0
1508233035.590,16.113,32.715,35.156,12.695,40.039,0
1508233035.594,14.648,31.738,43.945,12.695,-28.809,0
1508233035.598,16.602,18.066,41.504,10.742,-18.555,0
1508233035.602,10.254,26.855,27.344,1.953,63.477,0
1508233035.605,12.207,25.391,23.926,5.371,57.617,0
1508233035.609,19.043,24.902,26.855,12.695,-13.184,0
1508233035.613,20.508,40.527,24.414,7.324,-1.465,0
1508233035.617,20.508,40.527,33.691,10.254,45.410,0
1508233035.621,23.438,41.016,38.574,17.090,36.133,0
1508233035.625,22.461,36.133,30.762,15.137,4.395,0
1508233035.629,14.648,22.949,32.227,16.602,-1.953,0
1508233035.633,13.672,45.898,30.762,19.531,26.855,0
1508233035.637,21.973,42.480,26.367,20.996,34.180,0
1508233035.641,26.855,16.602,26.855,24.414,-0.977,0
1508233035.644,18.555,23.438,26.855,24.902,10.742,0
1508233035.648,20.020,25.391,19.043,25.879,57.129,0
1508233035.652,33.691,26.855,16.113,38.086,47.363,0
1508233035.656,30.762,35.645,27.832,36.621,-1.953,0
1508233035.660,25.879,42.480,24.902,21.484,16.113,0
1508233035.664,32.227,36.621,23.926,29.785,25.391,0
1508233035.668,24.902,42.480,29.297,30.273,8.789,0
1508233035.672,13.184,36.621,15.625,20.508,27.344,0
1508233035.676,21.484,24.414,8.789,25.879,20.996,0
1508233035.680,25.879,38.086,17.578,24.902,-15.625,0
1508233035.684,26.367,43.945,19.043,31.738,30.273,0
1508233035.687,32.227,31.738,20.020,36.133,33.691,0
1508233035.691,35.156,25.391,24.902,33.691,-6.348,0
1508233035.695,34.180,31.250,30.273,35.156,13.184,0
1508233035.699,35.645,37.109,31.738,34.180,21.973,0
1508233035.703,31.250,33.691,19.531,27.344,19.043,0
1508233035.707,35.156,30.273,21.973,28.809,27.344,0
1508233035.711,46.875,36.621,34.668,43.457,-2.930,0
1508233035.715,39.062,37.109,29.785,40.039,1.953,0
1508233035.719,38.574,31.738,18.555,32.715,34.668,0
1508233035.723,42.969,31.738,17.090,35.645,23.926,0
1508233035.727,36.133,23.926,24.902,33.203,-20.020,0
1508233035.730,37.109,28.809,38.574,38.574,-53.223,0
1508233035.734,47.363,43.945,46.387,47.363,5.859,0
1508233035.738,51.270,32.227,40.039,56.152,34.668,0
1508233035.742,59.570,11.719,36.133,64.453,-23.926,0
1508233035.746,63.477,24.414,40.039,55.664,-42.969,0
1508233035.750,60.059,44.922,38.574,48.340,19.531,0
1508233035.754,60.059,27.344,38.574,55.664,68.848,0
1508233035.758,64.453,20.996,35.645,64.453,38.086,0
1508233035.762,57.617,35.645,34.180,55.664,7.324,0
1508233035.766,53.711,36.621,37.109,50.781,22.461,0
1508233035.769,56.641,40.527,32.715,51.758,23.926,0
1508233035.773,52.246,29.297,34.668,47.852,4.883,0
1508233035.777,49.805,29.785,40.039,40.039,-4.883,0
1508233035.781,48.340,32.227,40.527,36.133,3.418,0
1508233035.785,51.270,41.016,41.016,43.457,19.531,0
1508233035.789,49.316,43.457,38.086,43.457,-0.977,0
1508233035.793,47.363,35.645,44.922,49.316,-18.066,0
1508233035.797,48.340,41.016,51.270,55.664,-0.977,0
1508233035.801,41.016,32.715,42.969,42.480,11.230,0
1508233035.805,37.598,14.648,40.527,34.668,20.020,0
1508233035.809,31.250,17.578,37.598,30.762,34.180,0
1508233035.812,28.320,30.762,40.039,37.598,48.828,0
1508233035.816,41.016,27.344,47.852,56.152,36.621,0
1508233035.820,51.270,27.832,45.410,56.152,38.574,0
1508233035.824,41.992,34.180,40.527,39.062,19.043,0
1508233035.828,40.039,37.109,45.410,40.039,-6.348,0
1508233035.832,43.457,37.109,36.133,45.410,27.832,0
1508233035.836,41.992,31.250,33.203,43.457,28.809,0
1508233035.840,41.016,21.484,39.062,38.574,29.297,0
1508233035.844,35.645,27.832,40.039,36.133,40.039,0
1508233035.848,36.133,21.973,45.410,42.480,32.715,0
1508233035.852,42.969,24.902,41.504,38.574,27.832,0
1508233035.855,44.922,29.297,39.551,31.250,36.133,0
1508233035.859,41.504,27.832,39.062,31.738,14.160,0
1508233035.863,41.016,29.297,35.156,36.133,-20.020,0
1508233035.867,43.945,27.832,40.527,38.574,42.969,0
1508233035.871,40.039,31.250,42.480,34.668,74.219,0
1508233035.875,35.156,28.809,42.480,33.691,27.344,0
1508233035.879,36.133,27.832,47.363,30.762,-6.836,0
1508233035.883,38.574,31.250,42.480,30.762,8.301,0
1508233035.887,33.691,31.250,33.203,23.926,62.500,0
1508233035.891,30.273,28.320,38.086,26.855,61.035,0
1508233035.894,40.039,28.320,34.668,30.273,17.090,0
1508233035.898,41.504,32.227,34.668,26.367,30.273,0
1508233035.902,55.664,37.109,52.734,43.457,68.848,0
1508233035.906,52.734,44.922,47.852,45.410,51.270,0
1508233035.910,36.133,45.898,31.738,37.598,24.902,0
1508233035.914,44.434,29.297,27.832,35.645,30.273,0
1508233035.918,51.270,21.484,38.086,46.875,56.641,0
1508233035.922,51.758,30.273,41.992,53.711,30.273,0
1508233035.926,41.504,45.898,42.480,47.363,-46.875,0
1508233035.930,35.156,34.180,41.992,56.641,-28.809,0
1508233035.934,38.574,18.066,41.016,60.059,49.805,0
1508233035.937,40.039,39.062,41.504,54.199,50.781,0
1508233035.941,40.039,46.387,45.410,52.246,-16.602,0
1508233035.945,43.457,28.809,47.363,47.363,-9.766,0
1508233035.949,33.691,23.926,39.551,42.969,26.367,0
1508233035.953,24.414,27.344,27.344,41.992,43.945,0
1508233035.957,24.902,23.926,35.645,49.316,18.066,0
1508233035.961,25.879,23.438,49.805,47.852,-2.930,0
1508233035.965,31.738,27.344,49.805,44.434,12.695,0
1508233035.969,33.203,39.551,52.734,50.293,-14.648,0
1508233035.973,27.344,37.598,47.363,43.945,-11.230,0
1508233035.977,23.926,20.508,38.574,36.621,18.066,0
1508233035.980,27.832,13.184,39.062,34.180,6.836,0
1508233035.984,30.273,19.531,42.480,30.762,37.109,0
1508233035.988,32.715,30.762,48.340,35.156,51.270,0
1508233035.992,30.762,25.391,47.363,29.785,17.090,0
1508233035.996,22.461,34.180,39.551,15.625,-0.977,0
1508233036.000,28.809,50.781,34.180,9.277,-8.301,0
1508233036.004,32.715,31.738,34.180,15.137,19.043,0
1508233036.008,38.574,18.555,48.340,31.738,41.504,0
1508233036.012,40.039,27.832,46.875,33.691,20.020,0
1508233036.016,30.273,20.996,31.738,27.344,3.418,0
1508233036.019,30.273,15.625,33.203,33.691,47.852,0
1508233036.023,37.109,27.344,26.855,39.551,53.223,0
1508233036.027,44.922,31.250,32.227,43.945,-2.930,0
1508233036.031,42.969,33.203,41.992,44.922,3.418,0
1508233036.035,41.504,28.320,44.922,53.711,50.781,0
1508233036.039,37.598,19.531,38.574,48.828,59.570,0
1508233036.043,27.832,29.785,28.809,37.598,2.930,0
1508233036.047,30.762,32.715,31.250,35.645,-12.695,0
1508233036.051,41.504,37.598,35.156,34.668,31.250,0
1508233036.055,46.387,47.852,37.598,40.527,13.184,0
1508233036.059,42.480,35.645,41.504,46.387,-18.555,0
1508233036.062,37.598,31.250,33.691,44.434,-2.441,0
1508233036.066,32.227,23.438,23.438,34.180,31.738,0
1508233036.070,31.250,18.066,32.715,37.109,42.969,0
1508233036.074,30.273,26.367,37.109,38.574,5.371,0
1508233036.078,16.113,26.367,29.297,25.879,-0.977,0
1508233036.082,16.602,28.320,32.227,26.367,13.672,0
1508233036.086,22.461,25.391,40.039,31.250,35.645,0
1508233036.090,11.230,26.367,38.574,26.367,54.199,0
1508233036.094,10.254,30.273,38.574,24.902,12.207,0
1508233036.098,19.043,24.902,33.203,19.531,19.531,0
1508233036.102,23.926,30.273,36.621,20.996,50.781,0
1508233036.105,18.555,29.297,43.457,15.625,24.902,0
1508233036.109,18.066,26.855,40.527,16.602,-5.859,0
1508233036.113,22.949,28.320,39.062,18.066,0.488,0
1508233036.117,21.484,22.461,36.133,10.742,39.062,0
1508233036.121,16.602,31.250,35.645,20.996,43.457,0
1508233036.125,10.742,44.922,34.180,22.461,14.648,0
1508233036.129,22.949,36.133,37.598,27.832,16.602,0
1508233036.133,34.180,31.250,40.527,35.156,20.996,0
1508233036.137,22.949,32.715,28.320,30.273,14.160,0
1508233036.141,21.484,27.832,30.762,40.039,37.598,0
1508233036.144,29.785,28.809,44.434,43.945,41.504,0
1508233036.148,20.508,24.902,40.527,27.344,7.324,0
1508233036.152,27.832,34.668,36.133,32.715,20.020,0
1508233036.156,32.227,36.621,30.762,24.902,36.133,0
1508233036.160,25.391,31.738,32.715,21.973,2.930,0
1508233036.164,28.809,35.156,39.062,37.598,-10.742,0
1508233036.168,30.273,30.273,32.227,35.156,15.137,0
1508233036.172,23.438,19.531,25.391,29.297,49.805,0
1508233036.176,22.949,35.156,34.180,31.738,12.207,0
1508233036.180,24.414,39.551,35.156,22.461,-36.133,0
1508233036.184,30.273,36.621,30.273,19.531,12.207,0
1508233036.187,32.227,43.457,34.668,34.668,93.262,0
1508233036.191,21.973,23.926,30.273,23.438,53.223,0
1508233036.195,21.973,28.320,29.785,17.090,7.812,0
1508233036.199,26.367,41.504,28.809,24.414,24.902,0
1508233036.203,28.809,26.367,24.902,23.926,18.555,0
1508233036.207,31.738,37.109,25.879,15.137,9.277,0
1508233036.211,41.504,38.086,26.367,21.484,-27.832,0
1508233036.215,35.156,31.250,29.297,24.902,-3.906,0
1508233036.219,34.668,39.062,42.969,21.973,50.293,0
1508233036.223,54.199,37.109,49.805,29.785,57.617,0
1508233036.227,46.875,45.410,32.227,21.484,24.902,0
1508233036.230,44.434,49.316,23.438,15.137,-7.324,0
1508233036.234,51.758,39.551,30.762,26.367,11.719,0
1508233036.238,44.922,29.297,35.156,30.273,18.555,0
1508233036.242,38.086,35.156,30.273,21.484,7.812,0
1508233036.246,41.016,40.527,22.949,25.879,0.000,0
1508233036.250,47.852,44.922,25.879,35.645,26.855,0
1508233036.254,41.992,32.227,35.645,42.969,15.625,0
1508233036.258,37.109,25.879,36.621,51.270,4.883,0
1508233036.262,34.180,37.109,31.738,40.527,32.227,0
1508233036.266,38.086,31.250,40.039,39.062,35.156,0
1508233036.269,53.223,32.715,43.457,45.898,55.664,0
1508233036.273,46.387,41.992,36.621,37.598,46.387,0
1508233036.277,31.250,21.484,33.203,27.344,39.062,0
1508233036.281,29.297,20.508,25.879,27.344,41.504,0
1508233036.285,33.691,32.715,26.367,35.156,34.668,0
1508233036.289,26.855,23.926,37.109,28.320,45.898,0
1508233036.293,26.855,27.344,40.527,26.855,22.949,0
1508233036.297,33.203,30.762,39.551,32.227,3.906,0
1508233036.301,25.391,30.762,34.668,25.391,29.785,0
1508233036.305,20.508,24.902,30.273,24.902,44.434,0
1508233036.309,30.762,32.715,34.668,31.250,19.531,0
1508233036.312,40.039,32.227,37.598,34.668,-9.277,0
1508233036.316,41.016,19.531,38.574,35.645,13.672,0
1508233036.320,34.668,26.367,32.715,31.738,49.805,0
1508233036.324,26.367,21.484,27.832,27.832,41.016,0
1508233036.328,22.461,8.301,25.879,21.973,25.879,0
1508233036.332,32.227,11.719,26.367,26.855,20.996,0
1508233036.336,37.598,23.438,34.668,33.203,30.273,0
1508233036.340,31.738,31.738,37.109,32.227,52.246,0
1508233036.344,40.039,27.832,40.527,37.598,16.602,0
1508233036.348,45.410,30.762,40.039,36.133,-11.230,0
1508233036.352,34.668,31.250,30.273,34.180,42.480,0
1508233036.355,35.645,13.672,28.809,41.016,45.410,0
1508233036.359,34.180,6.348,33.691,33.691,-16.602,0
1508233036.363,31.738,13.184,27.344,23.926,-1.465,0
1508233036.367,39.551,22.461,23.438,33.203,61.523,0
1508233036.371,41.504,20.508,32.227,42.969,32.715,0
1508233036.375,40.527,21.484,28.809,41.016,29.785,0
1508233036.379,41.016,31.250,20.508,40.039,27.832,0
1508233036.383,51.270,23.926,28.320,42.969,31.250,0
1508233036.387,51.270,21.484,35.156,39.062,54.688,0
1508233036.391,65.430,30.762,42.969,48.828,-6.348,0
1508233036.394,68.359,33.691,36.133,51.270,-3.418,0
1508233036.398,52.246,29.297,31.738,44.434,42.480,0
1508233036.402,41.992,30.762,27.344,33.691,42.480,0
1508233036.406,33.691,30.273,15.625,21.484,35.156,0
1508233036.410,43.457,32.227,27.344,31.250,6.836,0
1508233036.414,46.875,26.367,28.320,31.250,27.344,0
1508233036.418,37.109,28.809,24.414,28.809,53.223,0
1508233036.422,36.621,46.875,28.809,34.180,27.344,0
1508233036.426,42.480,41.992,30.273,38.574,40.527,0
1508233036.430,48.828,37.109,33.691,43.945,45.410,0
1508233036.434,48.340,35.156,33.691,38.574,25.391,0
1508233036.437,52.246,40.039,31.250,41.504,9.277,0
1508233036.441,54.199,62.988,29.785,47.363,-6.348,0
1508233036.445,59.082,50.781,22.949,48.340,11.719,0
1508233036.449,72.754,22.949,36.621,52.734,0.488,0
1508233036.453,66.895,37.109,43.945,51.758,19.531,0
1508233036.457,44.922,44.922,34.180,40.527,31.738,0
1508233036.461,51.758,57.129,34.180,46.387,6.348,0
1508233036.465,77.148,41.504,43.457,59.570,25.391,0
1508233036.469,73.242,25.391,38.574,50.781,61.035,0
1508233036.473,69.824,48.828,19.043,42.969,49.805,0
1508233036.477,73.242,44.922,25.879,52.734,-3.418,0
1508233036.480,60.547,44.434,34.668,54.199,-3.906,0
1508233036.484,73.730,37.109,40.039,69.824,29.297,0
1508233036.488,87.402,44.922,50.781,79.590,20.996,0
1508233036.492,88.379,59.082,57.617,74.707,-8.789,0
1508233036.496,82.031,21.484,45.410,63.965,-22.461,0
1508233036.500,76.660,37.598,24.414,58.105,22.461,0
1508233036.504,99.609,77.148,31.738,81.543,74.707,0
1508233036.508,117.676,49.805,45.898,105.957,34.668,0
1508233036.512,106.445,38.574,42.480,107.422,-10.742,0
1508233036.516,109.375,74.707,35.156,108.398,40.039,0
1508233036.519,126.465,80.566,38.086,122.559,63.965,0
1508233036.523,135.742,68.359,41.504,133.789,40.039,0
1508233036.527,145.508,82.520,40.039,131.836,10.742,0
1508233036.531,146.973,94.727,41.504,137.695,14.160,0
1508233036.535,151.367,76.660,37.109,149.902,37.109,0
1508233036.539,173.828,74.707,49.316,158.691,9.277,0
1508233036.543,173.340,89.844,52.734,151.367,-4.883,0
1508233036.547,150.391,82.520,45.410,141.602,22.949,0
1508233036.551,146.484,66.895,48.340,144.043,28.809,0
1508233036.555,142.578,65.918,41.992,144.531,-24.414,0
1508233036.559,139.648,59.570,41.016,139.648,-33.691,0
1508233036.562,140.625,57.129,41.992,129.883,4.883,0
1508233036.566,138.184,73.242,40.527,131.348,14.648,0
1508233036.570,128.906,78.613,34.180,126.465,13.672,0
1508233036.574,123.047,71.289,31.250,120.117,-1.465,0
1508233036.578,123.535,72.266,36.621,117.676,-22.949,0
1508233036.582,112.305,73.242,25.879,106.934,-16.113,0
1508233036.586,101.562,65.430,29.297,104.492,-1.953,0
1508233036.590,101.562,61.035,41.992,99.609,-6.348,0
1508233036.594,96.680,57.617,39.551,84.473,12.695,0
1508233036.598,83.984,55.664,38.086,83.984,25.879,0
1508233036.602,84.473,32.227,38.086,87.402,18.066,0
1508233036.605,74.219,16.113,34.668,73.242,57.617,0
1508233036.609,61.035,24.414,36.133,59.082,37.598,0
1508233036.613,60.547,42.480,38.086,55.664,-20.020,0
1508233036.617,65.430,57.129,35.156,63.477,-1.465,0
1508233036.621,61.035,51.270,23.438,66.406,21.973,0
1508233036.625,53.711,48.340,20.020,62.012,-20.020,0
1508233036.629,56.152,42.480,33.203,62.500,-40.039,0
1508233036.633,58.594,48.828,32.715,59.082,-19.531,0
1508233036.637,60.059,56.641,28.320,53.223,20.996,0
1508233036.641,57.617,42.969,29.297,52.734,36.621,0
1508233036.644,53.711,49.805,26.855,53.223,2.930,0
1508233036.648,44.922,51.758,25.879,43.457,6.348,0
1508233036.652,54.199,37.598,31.738,42.969,35.156,0
1508233036.656,58.105,28.809,33.203,48.340,7.324,0
1508233036.660,61.523,31.738,35.156,49.805,-19.531,0
1508233036.664,52.246,49.805,25.391,38.574,4.395,0
1508233036.668,29.297,36.621,15.137,25.391,13.672,0
1508233036.672,25.879,34.668,28.320,29.297,-11.230,0
1508233036.676,22.949,41.016,38.574,33.203,-42.969,0
1508233036.680,32.715,31.250,45.410,42.969,-5.371,0
1508233036.684,37.109,29.297,37.598,48.340,20.996,0
1508233036.687,24.902,36.621,21.973,33.691,-4.395,0
1508233036.691,7.324,36.133,18.066,15.137,-12.207,0
1508233036.695,10.254,26.367,23.438,18.555,13.184,0
1508233036.699,14.648,33.203,34.180,24.414,49.805,0
1508233036.703,6.348,28.809,24.414,17.578,48.828,0
1508233036.707,-7.812,14.648,14.648,0.977,13.672,0
1508233036.711,-1.465,28.320,22.461,1.953,-3.418,0
1508233036.715,4.395,41.016,23.926,6.836,10.742,0
1508233036.719,-2.441,41.016,24.902,0.000,29.297,0
1508233036.723,-7.812,41.504,20.508,-5.859,-2.930,0
1508233036.727,-3.906,31.738,27.344,0.000,-1.465,0
1508233036.730,12.695,28.809,28.809,2.930,12.695,0
1508233036.734,14.648,36.621,20.996,5.371,-11.230,0
1508233036.738,15.137,37.598,21.973,10.742,4.883,0
1508233036.742,17.090,28.809,20.996,4.883,23.438,0
1508233036.746,30.762,19.531,28.320,6.836,20.508,0
1508233036.750,40.527,31.250,29.785,9.277,51.270,0
1508233036.754,40.039,47.363,27.344,8.789,51.270,0
1508233036.758,33.691,37.598,25.879,17.090,29.297,0
1508233036.762,30.762,32.227,27.344,17.090,5.859,0
1508233036.766,40.527,44.922,41.504,23.438,2.930,0
1508233036.769,37.109,52.246,43.457,25.879,21.484,0
1508233036.773,24.414,36.621,37.109,9.766,22.949,0
1508233036.777,14.648,20.996,32.715,5.859,-11.719,0
1508233036.781,14.160,31.738,34.180,16.602,-23.438,0
1508233036.785,22.461,41.992,39.062,24.414,29.297,0
1508233036.789,15.625,39.551,36.133,19.531,54.688,0
1508233036.793,2.441,28.809,34.180,18.555,10.742,0
1508233036.797,9.277,9.766,38.574,22.949,-4.395,0
1508233036.801,15.625,31.250,31.738,20.996,25.391,0
1508233036.805,8.789,36.621,30.762,21.484,36.621,0
1508233036.809,6.348,18.555,40.039,25.391,18.555,0
1508233036.812,8.301,30.273,34.668,17.578,-5.859,0
1508233036.816,9.277,40.039,39.062,4.883,18.555,0
1508233036.820,11.230,35.645,44.434,7.812,41.992,0
1508233036.824,5.371,26.367,40.039,9.766,-3.418,0
1508233036.828,-1.953,17.578,34.668,0.977,-33.691,0
1508233036.832,-0.977,8.301,35.645,-2.441,14.160,0
1508233036.836,-5.371,13.184,35.645,1.953,50.293,0
1508233036.840,-1.953,22.461,29.785,4.395,33.203,0
1508233036.844,6.836,27.344,34.180,6.348,-16.113,0
1508233036.848,15.625,27.344,49.805,16.113,-10.254,0
1508233036.852,16.113,19.531,35.645,7.812,31.738,0
1508233036.855,5.371,27.344,26.367,-2.441,1.465,0
1508233036.859,2.930,31.250,33.691,-3.906,-42.480,0
1508233036.863,4.395,20.508,34.180,-0.977,-18.555,0
1508233036.867,8.789,25.879,39.062,7.324,23.926,0
1508233036.871,20.508,32.715,49.805,15.625,12.207,0
1508233036.875,12.695,17.578,27.832,1.953,7.324,0
1508233036.879,10.742,13.184,11.719,-7.812,-8.789,0
1508233036.883,14.648,29.297,23.438,-3.906,4.883,0
1508233036.887,15.137,28.320,35.645,2.930,63.965,0
1508233036.891,23.926,32.227,39.062,14.160,40.527,0
1508233036.894,13.672,31.738,26.367,9.277,1.953,0
1508233036.898,9.766,23.438,17.578,-0.488,16.602,0
1508233036.902,10.742,26.855,18.555,2.441,36.621,0
1508233036.906,7.324,21.973,29.785,17.578,15.625,0
1508233036.910,3.418,9.277,33.691,17.090,8.301,0
1508233036.914,10.742,16.602,36.133,15.625,15.625,0
1508233036.918,26.855,41.992,38.574,20.996,39.551,0
1508233036.922,21.484,37.109,34.180,12.207,56.641,0
1508233036.926,13.672,21.484,27.832,0.000,8.301,0
1508233036.930,25.879,19.043,30.273,5.371,11.719,0
1508233036.934,33.691,22.949,37.598,7.812,51.270,0
1508233036.937,28.320,24.414,40.527,9.766,41.504,0
1508233036.941,20.508,24.414,41.504,16.602,19.531,0
1508233036.945,20.508,29.297,39.551,14.160,15.625,0
1508233036.949,24.414,36.133,37.598,19.043,28.320,0
1508233036.953,24.902,22.949,48.340,30.273,27.832,0
1508233036.957,18.066,14.648,51.270,28.320,18.066,0
1508233036.961,17.578,20.020,41.504,28.320,-11.719,0
1508233036.965,25.391,30.762,32.715,37.109,-4.883,0
1508233036.969,23.438,29.297,44.922,41.016,47.363,0
1508233036.973,22.949,21.484,52.734,41.992,43.945,0
1508233036.977,25.879,19.531,46.875,42.480,-5.859,0
1508233036.980,24.414,20.508,41.016,38.086,2.441,0
1508233036.984,18.555,22.461,39.062,36.133,45.898,0
1508233036.988,11.230,24.414,37.109,40.039,46.875,0
1508233036.992,11.719,33.203,40.039,39.062,25.879,0
1508233036.996,17.090,20.020,43.457,39.062,16.113,0
1508233037.000,17.578,10.742,35.156,47.363,33.691,0
1508233037.004,21.484,32.227,47.363,50.293,14.648,0
1508233037.008,35.156,44.922,61.523,53.711,-5.371,0
1508233037.012,31.250,35.156,48.828,43.945,33.203,0
1508233037.016,20.020,16.602,42.969,29.297,51.758,0
1508233037.019,21.484,15.625,49.805,36.621,36.133,0
1508233037.023,25.879,35.156,49.805,42.480,27.344,0
1508233037.027,22.461,28.320,53.223,39.551,31.250,0
1508233037.031,14.648,7.324,49.805,34.668,15.625,0
1508233037.035,14.648,4.395,30.762,25.879,35.156,0
1508233037.039,14.160,8.789,43.945,20.996,16.602,0
1508233037.043,21.484,18.555,55.664,29.297,-9.766,0
1508233037.047,31.250,24.414,53.711,38.574,11.719,0
1508233037.051,37.109,25.391,54.688,36.621,8.301,0
1508233037.055,28.320,31.738,40.527,29.297,43.457,0
1508233037.059,29.297,33.203,33.691,29.297,29.785,0
1508233037.062,34.668,19.531,38.086,38.086,-2.930,0
1508233037.066,32.227,26.367,39.062,41.992,20.020,0
1508233037.070,35.645,28.320,45.898,49.316,52.246,0
1508233037.074,32.715,12.207,40.527,43.945,40.039,0
1508233037.078,29.785,11.719,31.738,42.480,22.461,0
1508233037.082,27.344,15.625,38.086,42.969,41.504,0
1508233037.086,21.484,20.020,44.922,41.992,56.152,0
1508233037.090,20.020,18.555,37.109,41.016,23.438,0
1508233037.094,23.926,18.066,36.133,42.969,-15.625,0
1508233037.098,28.320,29.785,42.969,43.457,7.324,0
1508233037.102,34.180,30.273,46.387,40.039,74.707,0
1508233037.105,39.551,30.273,53.223,43.945,75.684,0
1508233037.109,35.645,38.086,43.945,39.551,8.789,0
1508233037.113,30.762,29.297,41.504,30.762,23.926,0
1508233037.117,36.621,26.367,54.688,32.227,67.871,0
1508233037.121,20.508,20.508,37.109,26.367,37.109,0
1508233037.125,13.672,25.879,30.273,22.461,-2.930,0
1508233037.129,23.438,25.879,43.945,28.320,-3.418,0
1508233037.133,13.672,28.320,34.668,19.043,30.273,0
1508233037.137,11.719,16.113,28.809,15.625,6.836,0
1508233037.141,19.531,11.230,30.762,21.973,-11.230,0
1508233037.144,7.324,25.879,26.367,11.230,19.531,0
1508233037.148,20.020,17.578,33.203,9.277,40.039,0
1508233037.152,46.875,38.574,51.270,34.668,40.527,0
1508233037.156,28.809,44.922,39.551,22.949,14.648,0
1508233037.160,21.484,23.926,27.344,10.254,3.906,0
1508233037.164,26.367,23.926,35.645,20.508,22.949,0
1508233037.168,19.043,35.156,35.156,20.996,32.227,0
1508233037.172,16.113,34.180,26.367,15.137,45.898,0
1508233037.176,26.855,23.438,31.250,15.625,22.949,0
1508233037.180,31.738,27.344,33.203,25.879,8.301,0
1508233037.184,22.949,32.227,16.113,18.555,45.410,0
1508233037.187,33.691,29.785,26.367,27.344,56.641,0
1508233037.191,32.227,38.086,33.203,27.832,51.270,0
1508233037.195,19.043,37.598,27.344,20.020,23.926,0
1508233037.199,24.414,35.645,34.180,33.691,-8.301,0
1508233037.203,28.809,34.180,38.574,34.180,22.949,0
1508233037.207,24.902,35.156,35.645,17.578,24.414,0
1508233037.211,22.461,39.551,34.668,12.207,-5.859,0
1508233037.215,19.531,37.109,35.156,5.371,33.203,0
1508233037.219,25.391,43.945,24.414,5.371,62.988,0
1508233037.223,26.367,32.715,20.020,7.324,42.480,0
1508233037.227,24.414,35.156,23.926,4.395,0.488,0
1508233037.230,34.668,46.387,24.902,6.836,2.930,0
1508233037.234,30.273,26.855,19.531,1.465,45.898,0
1508233037.238,29.785,27.344,17.578,1.465,39.062,0
1508233037.242,36.621,43.457,25.391,9.766,-13.184,0
1508233037.246,37.598,57.617,34.180,20.508,-41.504,0
1508233037.250,29.785,52.246,27.832,19.531,28.809,0
1508233037.254,19.043,33.691,17.578,15.137,85.938,0
1508233037.258,16.113,35.645,21.484,20.508,7.324,0
1508233037.262,18.555,33.691,25.391,20.508,-38.574,0
1508233037.266,17.090,33.691,30.762,24.414,32.227,0
1508233037.269,19.531,35.645,35.645,28.809,74.219,0
1508233037.273,20.508,31.738,35.156,32.715,45.898,0
1508233037.277,23.926,41.504,31.738,30.273,-5.859,0
1508233037.281,18.555,40.527,25.391,18.555,4.395,0
1508233037.285,22.949,31.250,26.367,20.020,36.133,0
1508233037.289,37.109,24.414,36.621,33.203,1.953,0
1508233037.293,24.902,26.367,30.762,25.879,-23.926,0
1508233037.297,22.461,39.062,23.926,24.902,22.461,0
1508233037.301,27.832,42.969,17.578,23.926,31.250,0
1508233037.305,19.043,33.691,22.949,17.578,31.250,0
1508233037.309,21.973,27.344,24.902,16.113,21.484,0
1508233037.312,29.297,37.109,15.137,13.184,-0.488,0
1508233037.316,39.062,50.781,21.484,14.648,17.578,0
1508233037.320,49.805,57.129,24.414,13.672,17.578,0
1508233037.324,59.570,42.480,16.602,19.531,-14.160,0
1508233037.328,62.500,33.203,24.902,29.785,-13.184,0
1508233037.332,45.898,31.250,23.926,19.531,-11.719,0
1508233037.336,39.551,34.180,18.555,14.160,-13.184,0
1508233037.340,42.480,27.832,29.297,19.531,15.137,0
1508233037.344,50.781,29.785,34.180,28.809,-28.809,0
1508233037.348,55.664,45.410,28.809,34.668,-49.316,0
1508233037.352,52.734,36.621,28.809,34.668,9.766,0
1508233037.355,48.828,20.996,34.180,42.969,21.973,0
1508233037.359,42.969,25.391,33.691,42.480,7.324,0
1508233037.363,41.504,34.180,36.133,36.621,-21.484,0
1508233037.367,44.434,41.504,40.039,48.340,19.043,0
1508233037.371,53.711,27.832,41.504,58.594,51.270,0
1508233037.375,58.594,21.973,38.574,58.105,0.977,0
1508233037.379,52.246,28.320,27.832,61.523,-29.297,0
1508233037.383,48.828,27.344,31.738,58.105,-0.488,0
1508233037.387,54.688,31.738,39.062,55.176,51.758,0
1508233037.391,46.875,20.996,33.691,55.664,39.551,0
1508233037.394,30.762,18.555,32.227,51.270,-3.418,0
1508233037.398,34.668,29.785,35.156,44.922,10.254,0
1508233037.402,33.691,38.574,42.969,46.875,39.551,0
1508233037.406,31.250,46.875,50.781,51.758,40.527,0
1508233037.410,31.250,41.504,44.434,44.922,14.160,0
1508233037.414,21.484,31.738,32.227,37.598,23.438,0
1508233037.418,29.297,37.109,29.785,41.016,42.480,0
1508233037.422,34.180,35.156,33.691,33.691,26.367,0
1508233037.426,31.738,26.367,32.227,29.297,-0.488,0
1508233037.430,37.109,32.715,35.156,36.621,12.207,0
1508233037.434,37.109,27.344,39.062,34.668,51.758,0
1508233037.437,40.527,28.809,38.086,30.273,66.895,0
1508233037.441,47.363,39.062,38.574,38.086,44.434,0
1508233037.445,50.781,35.645,40.527,37.109,39.062,0
1508233037.449,47.852,36.621,37.598,27.344,57.617,0
1508233037.453,43.457,38.086,33.691,25.879,90.332,0
1508233037.457,46.387,36.621,30.273,30.273,45.410,0
1508233037.461,50.781,43.457,31.738,35.645,30.273,0
1508233037.465,51.270,36.133,41.016,38.574,67.871,0
1508233037.469,50.781,27.832,38.086,39.062,52.734,0
1508233037.473,48.828,28.320,35.156,38.574,41.992,0
1508233037.477,51.270,36.133,36.621,37.109,41.992,0
1508233037.480,52.734,38.086,36.133,36.621,41.504,0
1508233037.484,41.016,32.715,36.133,35.156,52.734,0
1508233037.488,39.062,40.527,36.621,41.504,67.383,0
1508233037.492,44.434,42.969,38.574,46.875,57.129,0
1508233037.496,43.945,39.062,44.922,46.875,43.457,0
1508233037.500,41.016,31.250,43.945,46.875,62.012,0
1508233037.504,30.762,32.227,44.922,40.039,82.520,0
1508233037.508,27.832,32.227,45.898,41.016,81.543,0
1508233037.512,39.551,20.020,45.410,42.480,33.691,0
1508233037.516,44.922,28.320,44.434,46.875,35.156,0
1508233037.519,34.668,30.273,42.969,51.270,69.824,0
1508233037.523,25.879,23.438,43.945,50.293,66.895,0
1508233037.527,25.391,36.133,38.574,43.457,38.574,0
1508233037.531,23.438,32.715,33.691,46.387,23.926,0
1508233037.535,18.555,24.902,30.762,47.363,59.570,0
1508233037.539,19.531,26.367,34.180,41.992,79.590,0
1508233037.543,22.949,28.320,46.875,48.828,30.762,0
1508233037.547,17.578,34.180,47.363,38.574,12.695,0
1508233037.551,24.414,35.156,38.086,32.715,75.684,0
1508233037.555,18.066,43.945,29.297,35.156,98.145,0
1508233037.559,9.277,42.969,30.273,30.273,44.922,0
1508233037.562,20.996,38.086,32.715,21.484,16.602,0
1508233037.566,15.137,35.645,23.438,8.301,45.410,0
1508233037.570,23.926,30.762,17.578,16.602,36.133,0
1508233037.574,27.344,34.668,18.066,21.973,-20.996,0
1508233037.578,31.738,37.598,35.645,29.785,-27.832,0
1508233037.582,41.992,28.320,35.645,36.621,39.062,0
1508233037.586,40.527,35.156,24.902,28.809,65.918,0
1508233037.590,41.992,50.293,23.926,29.297,50.781,0
1508233037.594,42.969,50.781,30.273,28.809,24.414,0
1508233037.598,42.480,55.664,35.156,29.785,49.316,0
1508233037.602,47.852,50.781,29.297,41.504,63.477,0
1508233037.605,53.711,41.504,38.086,43.945,1.465,0
1508233037.609,59.082,38.086,49.316,38.574,-21.484,0
1508233037.613,65.430,22.461,44.922,48.828,10.742,0
1508233037.617,53.711,14.160,32.715,45.898,38.574,0
1508233037.621,46.387,24.414,31.250,38.086,-4.883,0
1508233037.625,47.363,28.809,29.785,39.551,2.441,0
1508233037.629,46.387,35.156,35.156,46.875,47.852,0
1508233037.633,47.852,40.527,41.992,51.270,33.203,0
1508233037.637,50.781,37.598,35.156,49.805,30.273,0
1508233037.641,47.363,33.691,31.250,43.457,35.645,0
1508233037.644,42.969,28.809,30.762,39.062,43.945,0
1508233037.648,33.203,26.855,38.574,38.574,47.852,0
1508233037.652,33.203,39.062,44.922,42.969,31.250,0
1508233037.656,32.715,33.203,42.969,43.457,29.297,0
1508233037.660,27.832,20.508,38.086,33.691,27.344,0
1508233037.664,23.926,22.461,30.762,28.320,2.930,0
1508233037.668,19.043,22.949,23.926,30.273,35.645,0
1508233037.672,23.926,23.438,26.367,37.598,82.031,0
1508233037.676,28.320,34.668,33.203,45.898,29.785,0
1508233037.680,30.762,42.969,35.156,38.574,-25.879,0
1508233037.684,21.973,24.902,35.156,33.691,9.277,0
1508233037.687,22.949,24.414,40.527,41.016,57.129,0
1508233037.691,23.438,30.273,41.992,39.062,12.695,0
1508233037.695,21.484,21.973,33.691,42.969,-5.371,0
1508233037.699,37.598,34.668,41.016,53.711,42.480,0
1508233037.703,40.039,46.387,42.480,46.875,57.617,0
1508233037.707,37.109,31.738,41.504,48.340,1.465,0
1508233037.711,46.387,12.695,35.156,49.805,-43.457,0
1508233037.715,47.363,29.297,36.133,46.387,12.695,0
1508233037.719,41.504,37.598,45.898,46.875,56.641,0
1508233037.723,38.086,26.855,44.922,42.480,55.664,0
1508233037.727,42.969,33.691,38.574,44.434,12.695,0
1508233037.730,62.500,44.434,31.250,55.664,14.648,0
1508233037.734,67.871,41.992,34.180,56.152,56.152,0
1508233037.738,42.480,29.297,45.898,47.363,81.543,0
1508233037.742,34.180,23.926,44.922,50.293,32.715,0
1508233037.746,42.480,26.367,35.645,56.641,18.066,0
1508233037.750,51.758,33.691,35.645,68.848,29.297,0
1508233037.754,69.824,25.391,36.133,81.055,-15.625,0
1508233037.758,75.684,26.855,43.945,80.566,-15.625,0
1508233037.762,78.125,28.809,49.316,84.473,16.602,0
1508233037.766,82.031,25.391,50.293,94.727,37.598,0
1508233037.769,90.332,37.109,51.758,106.934,27.832,0
1508233037.773,88.379,38.086,53.223,112.305,22.949,0
1508233037.777,86.426,25.879,48.828,107.422,15.625,0
1508233037.781,95.703,43.945,43.945,108.887,14.648,0
1508233037.785,98.145,55.176,39.062,107.910,58.105,0
1508233037.789,99.609,43.457,38.086,107.422,37.598,0
1508233037.793,98.145,47.363,48.340,119.141,5.859,0
1508233037.797,94.238,51.758,45.898,120.605,-16.113,0
1508233037.801,84.961,44.922,36.133,100.098,6.348,0
1508233037.805,80.078,46.875,36.133,92.773,45.898,0
1508233037.809,90.820,58.105,41.992,101.562,19.531,0
1508233037.812,92.773,52.246,42.969,98.633,2.930,0
1508233037.816,100.586,41.992,36.133,96.191,30.273,0
1508233037.820,101.562,36.133,30.762,108.398,93.750,0
1508233037.824,84.473,31.738,33.203,103.516,72.754,0
1508233037.828,89.844,40.527,32.715,99.609,9.277,0
1508233037.832,110.840,67.871,45.410,119.141,20.996,0
1508233037.836,117.188,62.500,60.547,128.906,41.016,0
1508233037.840,101.074,59.082,45.898,109.375,33.691,0
1508233037.844,90.332,79.590,25.879,88.379,-12.207,0
1508233037.848,95.215,54.199,22.461,85.449,-36.621,0
1508233037.852,100.098,52.734,22.461,88.379,20.020,0
1508233037.855,103.027,79.590,31.738,96.191,20.020,0
1508233037.859,106.934,63.965,36.621,104.492,-20.508,0
1508233037.863,115.723,57.617,21.973,111.328,-20.020,0
1508233037.867,109.863,71.289,23.438,112.793,41.992,0
1508233037.871,119.629,72.266,44.434,116.211,26.367,0
1508233037.875,129.883,72.754,44.434,116.699,-17.578,0
1508233037.879,125.488,83.984,30.273,105.957,9.277,0
1508233037.883,116.699,79.590,24.414,97.656,43.945,0
1508233037.887,105.469,62.012,21.973,90.820,50.293,0
1508233037.891,105.469,64.453,21.484,95.703,21.484,0
1508233037.894,102.539,77.148,18.066,98.145,12.207,0
1508233037.898,102.539,64.941,22.461,101.074,54.688,0
1508233037.902,115.234,62.500,27.344,113.770,33.691,0
1508233037.906,123.535,66.406,35.645,123.047,-9.277,0
1508233037.910,113.281,69.336,35.645,111.816,-6.348,0
1508233037.914,101.562,75.684,27.832,92.773,15.625,0
1508233037.918,86.426,71.289,25.391,84.961,-0.488,0
1508233037.922,80.078,67.383,25.879,77.637,-9.766,0
1508233037.926,91.797,64.941,37.109,86.426,38.574,0
1508233037.930,101.562,68.359,36.133,98.145,13.672,0
1508233037.934,87.402,76.172,17.578,82.520,6.836,0
1508233037.937,72.754,67.383,12.695,73.730,40.039,0
1508233037.941,75.195,64.453,19.531,81.543,18.555,0
1508233037.945,84.473,74.707,25.391,81.543,-3.418,0
1508233037.949,92.773,76.172,14.648,81.055,-15.625,0
1508233037.953,91.797,70.801,3.418,74.219,-10.254,0
1508233037.957,91.309,67.383,20.020,72.754,10.254,0
1508233037.961,99.121,65.430,38.086,88.379,-16.113,0
1508233037.965,103.027,70.801,36.133,94.727,-39.551,0
1508233037.969,95.215,74.219,25.879,85.449,8.301,0
1508233037.973,95.215,76.660,27.344,84.961,49.316,0
1508233037.977,102.051,68.359,31.250,96.191,3.418,0
1508233037.980,99.609,58.105,32.227,95.215,0.000,0
1508233037.984,94.238,58.594,27.832,78.125,38.086,0
1508233037.988,106.445,66.406,38.086,75.684,24.902,0
1508233037.992,112.793,67.871,42.969,86.426,3.418,0
1508233037.996,78.125,66.406,16.602,70.801,-32.715,0
1508233038.000,62.500,56.641,21.973,60.059,25.391,0
1508233038.004,61.523,80.078,33.203,58.594,68.848,0
1508233038.008,59.082,90.332,39.062,61.035,18.066,0
1508233038.012,68.359,55.664,45.410,72.754,-0.488,0
1508233038.016,52.734,46.387,32.227,57.617,47.852,0
1508233038.019,44.434,37.598,25.879,47.852,61.523,0
1508233038.023,44.922,42.480,30.762,52.246,26.367,0
1508233038.027,49.805,52.246,36.133,57.129,-0.488,0
1508233038.031,56.641,57.129,40.039,58.594,33.203,0
1508233038.035,51.758,44.922,39.062,47.852,46.387,0
1508233038.039,47.363,43.945,21.484,43.945,9.277,0
1508233038.043,50.781,54.688,30.273,47.363,-6.348,0
1508233038.047,44.922,56.152,44.434,41.504,16.113,0
1508233038.051,43.457,49.316,44.922,52.246,58.594,0
1508233038.055,48.340,40.039,45.898,55.664,11.719,0
1508233038.059,36.133,35.156,30.273,41.016,-15.625,0
1508233038.062,35.645,22.949,30.762,46.387,15.625,0
1508233038.066,41.992,36.621,41.992,49.316,-2.930,0
1508233038.070,41.504,52.246,46.387,52.734,7.812,0
1508233038.074,32.715,41.504,34.668,45.410,-1.953,0
1508233038.078,24.902,34.668,24.414,32.715,-31.738,0
1508233038.082,49.316,48.828,46.387,44.434,-11.719,0
1508233038.086,47.852,62.012,50.293,36.621,-6.836,0
1508233038.090,26.855,45.410,32.227,21.973,0.488,0
1508233038.094,43.945,44.922,40.039,43.457,24.414,0
1508233038.098,54.688,66.406,46.875,41.992,25.391,0
1508233038.102,42.969,56.152,35.645,26.855,42.969,0
1508233038.105,45.898,46.387,34.180,42.480,59.570,0
1508233038.109,55.176,49.316,41.016,49.805,33.203,0
1508233038.113,54.199,47.363,39.551,40.527,14.648,0
1508233038.117,53.711,48.828,31.738,45.898,27.832,0
1508233038.121,54.199,52.246,30.762,46.387,32.715,0
1508233038.125,53.223,51.270,37.109,43.457,4.883,0
1508233038.129,54.199,45.410,38.574,49.316,-27.832,0
1508233038.133,55.176,37.598,40.039,54.688,-0.977,0
1508233038.137,48.828,40.527,38.574,50.781,61.035,0
1508233038.141,41.992,41.992,34.180,42.480,40.527,0
1508233038.144,45.410,44.922,42.969,39.062,-24.902,0
1508233038.148,46.875,43.945,46.875,39.551,14.160,0
1508233038.152,41.992,43.945,42.480,39.062,64.453,0
1508233038.156,41.504,37.109,37.598,39.551,28.809,0
1508233038.160,45.410,38.574,44.434,45.410,-4.883,0
1508233038.164,43.457,29.297,49.805,42.969,-13.672,0
1508233038.168,40.039,17.578,49.805,43.945,-1.465,0
1508233038.172,41.504,23.926,44.922,43.945,1.465,0
1508233038.176,34.668,27.832,37.598,39.062,-27.832,0
1508233038.180,34.668,34.668,47.363,48.828,6.348,0
1508233038.184,37.109,36.621,48.340,46.387,65.918,0
1508233038.187,29.785,32.715,35.645,35.645,32.227,0
1508233038.191,35.156,33.691,39.062,36.133,-15.625,0
1508233038.195,41.992,36.133,42.969,39.551,39.551,0
1508233038.199,31.738,41.504,27.344,30.273,85.938,0
1508233038.203,27.832,30.762,31.738,31.250,56.641,0
1508233038.207,29.785,32.715,39.551,39.062,27.344,0
1508233038.211,30.273,35.645,43.457,38.574,25.391,0
1508233038.215,45.898,30.762,50.293,44.434,53.711,0
1508233038.219,45.898,41.016,28.320,33.691,53.223,0
1508233038.223,27.344,41.016,22.949,20.020,24.414,0
1508233038.227,29.297,43.945,28.809,18.555,0.977,0
1508233038.230,29.785,51.270,20.996,6.836,14.648,0
1508233038.234,23.438,42.480,23.438,7.812,5.859,0
1508233038.238,23.926,33.691,21.973,21.973,-6.836,0
1508233038.242,26.367,43.457,16.113,20.020,7.324,0
1508233038.246,12.207,51.758,11.719,-2.441,13.184,0
1508233038.250,13.184,37.109,14.648,0.977,23.926,0
1508233038.254,19.043,35.645,24.902,16.602,41.992,0
1508233038.258,7.812,42.969,24.414,10.254,55.176,0
1508233038.262,17.578,30.762,23.438,10.254,26.855,0
1508233038.266,26.855,29.785,28.809,15.137,9.277,0
1508233038.269,23.926,38.574,28.809,8.789,40.039,0
1508233038.273,20.996,44.434,26.855,17.090,43.945,0
1508233038.277,20.996,28.809,31.738,27.344,-5.371,0
1508233038.281,29.785,41.504,35.645,28.320,15.625,0
1508233038.285,31.738,59.082,27.344,31.250,100.586,0
1508233038.289,32.227,45.410,30.762,36.133,121.582,0
1508233038.293,34.668,34.180,37.598,31.738,53.223,0
1508233038.297,31.250,38.086,37.109,21.484,41.016,0
1508233038.301,24.902,37.598,30.273,22.461,67.383,0
1508233038.305,20.508,24.414,31.250,23.926,70.801,0
1508233038.309,29.785,27.344,34.180,23.438,22.461,0
1508233038.312,34.180,40.527,29.785,30.762,-20.996,0
1508233038.316,33.203,43.457,34.180,28.320,38.086,0
1508233038.320,28.809,27.344,26.367,18.066,64.453,0
1508233038.324,23.438,21.973,23.926,22.949,16.113,0
1508233038.328,23.926,41.504,26.855,23.926,3.906,0
1508233038.332,22.461,46.875,27.344,20.020,33.691,0
1508233038.336,31.738,41.504,30.273,25.879,44.922,0
1508233038.340,31.738,33.203,21.973,27.832,38.574,0
1508233038.344,26.855,33.691,28.320,20.020,31.738,0
1508233038.348,28.809,26.367,37.109,22.461,26.367,0
1508233038.352,28.809,25.391,35.645,37.109,40.039,0
1508233038.355,28.320,38.086,37.109,32.715,51.758,0
1508233038.359,33.691,39.062,25.391,23.926,17.090,0
1508233038.363,49.316,37.109,27.832,30.762,15.137,0
1508233038.367,45.410,24.414,37.598,30.273,21.973,0
1508233038.371,35.156,13.672,34.180,30.762,-9.766,0
1508233038.375,31.738,26.855,35.645,34.668,3.418,0
1508233038.379,42.969,42.480,33.203,44.434,15.137,0
1508233038.383,47.852,32.227,35.645,43.945,5.371,0
1508233038.387,42.480,23.438,37.598,32.227,22.949,0
1508233038.391,44.922,38.574,36.133,35.645,27.832,0
1508233038.394,48.340,26.367,38.574,44.922,17.578,0
1508233038.398,41.016,13.184,38.086,43.945,25.879,0
1508233038.402,40.527,29.785,30.273,42.969,48.828,0
1508233038.406,45.410,31.738,39.062,47.852,24.902,0
1508233038.410,34.180,12.695,40.527,35.156,1.465,0
1508233038.414,34.668,17.090,36.133,28.809,-6.348,0
1508233038.418,38.574,44.922,43.457,42.480,-5.371,0
1508233038.422,35.156,53.711,42.480,39.062,15.137,0
1508233038.426,31.738,28.320,41.992,35.645,-1.953,0
1508233038.430,29.297,35.645,41.992,39.551,-34.180,0
1508233038.434,28.320,39.062,27.344,31.738,21.484,0
1508233038.437,30.762,13.184,23.926,27.832,41.992,0
1508233038.441,27.344,17.578,32.227,25.879,-10.254,0
1508233038.445,25.391,41.992,30.762,21.973,-5.371,0
1508233038.449,22.949,37.598,31.250,21.973,1.953,0
1508233038.453,16.113,24.414,26.367,14.160,33.691,0
1508233038.457,18.555,34.180,19.531,13.672,-20.020,0
1508233038.461,13.672,43.457,18.066,15.625,-78.613,0
1508233038.465,20.508,35.645,33.691,28.320,0.488,0
1508233038.469,34.180,33.203,33.691,41.016,41.992,0
1508233038.473,36.621,42.480,27.344,42.969,15.137,0
1508233038.477,36.133,22.949,34.180,36.133,-11.719,0
1508233038.480,30.273,19.531,33.203,31.250,11.719,0
1508233038.484,37.109,28.809,24.414,34.180,39.062,0
1508233038.488,49.805,35.645,27.832,36.621,23.438,0
1508233038.492,30.273,39.551,29.297,24.902,-11.230,0
1508233038.496,32.227,33.203,40.039,31.250,-8.301,0
1508233038.500,47.363,45.898,39.062,35.645,27.832,0
1508233038.504,37.598,42.480,27.832,23.926,35.156,0
1508233038.508,26.367,34.180,33.203,18.555,-0.488,0
1508233038.512,26.367,41.992,28.809,15.625,-0.977,0
1508233038.516,31.738,30.273,29.785,23.438,41.016,0
1508233038.519,28.809,22.461,36.621,22.949,11.719,0
1508233038.523,19.043,34.668,33.691,12.695,-34.180,0
1508233038.527,16.113,42.480,26.855,9.766,7.812,0
1508233038.531,24.414,38.574,25.879,13.672,22.949,0
1508233038.535,29.297,47.363,29.297,26.367,22.461,0
1508233038.539,27.344,40.039,39.551,32.227,31.250,0
1508233038.543,24.902,10.742,40.039,29.297,7.324,0
1508233038.547,24.414,18.555,29.785,28.809,-1.465,0
1508233038.551,19.043,33.203,32.715,31.250,13.184,0
1508233038.555,17.578,31.250,26.367,27.832,50.781,0
1508233038.559,23.438,46.387,24.902,24.902,72.266,0
1508233038.562,30.273,42.480,40.039,34.668,24.902,0
1508233038.566,28.809,16.113,36.621,32.227,39.551,0
1508233038.570,29.297,22.949,35.156,34.668,84.473,0
1508233038.574,36.621,31.250,43.945,51.758,31.250,0
1508233038.578,31.738,32.227,41.992,41.504,-13.184,0
1508233038.582,24.902,28.809,38.574,35.156,25.879,0
1508233038.586,18.066,12.207,28.809,29.297,73.730,0
1508233038.590,23.926,25.391,30.273,32.715,48.828,0
1508233038.594,21.973,34.668,31.250,26.855,-11.719,0
1508233038.598,16.113,30.762,30.762,12.207,-32.715,0
1508233038.602,25.879,31.738,32.227,21.973,28.320,0
1508233038.605,35.156,30.762,32.227,32.715,51.270,0
1508233038.609,31.738,38.086,31.738,29.785,-1.953,0
1508233038.613,36.133,41.504,36.621,20.508,-13.184,0
1508233038.617,40.527,36.621,30.273,15.137,22.949,0
1508233038.621,36.133,31.250,30.273,26.855,30.273,0
1508233038.625,37.598,28.320,37.109,35.645,20.020,0
1508233038.629,31.250,39.551,17.578,24.414,21.484,0
1508233038.633,20.996,32.715,11.230,10.254,33.203,0
1508233038.637,30.762,30.273,27.344,12.695,22.949,0
1508233038.641,34.180,46.875,28.320,17.090,-3.906,0
1508233038.644,34.180,40.527,26.855,21.973,-5.859,0
1508233038.648,42.480,34.668,35.156,31.250,50.781,0
1508233038.652,46.875,39.551,39.551,29.785,59.570,0
1508233038.656,36.621,35.156,37.598,20.020,0.488,0
1508233038.660,30.273,31.738,38.574,21.973,9.277,0
1508233038.664,38.574,33.691,34.180,30.762,37.109,0
1508233038.668,32.227,33.203,26.855,28.320,39.551,0
1508233038.672,32.227,40.039,21.973,26.367,16.602,0
1508233038.676,39.551,41.016,32.227,35.645,-1.465,0
1508233038.680,37.109,37.598,44.922,41.016,5.371,0
1508233038.684,20.020,23.438,35.156,27.832,34.180,0
1508233038.687,16.602,18.066,35.645,21.484,39.551,0
1508233038.691,27.344,23.926,41.504,31.250,30.762,0
1508233038.695,22.461,20.020,30.762,31.250,19.531,0
1508233038.699,16.113,35.156,34.180,34.668,1.465,0
1508233038.703,15.137,34.180,43.457,38.574,35.645,0
1508233038.707,16.113,27.344,39.551,35.156,63.965,0
1508233038.711,20.508,36.621,31.738,30.762,47.363,0
1508233038.715,25.879,26.367,29.297,32.715,18.555,0
1508233038.719,20.508,25.879,32.715,29.785,33.691,0
1508233038.723,21.484,34.668,34.180,30.273,52.246,0
1508233038.727,20.996,30.273,27.832,34.668,22.949,0
1508233038.730,23.438,27.832,32.227,41.016,18.555,0
1508233038.734,32.715,23.438,36.621,42.480,51.270,0
1508233038.738,27.344,30.762,27.832,29.297,63.965,0
1508233038.742,33.203,31.738,31.738,36.621,20.996,0
1508233038.746,35.156,9.766,35.645,41.992,-23.438,0
1508233038.750,32.227,16.602,34.668,32.715,42.969,0
1508233038.754,29.785,28.809,33.203,34.180,84.473,0
1508233038.758,21.973,30.762,32.715,37.598,44.922,0
1508233038.762,25.391,16.113,38.574,32.715,-6.836,0
1508233038.766,32.227,20.996,44.922,30.273,-0.488,0
1508233038.769,32.715,33.203,43.945,34.668,44.922,0
1508233038.773,27.344,33.691,38.574,31.250,24.414,0
1508233038.777,14.160,21.973,35.645,16.602,-11.230,0
1508233038.781,1.465,19.043,33.691,9.766,24.902,0
1508233038.785,5.859,28.809,34.180,10.254,41.016,0
1508233038.789,10.742,24.414,40.527,13.672,25.879,0
1508233038.793,2.930,18.555,43.457,12.695,9.766,0
1508233038.797,-4.395,14.648,42.969,5.371,31.250,0
1508233038.801,-14.160,5.859,44.922,-4.883,49.316,0
1508233038.805,-16.113,0.977,47.363,-11.230,16.602,0
1508233038.809,-14.648,12.695,51.758,-11.719,14.648,0
1508233038.812,-19.531,12.207,58.594,-8.789,30.273,0
1508233038.816,-30.762,2.930,47.852,-12.695,27.832,0
1508233038.820,-44.922,9.277,34.668,-25.391,46.875,0
1508233038.824,-57.129,10.742,45.410,-36.133,-11.230,0
1508233038.828,-61.035,-0.977,47.852,-41.992,-44.922,0
1508233038.832,-50.293,0.977,45.410,-36.621,5.371,0
1508233038.836,-52.734,-2.441,46.875,-34.668,0.488,0
1508233038.840,-65.430,-17.578,45.410,-45.898,-6.348,0
1508233038.844,-63.965,-17.578,47.852,-45.898,23.926,0
1508233038.848,-57.617,4.395,48.340,-44.922,41.504,0
1508233038.852,-57.129,-0.488,44.434,-53.223,44.434,0
1508233038.855,-54.199,-32.227,49.805,-42.969,32.715,0
1508233038.859,-50.781,-5.859,55.176,-30.273,0.000,0
1508233038.863,-57.129,16.602,46.387,-41.504,2.930,0
1508233038.867,-56.152,-11.719,35.156,-56.152,20.020,0
1508233038.871,-53.711,-12.695,31.250,-59.570,-13.672,0
1508233038.875,-52.246,-2.930,42.480,-46.387,-23.926,0
1508233038.879,-43.457,-0.488,45.898,-39.062,-47.852,0
1508233038.883,-30.273,3.906,42.480,-33.203,-46.387,0
1508233038.887,-21.484,-4.395,47.363,-24.902,16.602,0
1508233038.891,-21.973,2.930,54.688,-16.113,8.789,0
1508233038.894,-7.812,16.113,60.059,0.000,-30.762,0
1508233038.898,10.742,28.320,56.641,8.301,-23.926,0
1508233038.902,-1.953,26.367,41.504,-2.441,20.996,0
1508233038.906,-9.766,18.555,42.480,-7.324,9.277,0
1508233038.910,-2.930,9.277,41.016,-8.301,-63.477,0
1508233038.914,1.465,8.301,30.762,-16.113,-20.020,0
1508233038.918,12.207,21.973,39.551,-3.906,37.109,0
1508233038.922,17.578,24.902,47.363,6.348,-9.277,0
1508233038.926,17.090,19.531,49.805,6.836,-67.871,0
1508233038.930,21.484,14.648,57.617,18.066,-51.758,0
1508233038.934,23.926,16.113,56.641,21.973,27.344,0
1508233038.937,25.391,15.625,52.734,21.973,32.715,0
1508233038.941,26.855,28.320,51.758,31.738,-20.020,0
1508233038.945,26.367,45.410,50.293,36.133,-35.156,0
1508233038.949,18.555,23.438,51.270,25.879,-8.789,0
1508233038.953,27.344,2.930,52.246,30.273,15.625,0
1508233038.957,39.062,25.391,54.199,35.645,13.184,0
1508233038.961,31.250,31.250,43.945,23.926,-2.441,0
1508233038.965,28.320,17.090,30.762,23.926,-2.441,0
1508233038.969,31.250,20.508,40.527,36.621,-15.625,0
1508233038.973,41.992,22.461,55.176,45.898,-30.273,0
1508233038.977,37.598,17.578,56.152,45.898,-9.277,0
1508233038.980,26.367,19.531,50.781,40.527,-16.113,0
1508233038.984,29.785,28.809,46.875,35.645,-6.836,0
1508233038.988,23.438,28.320,40.039,27.832,30.273,0
1508233038.992,26.367,17.578,36.133,28.809,11.719,0
1508233038.996,32.227,25.391,40.039,37.109,-27.344,0
1508233039.000,30.762,35.156,45.410,37.598,2.930,0
1508233039.004,25.391,16.602,49.316,36.621,41.992,0
1508233039.008,23.438,11.719,50.293,38.574,22.949,0
1508233039.012,28.320,33.203,43.457,30.273,6.348,0
1508233039.016,26.367,41.504,30.762,17.090,-6.348,0
1508233039.019,27.832,40.527,28.320,16.602,-15.625,0
1508233039.023,35.156,68.848,40.039,22.461,22.461,0
1508233039.027,32.227,54.688,47.852,17.578,-5.371,0
1508233039.031,39.062,26.367,38.086,19.043,-28.320,0
1508233039.035,41.016,30.762,24.902,20.020,44.434,0
1508233039.039,33.691,28.809,25.879,13.184,36.621,0
1508233039.043,37.109,31.738,28.809,12.695,0.977,0
1508233039.047,44.922,39.062,33.203,21.973,37.109,0
1508233039.051,45.898,46.875,37.109,25.879,39.551,0
1508233039.055,46.875,44.922,38.574,24.414,32.227,0
1508233039.059,40.039,26.855,38.574,24.414,-5.371,0
1508233039.062,35.645,27.832,29.297,18.555,-31.250,0
1508233039.066,32.227,37.109,19.531,15.625,18.066,0
1508233039.070,31.250,41.504,22.949,19.531,49.316,0
1508233039.074,37.598,42.480,34.668,22.949,-2.930,0
1508233039.078,39.062,29.297,39.551,28.320,-12.207,0
1508233039.082,36.133,44.434,32.227,25.391,65.430,0
1508233039.086,39.551,47.852,29.785,24.902,72.266,0
1508233039.090,43.945,40.039,42.969,35.156,21.484,0
1508233039.094,36.133,36.621,39.551,33.203,-9.277,0
1508233039.098,35.156,25.391,27.832,28.809,13.184,0
1508233039.102,41.992,21.484,33.691,28.809,47.363,0
1508233039.105,37.598,24.414,40.039,31.250,16.113,0
1508233039.109,26.855,29.297,38.574,32.227,-18.555,0
1508233039.113,17.578,27.832,37.109,27.832,13.672,0
1508233039.117,18.066,35.156,35.645,29.297,34.668,0
1508233039.121,24.902,34.668,36.621,28.809,7.812,0
1508233039.125,13.672,22.461,24.902,18.066,17.090,0
1508233039.129,17.578,37.109,24.414,19.531,45.898,0
1508233039.133,29.297,37.598,38.574,32.227,28.809,0
1508233039.137,27.832,29.785,32.715,35.645,17.578,0
1508233039.141,30.273,35.156,24.902,23.438,36.621,0
1508233039.144,31.738,36.621,33.203,16.113,56.152,0
1508233039.148,31.738,41.992,36.621,20.020,62.988,0
1508233039.152,35.156,45.898,31.250,19.043,44.922,0
1508233039.156,37.109,33.203,34.668,15.625,60.547,0
1508233039.160,39.551,24.414,38.574,19.531,58.105,0
1508233039.164,42.969,31.250,36.133,26.367,27.344,0
1508233039.168,33.203,32.715,35.156,24.414,41.504,0
1508233039.172,35.645,31.250,33.203,23.438,80.566,0
1508233039.176,42.969,41.992,31.250,25.391,41.992,0
1508233039.180,35.156,41.992,33.203,17.090,16.113,0
1508233039.184,32.715,44.434,30.762,16.113,73.242,0
1508233039.187,37.109,37.109,29.785,23.438,66.406,0
1508233039.191,41.992,28.320,41.992,31.738,16.602,0
1508233039.195,36.621,29.297,35.156,24.414,-9.766,0
1508233039.199,34.668,28.809,25.391,15.625,31.738,0
1508233039.203,45.898,41.016,31.738,26.855,80.078,0
1508233039.207,41.016,33.203,31.738,26.367,40.039,0
1508233039.211,30.273,24.902,34.180,21.484,-9.766,0
1508233039.215,36.621,39.551,37.109,22.461,52.734,0
1508233039.219,29.785,28.320,29.785,17.578,116.211,0
1508233039.223,21.973,15.137,28.809,19.531,62.500,0
1508233039.227,16.602,22.461,31.738,22.949,27.344,0
1508233039.230,9.766,33.203,22.949,15.625,42.480,0
1508233039.234,15.137,33.203,20.020,14.160,73.242,0
1508233039.238,16.602,23.926,26.367,5.371,88.867,0
1508233039.242,18.555,22.949,29.297,4.883,80.566,0
1508233039.246,24.414,23.926,30.762,15.625,34.180,0
1508233039.250,26.855,16.602,39.062,20.020,42.969,0
1508233039.254,23.438,8.789,38.086,21.973,50.293,0
1508233039.258,24.414,7.812,32.227,20.020,6.836,0
1508233039.262,32.227,13.672,30.762,15.625,39.062,0
1508233039.266,27.832,21.973,36.621,15.625,55.664,0
1508233039.269,33.691,21.973,41.992,20.996,59.082,0
1508233039.273,36.133,20.996,32.715,23.438,70.312,0
1508233039.277,31.250,17.090,28.809,12.695,55.664,0
1508233039.281,41.992,27.344,31.250,8.789,64.453,0
1508233039.285,42.969,31.738,22.949,14.160,78.613,0
1508233039.289,43.945,26.367,26.367,20.020,49.805,0
1508233039.293,55.664,30.273,36.621,31.250,55.176,0
1508233039.297,67.383,35.645,40.039,39.551,71.289,0
1508233039.301,62.988,42.480,26.367,27.832,33.203,0
1508233039.305,50.781,47.852,20.020,17.090,56.152,0
1508233039.309,57.129,40.527,31.738,15.625,60.547,0
1508233039.312,63.965,33.691,32.715,12.695,41.992,0
1508233039.316,58.594,34.668,31.250,18.066,68.359,0
1508233039.320,64.453,34.668,38.086,22.461,107.910,0
1508233039.324,64.453,30.273,40.527,16.113,87.891,0
1508233039.328,62.012,29.297,40.039,20.996,35.645,0
1508233039.332,60.547,37.109,40.527,25.391,42.969,0
1508233039.336,47.852,43.457,41.504,19.043,71.289,0
1508233039.340,48.340,35.645,41.504,20.996,60.547,0
1508233039.344,51.758,11.719,39.062,24.902,-0.977,0
1508233039.348,49.316,11.230,45.898,35.645,-22.949,0
1508233039.352,50.781,29.297,50.293,43.945,45.898,0
1508233039.355,52.246,27.344,54.199,43.457,34.668,0
1508233039.359,44.922,35.156,55.664,33.203,-15.625,0
1508233039.363,34.668,44.922,41.016,21.484,-15.137,0
1508233039.367,25.879,37.109,35.645,14.648,10.254,0
1508233039.371,26.855,36.133,37.109,14.160,15.137,0
1508233039.375,38.574,35.645,34.180,20.996,-33.691,0
1508233039.379,49.805,32.715,34.668,31.738,-30.273,0
1508233039.383,51.758,29.297,36.133,34.180,0.488,0
1508233039.387,56.641,37.598,42.969,36.621,3.906,0
1508233039.391,52.734,51.270,44.434,34.180,-26.367,0
1508233039.394,46.875,44.434,39.551,22.461,-30.273,0
1508233039.398,59.082,35.645,34.180,25.879,23.926,0
1508233039.402,72.266,38.086,44.922,42.969,21.484,0
1508233039.406,74.219,34.668,53.223,40.527,-42.969,0
1508233039.410,69.336,23.926,40.039,24.902,-27.832,0
1508233039.414,69.336,31.738,34.180,24.902,13.672,0
1508233039.418,67.871,41.992,36.621,32.715,40.527,0
1508233039.422,75.684,41.992,30.762,41.504,39.062,0
1508233039.426,71.777,54.688,28.320,41.016,15.625,0
1508233039.430,62.012,46.387,29.785,38.086,27.344,0
1508233039.434,63.965,30.762,33.691,42.969,19.531,0
1508233039.437,69.824,29.785,44.922,51.270,3.906,0
1508233039.441,64.941,25.879,43.945,55.664,4.395,0
1508233039.445,62.500,32.227,41.016,52.734,4.395,0
1508233039.449,75.684,29.297,45.410,54.199,-2.930,0
1508233039.453,71.777,20.020,48.828,53.711,4.395,0
1508233039.457,67.871,26.367,62.988,54.688,-5.371,0
1508233039.461,64.453,31.738,54.199,48.340,-19.531,0
1508233039.465,60.059,29.297,39.062,40.527,0.977,0
1508233039.469,60.059,35.645,47.363,34.668,17.578,0
1508233039.473,57.617,41.992,49.316,32.227,12.695,0
1508233039.477,62.500,30.762,47.852,33.691,3.418,0
1508233039.480,61.523,26.855,57.129,38.574,5.859,0
1508233039.484,60.547,42.480,63.965,48.828,3.418,0
1508233039.488,53.223,21.973,58.594,43.457,-6.348,0
1508233039.492,45.898,1.465,52.246,47.363,-22.461,0
1508233039.496,53.223,12.207,54.688,58.105,-40.527,0
1508233039.500,57.129,16.113,58.105,59.082,32.715,0
1508233039.504,61.035,23.438,59.570,57.617,68.848,0
1508233039.508,62.012,27.344,50.781,49.805,-14.648,0
1508233039.512,61.523,19.531,36.621,41.504,-36.133,0
1508233039.516,54.199,21.484,34.180,30.273,26.367,0
1508233039.519,47.852,29.297,36.133,24.414,46.875,0
1508233039.523,56.152,33.203,38.574,27.832,-0.488,0
1508233039.527,64.941,34.180,44.434,34.668,-32.715,0
1508233039.531,67.871,34.180,50.293,38.086,-18.555,0
1508233039.535,64.453,39.551,47.852,34.668,28.320,0
1508233039.539,56.641,30.762,42.480,26.855,45.410,0
1508233039.543,43.945,20.996,42.969,20.996,-12.207,0
1508233039.547,41.016,50.293,45.410,18.555,-3.906,0
1508233039.551,46.875,36.621,42.969,22.949,45.898,0
1508233039.555,43.945,13.672,34.180,22.461,18.066,0
1508233039.559,29.785,21.973,30.762,22.949,0.488,0
1508233039.562,26.855,16.602,42.969,29.785,13.672,0
1508233039.566,29.297,31.250,46.875,16.602,10.254,0
1508233039.570,17.090,46.875,35.156,7.812,12.695,0
1508233039.574,11.719,33.691,33.691,17.090,-11.230,0
1508233039.578,23.926,32.227,40.527,22.949,-11.230,0
1508233039.582,21.484,35.645,43.945,23.438,7.324,0
1508233039.586,7.324,30.762,43.945,21.973,-3.906,0
1508233039.590,15.625,22.461,36.621,18.555,5.859,0
1508233039.594,24.902,29.297,43.945,21.973,1.953,0
1508233039.598,27.344,37.109,50.293,24.414,16.113,0
1508233039.602,30.273,34.668,41.504,26.855,40.039,0
1508233039.605,30.273,36.133,38.574,25.879,24.414,0
1508233039.609,26.855,40.039,40.039,26.367,15.625,0
1508233039.613,24.414,31.250,38.574,25.879,10.254,0
1508233039.617,22.461,15.625,33.203,21.484,57.129,0
1508233039.621,24.414,26.855,39.062,29.297,75.684,0
1508233039.625,39.551,27.832,48.828,41.016,27.344,0
1508233039.629,33.203,19.043,42.480,35.156,-10.742,0
1508233039.633,27.344,25.879,36.621,32.715,0.977,0
1508233039.637,26.367,31.250,31.250,28.809,66.895,0
1508233039.641,29.785,33.203,32.227,30.762,50.781,0
1508233039.644,45.410,31.250,36.621,38.086,18.066,0
1508233039.648,45.898,32.715,34.668,32.715,36.621,0
1508233039.652,39.551,41.992,34.180,23.438,63.965,0
1508233039.656,45.898,45.410,35.645,21.973,55.664,0
1508233039.660,51.270,35.645,35.645,22.949,-15.625,0
1508233039.664,48.340,41.504,33.203,24.414,-9.277,0
1508233039.668,53.711,48.340,37.109,25.391,40.039,0
1508233039.672,57.617,42.480,44.434,26.855,56.641,0
1508233039.676,52.246,39.062,43.457,26.855,-9.277,0
1508233039.680,45.898,41.016,31.738,17.090,-29.297,0
1508233039.684,42.969,40.039,28.809,15.625,42.480,0
1508233039.687,41.504,32.227,30.273,18.066,37.598,0
1508233039.691,43.457,34.668,26.367,20.508,35.156,0
1508233039.695,41.016,43.945,22.949,19.043,51.270,0
1508233039.699,39.551,41.504,28.320,18.066,50.293,0
1508233039.703,45.410,39.551,35.156,17.090,21.973,0
1508233039.707,48.828,24.414,33.691,19.531,-11.230,0
1508233039.711,51.758,32.715,41.992,27.832,15.625,0
1508233039.715,47.363,45.898,39.551,24.902,48.828,0
1508233039.719,38.574,36.133,24.414,16.602,14.648,0
1508233039.723,33.203,30.273,32.715,14.648,-2.441,0
1508233039.727,32.227,25.391,41.504,19.043,12.207,0
1508233039.730,33.203,25.879,36.133,18.555,-11.230,0
1508233039.734,30.762,23.438,32.227,16.602,22.461,0
1508233039.738,30.273,25.879,32.227,23.438,33.203,0
1508233039.742,28.809,34.668,38.086,24.902,18.066,0
1508233039.746,29.785,30.762,39.062,21.484,11.230,0
1508233039.750,28.320,30.273,36.133,22.461,-0.977,0
1508233039.754,22.949,32.227,34.668,26.855,35.645,0
1508233039.758,26.367,25.391,38.086,24.902,25.879,0
1508233039.762,30.762,19.043,41.504,24.414,-12.695,0
1508233039.766,38.574,28.320,41.504,27.832,1.953,0
1508233039.769,44.922,37.109,40.039,31.738,49.805,0
1508233039.773,29.785,35.156,34.180,30.273,55.176,0
1508233039.777,24.902,43.945,35.645,32.715,9.277,0
1508233039.781,25.391,34.668,25.391,31.738,3.906,0
1508233039.785,25.391,16.113,18.555,25.391,33.203,0
1508233039.789,34.668,21.484,37.598,27.344,14.160,0
1508233039.793,29.297,27.832,36.133,19.043,2.441,0
1508233039.797,27.344,22.461,32.227,10.742,14.648,0
1508233039.801,32.715,23.926,39.062,12.695,32.715,0
1508233039.805,27.344,26.367,36.133,13.672,49.316,0
1508233039.809,24.414,21.484,32.227,12.695,26.855,0
1508233039.812,28.809,18.555,38.574,20.508,-5.859,0
1508233039.816,26.367,26.367,40.527,24.414,21.973,0
1508233039.820,16.113,26.855,38.086,14.648,43.945,0
1508233039.824,18.555,29.785,36.133,15.625,-8.789,0
1508233039.828,22.461,31.738,33.691,14.160,-35.645,0
1508233039.832,28.809,29.785,38.086,14.160,38.574,0
1508233039.836,32.715,41.504,46.875,25.879,80.078,0
1508233039.840,19.531,40.527,43.457,25.879,20.020,0
1508233039.844,16.113,26.855,40.039,16.602,-11.719,0
1508233039.848,24.414,26.367,33.691,14.648,20.996,0
1508233039.852,25.879,28.809,31.250,24.902,47.363,0
1508233039.855,22.461,39.551,39.062,30.762,26.367,0
1508233039.859,12.695,37.598,31.738,16.602,5.371,0
1508233039.863,14.160,41.992,33.691,19.043,33.691,0
1508233039.867,24.414,41.016,40.527,26.367,32.715,0
1508233039.871,6.836,23.926,26.855,12.695,12.207,0
1508233039.875,0.000,27.832,19.043,5.859,17.090,0
1508233039.879,7.812,16.113,31.738,15.137,35.156,0
1508233039.883,9.277,12.695,36.621,17.090,29.297,0
1508233039.887,16.602,25.879,29.785,12.207,4.883,0
1508233039.891,17.578,22.949,27.344,10.254,38.086,0
1508233039.894,20.020,30.273,31.250,9.766,35.156,0
1508233039.898,21.484,35.645,36.133,10.742,23.926,0
1508233039.902,23.438,29.785,34.180,13.184,41.504,0
1508233039.906,19.043,44.922,21.484,9.766,37.109,0
1508233039.910,24.414,41.016,20.508,20.020,24.902,0
1508233039.914,37.598,23.926,37.109,30.273,-3.418,0
1508233039.918,33.203,22.949,36.133,21.484,24.902,0
1508233039.922,30.273,23.438,34.180,19.531,62.500,0
1508233039.926,42.969,28.809,48.828,32.227,15.137,0
1508233039.930,38.086,30.273,44.922,24.414,6.836,0
1508233039.934,22.461,37.598,25.391,15.625,49.805,0
1508233039.937,33.691,43.945,29.297,28.320,47.852,0
1508233039.941,33.691,32.227,40.527,35.645,-11.230,0
1508233039.945,27.344,26.367,39.062,38.086,-5.371,0
1508233039.949,27.832,21.973,39.551,35.645,38.086,0
1508233039.953,23.926,29.785,34.668,28.809,31.738,0
1508233039.957,22.461,34.180,33.203,29.297,7.812,0
1508233039.961,13.672,27.832,33.203,22.461,-27.832,0
1508233039.965,10.742,31.738,26.367,13.184,-6.348,0
1508233039.969,17.090,43.945,27.832,13.184,51.270,0
1508233039.973,16.602,36.133,21.973,12.695,26.367,0
1508233039.977,15.137,27.832,26.367,12.207,-17.090,0
1508233039.980,15.625,39.551,35.156,10.254,36.621,0
1508233039.984,18.066,30.762,33.691,9.766,79.102,0
1508233039.988,23.438,34.668,46.387,22.949,54.199,0
1508233039.992,12.695,38.574,38.086,7.812,25.879,0
1508233039.996,4.395,21.973,19.043,-8.789,10.254,0
1508233040.000,6.836,17.578,28.320,1.465,18.066,0
1508233040.004,10.742,25.879,35.156,11.719,4.883,0
1508233040.008,13.184,34.668,35.156,20.996,-23.438,0
1508233040.012,11.230,37.109,30.762,17.578,15.625,0
1508233040.016,21.484,29.297,29.785,20.020,26.855,0
1508233040.019,31.738,28.809,38.574,24.902,8.789,0
1508233040.023,27.832,37.109,43.457,26.367,2.930,0
1508233040.027,29.785,22.949,41.504,28.320,-10.742,0
1508233040.031,33.691,25.391,40.527,15.625,13.184,0
1508233040.035,36.621,34.668,37.598,12.695,31.250,0
1508233040.039,34.668,21.973,39.551,22.949,29.297,0
1508233040.043,32.715,25.879,40.527,20.508,8.789,0
1508233040.047,39.062,39.551,32.715,14.648,13.672,0
1508233040.051,41.016,46.875,32.715,20.996,18.555,0
1508233040.055,49.316,42.480,50.293,40.527,29.785,0
1508233040.059,45.898,25.879,52.734,41.992,33.691,0
1508233040.062,33.691,21.484,40.527,32.227,30.273,0
1508233040.066,25.391,27.832,32.227,25.391,40.527,0
1508233040.070,22.949,33.203,31.738,22.949,34.668,0
1508233040.074,34.668,27.832,32.227,29.297,19.531,0
1508233040.078,41.016,30.273,33.203,28.320,-17.578,0
1508233040.082,34.180,39.062,30.762,24.414,-5.371,0
1508233040.086,21.484,35.156,30.273,16.602,43.945,0
1508233040.090,18.066,28.809,35.645,11.719,49.805,0
1508233040.094,22.949,38.574,39.062,18.066,0.488,0
1508233040.098,23.438,42.969,43.457,21.973,-38.086,0
1508233040.102,14.648,29.297,36.133,21.484,26.367,0
1508233040.105,7.324,23.926,35.156,21.973,64.941,0
1508233040.109,5.859,36.133,39.551,18.555,2.930,0
1508233040.113,13.672,25.391,44.434,23.438,4.883,0
1508233040.117,25.879,22.949,43.945,43.945,63.965,0
1508233040.121,21.484,28.809,39.551,39.062,53.223,0
1508233040.125,10.254,22.461,37.109,18.555,22.461,0
1508233040.129,5.371,27.344,35.156,12.207,8.301,0
1508233040.133,2.441,30.273,37.598,18.555,16.113,0
1508233040.137,4.883,32.227,39.062,24.414,38.086,0
1508233040.141,16.113,39.062,41.504,26.855,0.488,0
1508233040.144,23.438,30.762,45.898,26.367,-7.324,0
1508233040.148,18.555,26.855,43.457,24.902,63.965,0
1508233040.152,12.695,27.832,40.039,23.926,55.664,0
1508233040.156,10.254,16.113,37.109,26.367,12.695,0
1508233040.160,19.531,22.461,38.574,27.344,15.625,0
1508233040.164,30.273,38.086,42.480,29.785,14.160,0
1508233040.168,27.832,34.180,36.621,31.250,52.246,0
1508233040.172,26.367,28.320,34.668,29.297,40.039,0
1508233040.176,26.367,41.504,43.457,32.227,-6.836,0
1508233040.180,24.902,41.504,51.758,30.273,14.160,0
1508233040.184,17.090,49.805,43.457,13.184,57.129,0
1508233040.187,23.438,37.598,34.668,11.719,48.828,0
1508233040.191,28.809,17.578,38.086,16.113,2.441,0
1508233040.195,17.090,29.785,35.156,7.812,-3.906,0
1508233040.199,18.555,36.621,33.203,8.301,25.879,0
1508233040.203,15.137,41.016,39.062,10.254,36.621,0
1508233040.207,7.812,32.715,34.668,9.277,48.340,0
1508233040.211,18.066,29.785,37.598,21.484,9.277,0
1508233040.215,23.438,41.504,43.945,27.344,6.348,0
1508233040.219,13.184,36.621,38.574,14.160,55.664,0
1508233040.223,17.578,20.020,35.156,12.695,33.203,0
1508233040.227,40.527,29.297,41.504,33.691,5.371,0
1508233040.230,36.133,44.434,39.062,35.156,-1.953,0
1508233040.234,35.156,46.387,41.504,32.715,29.297,0
1508233040.238,42.480,47.852,44.434,37.598,52.734,0
1508233040.242,39.062,41.992,40.039,34.668,-1.953,0
1508233040.246,39.551,32.227,44.922,33.691,-13.672,0
1508233040.250,30.762,34.668,37.598,15.137,52.734,0
1508233040.254,22.461,38.086,20.508,0.977,49.316,0
1508233040.258,24.414,27.344,14.648,6.836,-0.977,0
1508233040.262,26.367,30.762,27.832,16.113,1.953,0
1508233040.266,30.762,30.762,29.297,17.090,72.754,0
1508233040.269,34.668,26.367,25.879,11.719,97.168,0
1508233040.273,27.832,31.738,30.762,9.277,22.461,0
1508233040.277,30.762,32.227,36.621,12.695,-34.180,0
1508233040.281,35.645,32.227,33.691,18.066,-13.672,0
1508233040.285,24.414,42.969,20.996,-1.953,59.082,0
1508233040.289,14.160,27.832,20.508,-20.508,31.738,0
1508233040.293,21.484,22.949,26.367,-11.230,-28.809,0
1508233040.297,26.855,25.391,27.344,1.953,3.906,0
1508233040.301,30.762,27.344,29.785,9.766,43.457,0
1508233040.305,23.926,34.668,25.879,1.465,24.902,0
1508233040.309,19.043,31.250,19.531,-5.859,1.465,0
1508233040.312,33.203,32.715,16.602,3.418,7.324,0
1508233040.316,33.691,42.480,18.555,10.254,5.371,0
1508233040.320,28.320,46.387,16.602,12.207,4.883,0
1508233040.324,40.039,22.949,15.137,23.438,-7.812,0
1508233040.328,39.062,15.137,22.461,27.832,-10.254,0
1508233040.332,27.344,23.926,30.273,25.391,5.371,0
1508233040.336,37.598,28.320,36.133,31.250,-24.902,0
1508233040.340,39.062,28.320,36.133,29.785,-28.320,0
1508233040.344,27.832,32.227,34.180,25.391,-16.113,0
1508233040.348,26.367,27.832,34.668,25.391,12.695,0
1508233040.352,23.926,26.367,33.691,27.832,12.695,0
1508233040.355,20.508,33.203,34.180,24.902,3.418,0
1508233040.359,18.066,23.926,37.109,20.508,6.348,0
1508233040.363,10.254,31.250,31.250,17.578,-11.230,0
1508233040.367,6.836,29.785,20.020,14.648,5.859,0
1508233040.371,9.766,22.949,29.785,20.020,26.855,0
1508233040.375,4.883,16.113,39.551,18.555,-15.625,0
1508233040.379,8.789,22.949,39.062,21.973,-54.199,0
1508233040.383,13.672,47.852,33.203,20.020,-27.832,0
1508233040.387,7.812,38.574,24.414,9.277,38.086,0
1508233040.391,10.742,22.949,26.855,20.508,34.668,0
1508233040.394,16.602,30.762,31.738,25.391,-27.832,0
1508233040.398,26.855,36.133,42.969,30.762,9.766,0
1508233040.402,33.691,33.203,44.922,36.621,61.035,0
1508233040.406,30.273,35.645,38.574,28.809,22.461,0
1508233040.410,27.344,36.621,29.297,29.785,-17.090,0
1508233040.414,35.156,35.645,34.180,35.645,-13.672,0
1508233040.418,43.945,40.527,46.387,41.992,27.344,0
1508233040.422,44.434,38.086,42.480,50.293,20.020,0
1508233040.426,49.316,27.832,43.945,47.852,-30.273,0
1508233040.430,56.152,22.949,53.711,51.758,-10.742,0
1508233040.434,56.641,42.480,58.105,60.059,31.250,0
1508233040.437,62.012,35.645,54.199,56.641,30.273,0
1508233040.441,58.594,17.090,50.293,55.176,-34.668,0
1508233040.445,56.152,20.996,50.781,53.223,-27.344,0
1508233040.449,67.383,28.809,50.781,58.105,29.297,0
1508233040.453,66.406,46.387,49.316,51.758,43.457,0
1508233040.457,57.129,38.574,44.434,43.945,39.551,0
1508233040.461,52.246,23.926,42.969,40.039,23.926,0
1508233040.465,49.316,34.180,42.480,36.133,37.109,0
1508233040.469,55.176,36.621,48.828,44.434,40.039,0
1508233040.473,56.641,27.344,54.199,50.293,-10.254,0
1508233040.477,43.945,21.973,49.805,40.039,12.207,0
1508233040.480,37.598,28.320,41.504,32.715,55.176,0
1508233040.484,34.180,32.715,36.621,36.133,51.270,0
1508233040.488,33.203,35.156,37.109,31.738,53.223,0
1508233040.492,38.574,32.715,40.039,39.551,29.785,0
1508233040.496,41.992,30.273,42.480,46.387,34.668,0
1508233040.500,36.133,32.715,41.016,39.551,55.664,0
1508233040.504,40.527,37.109,35.645,46.387,75.195,0
1508233040.508,41.504,50.293,35.156,54.688,49.316,0
1508233040.512,30.273,32.227,37.598,37.598,12.207,0
1508233040.516,24.902,21.973,33.691,33.691,27.832,0
1508233040.519,28.320,39.062,38.086,35.156,76.172,0
1508233040.523,32.715,33.203,36.133,32.227,85.938,0
1508233040.527,37.598,22.949,31.738,36.133,41.016,0
1508233040.531,42.480,29.297,31.250,41.016,64.941,0
1508233040.535,47.363,33.203,35.156,41.992,107.422,0
1508233040.539,47.852,28.809,38.086,42.969,103.516,0
1508233040.543,44.434,35.156,40.039,42.480,80.566,0
1508233040.547,46.387,45.410,33.203,43.945,72.266,0
1508233040.551,54.688,45.410,31.738,47.852,76.172,0
1508233040.555,57.617,39.551,45.898,46.387,77.148,0
1508233040.559,51.270,35.156,43.457,36.133,69.824,0
1508233040.562,53.223,35.645,38.086,27.832,38.086,0
1508233040.566,57.129,44.434,41.016,28.320,59.082,0
1508233040.570,55.176,41.992,38.086,31.250,107.422,0
1508233040.574,41.016,32.715,33.203,19.531,37.109,0
1508233040.578,36.621,39.062,36.133,15.137,-24.414,0
1508233040.582,37.598,38.574,34.180,21.484,13.184,0
1508233040.586,34.668,28.320,30.273,16.602,46.875,0
1508233040.590,42.969,27.832,31.250,27.832,24.414,0
1508233040.594,38.574,34.180,20.508,31.738,-0.977,0
1508233040.598,30.273,38.574,26.855,19.043,17.090,0
1508233040.602,39.551,29.785,37.598,24.902,19.531,0
1508233040.605,42.480,26.855,30.273,25.391,-2.930,0
1508233040.609,31.250,32.227,32.227,23.926,-31.738,0
1508233040.613,26.855,39.062,34.180,31.738,-27.344,0
1508233040.617,31.738,45.410,33.203,40.039,-11.230,0
1508233040.621,34.180,44.434,36.133,47.363,-26.855,0
1508233040.625,29.785,39.062,33.691,43.945,-1.953,0
1508233040.629,29.785,36.621,34.668,46.875,12.207,0
1508233040.633,29.785,43.457,37.109,45.898,8.789,0
1508233040.637,29.297,34.180,35.645,44.434,20.508,0
1508233040.641,41.016,29.785,33.691,57.129,10.742,0
1508233040.644,33.203,40.039,36.621,56.641,-6.836,0
1508233040.648,24.902,33.203,42.480,53.223,11.719,0
1508233040.652,30.273,32.227,50.781,55.664,34.668,0
1508233040.656,20.508,37.598,47.363,44.434,13.672,0
1508233040.660,28.320,35.156,46.387,44.434,-10.254,0
1508233040.664,42.969,32.715,49.805,52.246,-32.715,0
1508233040.668,42.969,29.297,44.922,49.316,-6.836,0
1508233040.672,37.598,36.133,48.340,44.434,48.828,0
1508233040.676,44.434,42.969,40.527,42.969,21.484,0
1508233040.680,48.340,42.969,38.574,49.805,-25.879,0
1508233040.684,53.223,35.645,50.293,51.270,-10.742,0
1508233040.687,52.246,35.156,36.133,45.410,42.969,0
1508233040.691,42.480,41.504,27.832,36.621,9.277,0
1508233040.695,46.387,28.320,42.969,32.227,-19.043,0
1508233040.699,38.574,25.879,45.898,22.949,2.930,0
1508233040.703,35.645,38.574,41.016,20.020,19.531,0
1508233040.707,34.180,37.109,37.598,18.066,-7.324,0
1508233040.711,31.250,26.367,34.668,19.531,-20.508,0
1508233040.715,38.086,30.762,38.086,31.250,28.809,0
1508233040.719,35.645,35.645,33.691,25.879,54.199,0
1508233040.723,34.180,28.809,24.902,17.090,20.508,0
1508233040.727,41.504,35.645,37.598,33.691,-17.090,0
1508233040.730,41.992,35.645,46.387,44.434,-6.348,0
1508233040.734,32.715,31.250,32.227,33.691,39.551,0
1508233040.738,27.832,32.715,26.367,31.250,28.320,0
1508233040.742,28.809,33.203,36.133,34.180,-13.672,0
1508233040.746,26.855,21.973,36.621,29.785,-6.836,0
1508233040.750,25.879,24.902,35.645,22.949,24.902,0
1508233040.754,29.785,36.621,39.062,21.973,-1.953,0
1508233040.758,24.414,36.133,40.527,18.066,-48.340,0
1508233040.762,25.879,28.320,41.992,17.578,-2.930,0
1508233040.766,25.391,33.691,35.156,17.578,39.062,0
1508233040.769,16.602,33.203,34.180,11.230,49.316,0
1508233040.773,11.230,25.879,38.574,4.883,32.227,0
1508233040.777,11.719,27.344,40.527,1.953,36.133,0
1508233040.781,9.766,37.598,39.062,3.418,37.109,0
1508233040.785,20.508,46.387,38.086,6.836,32.227,0
1508233040.789,20.508,32.715,37.109,2.441,42.480,0
1508233040.793,11.230,32.227,33.691,-0.488,26.855,0
1508233040.797,12.695,35.156,32.715,-2.930,12.695,0
1508233040.801,7.324,30.273,25.879,-11.719,-1.465,0
1508233040.805,7.324,27.832,25.879,-12.207,22.461,0
1508233040.809,20.508,27.344,26.855,-4.883,-4.883,0
1508233040.812,31.250,25.391,30.762,-4.395,-48.340,0
1508233040.816,33.691,22.949,33.203,-2.930,-6.836,0
1508233040.820,24.902,29.297,26.855,0.977,17.090,0
1508233040.824,21.484,29.785,26.367,4.395,19.043,0
1508233040.828,24.414,36.133,25.879,11.719,-4.883,0
1508233040.832,25.391,32.715,26.367,21.973,-16.113,0
1508233040.836,34.668,31.738,38.574,30.273,42.969,0
1508233040.840,40.527,46.875,41.992,30.762,55.664,0
1508233040.844,41.992,46.387,34.668,28.809,-1.465,0
1508233040.848,35.156,44.434,39.551,33.691,-18.066,0
1508233040.852,27.344,37.598,41.016,32.715,49.805,0
1508233040.855,29.297,19.043,40.039,32.715,55.664,0
1508233040.859,24.414,23.926,43.457,35.156,-8.301,0
