timestamps,TP9,AF7,AF8,TP10,Right AUX,Marker0
1505808948.237,4.883,23.926,2.930,38.574,97.656,0
1505808948.241,-6.348,15.625,12.695,26.367,84.473,0
1505808948.245,-0.977,17.090,22.949,33.691,82.031,0
1505808948.249,5.371,39.551,14.160,49.316,110.840,0
1505808948.252,2.930,35.645,8.301,48.340,99.121,0
1505808948.256,-2.441,27.344,12.695,39.062,95.703,0
1505808948.260,8.301,52.734,12.207,43.945,97.656,0
1505808948.264,7.324,49.805,26.855,44.434,93.750,0
1505808948.268,-1.465,33.691,34.668,35.645,89.844,0
1505808948.272,-0.488,52.246,29.297,31.738,74.219,0
1505808948.276,-6.348,47.363,37.598,29.785,66.895,0
1505808948.280,-11.719,20.996,32.715,33.691,74.707,0
1505808948.284,1.953,40.039,31.250,43.945,65.430,0
1505808948.288,6.348,69.824,45.898,39.062,48.828,0
1505808948.292,4.883,72.266,46.387,35.156,99.609,0
1505808948.295,-9.766,41.992,30.762,27.344,125.488,0
1505808948.299,-5.371,30.762,25.391,34.668,67.383,0
1505808948.303,11.230,39.062,39.551,51.758,62.500,0
1505808948.307,6.348,46.875,47.852,49.316,90.820,0
1505808948.311,8.301,56.152,30.273,46.875,87.891,0
1505808948.315,1.465,60.547,39.551,40.527,85.938,0
1505808948.319,2.930,73.242,79.590,45.410,72.266,0
1505808948.323,12.695,71.777,82.031,59.570,83.496,0
1505808948.327,-10.742,49.316,62.988,51.758,104.980,0
1505808948.331,-0.977,55.176,63.477,62.012,76.660,0
1505808948.335,10.254,54.199,57.617,65.430,36.621,0
1505808948.338,11.230,46.387,31.250,61.523,37.598,0
1505808948.342,21.973,45.898,39.551,61.523,42.480,0
1505808948.346,26.855,41.016,55.664,63.965,46.875,0
1505808948.350,24.414,39.062,45.410,60.547,67.871,0
1505808948.354,10.742,43.945,52.734,48.340,66.406,0
1505808948.358,1.953,63.477,45.410,41.992,68.359,0
1505808948.362,29.297,78.613,35.645,57.617,49.316,0
1505808948.366,49.805,99.121,39.551,73.242,56.152,0
1505808948.370,41.016,87.891,41.504,61.035,81.055,0
1505808948.374,46.387,77.637,45.410,57.129,56.152,0
1505808948.377,60.547,96.680,56.152,74.707,43.945,0
1505808948.381,47.852,80.566,49.316,63.477,59.082,0
1505808948.385,45.410,58.594,36.133,52.246,63.965,0
1505808948.389,39.551,58.594,26.367,48.828,39.551,0
1505808948.393,34.668,50.781,22.461,42.969,69.336,0
1505808948.397,46.875,45.410,28.320,54.199,84.473,0
1505808948.401,48.340,44.434,38.086,55.176,59.082,0
1505808948.405,49.316,74.219,40.527,47.852,64.453,0
1505808948.409,51.758,81.543,40.039,47.852,67.383,0
1505808948.413,50.293,68.848,47.363,47.363,62.500,0
1505808948.417,31.250,62.988,44.434,34.180,61.035,0
1505808948.420,26.367,52.246,19.531,31.738,80.566,0
1505808948.424,32.715,39.062,10.742,30.762,79.590,0
1505808948.428,21.484,42.969,43.945,27.832,62.988,0
1505808948.432,16.113,61.035,70.801,26.855,63.477,0
1505808948.436,13.672,58.594,68.848,19.043,69.824,0
1505808948.440,-1.465,55.176,52.734,10.742,94.238,0
1505808948.444,-9.277,48.340,33.691,11.230,92.773,0
1505808948.448,-7.324,41.992,43.457,25.879,83.496,0
1505808948.452,-2.930,26.855,54.688,38.574,67.383,0
1505808948.456,0.488,1.953,43.945,35.645,58.594,0
1505808948.460,-10.742,13.184,30.762,28.320,88.379,0
1505808948.463,-22.949,27.344,36.621,27.344,67.871,0
1505808948.467,-15.625,30.762,61.523,28.809,71.777,0
1505808948.471,11.719,36.133,79.102,53.711,96.680,0
1505808948.475,7.812,18.555,55.664,59.570,61.523,0
1505808948.479,-8.789,3.906,33.691,44.922,59.082,0
1505808948.483,5.859,21.484,51.758,60.547,91.797,0
1505808948.487,5.859,24.414,52.734,58.105,86.914,0
1505808948.491,-0.977,2.441,50.293,54.688,56.641,0
1505808948.495,-6.836,7.812,55.176,57.129,59.082,0
1505808948.499,0.000,21.484,47.363,65.430,79.590,0
1505808948.502,13.672,17.578,33.691,71.777,62.012,0
1505808948.506,7.324,16.602,19.043,64.941,52.734,0
1505808948.510,9.766,19.531,32.715,74.707,55.664,0
1505808948.514,44.922,37.109,56.152,89.355,45.410,0
1505808948.518,44.434,33.203,43.945,75.195,78.613,0
1505808948.522,13.672,19.531,17.090,52.246,112.793,0
1505808948.526,25.879,21.484,27.832,66.895,78.125,0
1505808948.530,24.902,6.348,27.344,59.570,38.574,0
1505808948.534,11.719,11.719,5.371,37.598,62.012,0
1505808948.538,25.391,29.297,21.973,50.781,59.570,0
1505808948.542,24.414,56.152,14.160,50.293,53.711,0
1505808948.545,28.320,78.125,19.531,46.387,68.359,0
1505808948.549,16.602,52.246,39.551,44.434,66.895,0
1505808948.553,-11.719,15.625,14.160,22.949,78.613,0
1505808948.557,-3.418,32.227,29.785,28.809,94.238,0
1505808948.561,17.090,44.434,47.363,41.016,93.750,0
1505808948.565,11.230,40.039,25.391,21.484,63.477,0
1505808948.569,-9.277,32.715,5.371,5.859,26.855,0
1505808948.573,6.348,44.922,26.367,18.555,43.945,0
1505808948.577,9.766,64.941,45.410,22.461,51.758,0
1505808948.581,-8.789,49.316,21.484,13.672,41.992,0
1505808948.585,1.953,43.457,12.695,20.508,105.957,0
1505808948.588,8.789,46.875,23.926,20.020,110.352,0
1505808948.592,4.883,32.715,36.621,9.277,41.016,0
1505808948.596,2.441,39.062,30.273,-1.953,57.129,0
1505808948.600,-0.977,64.941,41.992,15.137,72.754,0
1505808948.604,3.906,66.406,50.781,36.621,59.570,0
1505808948.608,12.695,53.711,31.738,26.367,61.035,0
1505808948.612,8.301,48.340,31.738,21.484,58.105,0
1505808948.616,7.812,38.574,41.504,24.902,53.711,0
1505808948.620,1.465,31.250,15.625,11.719,48.340,0
1505808948.624,-1.465,48.828,6.348,14.160,63.477,0
1505808948.627,11.719,57.129,29.785,41.016,79.102,0
1505808948.631,19.043,56.152,41.016,57.129,85.449,0
1505808948.635,8.301,51.758,34.668,43.457,95.703,0
1505808948.639,8.789,37.109,25.391,45.898,76.172,0
1505808948.643,27.344,30.762,33.691,61.035,67.871,0
1505808948.647,31.250,43.945,32.715,60.059,74.707,0
1505808948.651,14.648,63.965,24.902,48.340,59.082,0
1505808948.655,2.930,62.988,25.391,35.156,72.754,0
1505808948.659,22.949,62.500,28.320,39.062,104.980,0
1505808948.663,34.668,61.523,37.109,53.711,116.211,0
1505808948.667,11.719,29.297,42.969,55.176,64.941,0
1505808948.670,0.000,9.277,34.180,37.109,59.570,0
1505808948.674,22.949,22.461,25.879,40.039,95.215,0
1505808948.678,31.738,38.086,40.527,51.758,103.516,0
1505808948.682,23.438,56.641,60.547,55.664,120.117,0
1505808948.686,10.254,61.035,31.738,47.363,126.465,0
1505808948.690,1.465,51.758,7.812,33.203,92.285,0
1505808948.694,12.695,33.203,33.203,45.898,55.176,0
1505808948.698,16.602,36.621,43.457,57.129,56.641,0
1505808948.702,13.184,46.387,29.785,37.598,86.426,0
1505808948.706,16.602,30.762,25.391,22.949,83.984,0
1505808948.710,26.855,41.016,23.926,31.738,58.105,0
1505808948.713,21.973,54.199,21.973,32.715,55.176,0
1505808948.717,16.113,37.598,13.184,21.484,73.242,0
1505808948.721,36.621,36.133,16.113,26.855,87.402,0
1505808948.725,35.156,42.969,11.719,31.250,103.027,0
1505808948.729,34.668,41.992,15.137,41.016,99.121,0
1505808948.733,50.293,44.434,33.691,43.457,79.102,0
1505808948.737,34.668,52.246,20.996,29.785,83.496,0
1505808948.741,29.785,50.293,14.160,33.203,67.871,0
1505808948.745,36.621,55.176,1.953,38.086,48.340,0
1505808948.749,23.438,44.434,13.672,24.902,70.312,0
1505808948.752,41.504,56.152,40.527,32.715,93.750,0
1505808948.756,51.270,74.219,28.320,43.457,71.289,0
1505808948.760,31.738,61.523,6.836,32.227,68.359,0
1505808948.764,44.434,55.664,15.625,43.457,94.727,0
1505808948.768,53.223,34.180,34.668,50.293,101.074,0
1505808948.772,44.922,42.969,33.691,45.410,106.445,0
1505808948.776,48.340,58.594,23.926,50.293,107.422,0
1505808948.780,50.781,34.180,16.602,58.105,98.145,0
1505808948.784,58.105,38.574,47.363,66.895,86.914,0
1505808948.788,58.105,44.434,48.340,64.941,65.430,0
1505808948.792,37.598,43.457,29.785,50.781,68.848,0
1505808948.795,44.922,33.203,33.691,55.664,79.590,0
1505808948.799,51.270,39.551,30.273,66.406,49.316,0
1505808948.803,28.809,62.500,27.832,60.059,41.504,0
1505808948.807,12.695,20.020,27.832,33.691,82.031,0
1505808948.811,23.926,17.090,57.617,39.062,114.258,0
1505808948.815,31.738,46.387,65.430,53.711,86.914,0
1505808948.819,34.668,20.996,43.457,62.500,91.797,0
1505808948.823,30.273,10.742,44.922,63.965,125.977,0
1505808948.827,37.109,34.180,55.176,60.547,104.980,0
1505808948.831,50.293,37.109,52.246,66.895,65.918,0
1505808948.835,31.250,23.926,35.645,53.711,46.875,0
1505808948.838,11.230,23.926,17.090,42.480,81.543,0
1505808948.842,20.508,18.555,34.180,54.199,106.934,0
1505808948.846,40.039,19.043,64.453,72.754,99.609,0
1505808948.850,40.527,12.695,56.641,69.336,78.125,0
1505808948.854,29.297,12.207,42.480,63.965,51.270,0
1505808948.858,27.832,22.949,46.387,67.871,41.992,0
1505808948.862,23.926,32.227,44.434,69.336,51.270,0
1505808948.866,12.695,32.715,41.992,61.035,57.129,0
1505808948.870,26.367,15.137,60.059,74.219,59.570,0
1505808948.874,31.738,20.020,67.383,83.984,66.895,0
1505808948.877,11.230,44.922,63.965,65.918,79.590,0
1505808948.881,8.301,46.875,43.457,51.758,59.570,0
1505808948.885,12.695,40.527,37.598,50.781,55.664,0
1505808948.889,2.930,30.762,47.852,47.363,72.266,0
1505808948.893,-3.906,0.977,38.086,37.598,72.266,0
1505808948.897,-0.488,10.742,49.316,38.086,90.820,0
1505808948.901,6.836,44.434,61.035,39.551,79.102,0
1505808948.905,-6.348,42.969,37.109,29.297,91.797,0
1505808948.909,-23.438,26.855,28.320,27.832,91.309,0
1505808948.913,-14.160,21.484,37.598,40.527,82.520,0
1505808948.917,-4.883,23.438,42.480,43.945,97.656,0
1505808948.920,-10.254,34.180,38.574,38.574,87.891,0
1505808948.924,-31.738,37.598,19.043,25.391,69.824,0
1505808948.928,-51.270,17.578,5.371,2.441,73.242,0
1505808948.932,-45.410,24.902,9.277,-10.254,99.121,0
1505808948.936,-23.926,34.180,21.973,0.000,87.402,0
1505808948.940,-14.160,42.480,31.250,15.137,71.777,0
1505808948.944,-28.809,40.527,25.879,13.672,88.867,0
1505808948.948,-22.461,31.738,10.742,17.578,86.914,0
1505808948.952,5.859,59.082,25.879,39.062,66.406,0
1505808948.956,14.160,47.363,36.621,47.363,83.984,0
1505808948.960,7.812,18.555,33.691,39.551,100.586,0
1505808948.963,16.602,56.152,25.879,48.828,82.031,0
1505808948.967,29.297,78.125,13.672,60.059,95.703,0
1505808948.971,22.461,62.500,14.648,50.293,88.379,0
1505808948.975,26.855,63.477,28.809,48.340,71.289,0
1505808948.979,35.645,85.449,40.527,62.988,90.820,0
1505808948.983,42.969,74.707,44.434,73.730,101.562,0
1505808948.987,39.551,64.453,32.715,63.477,87.891,0
1505808948.991,40.039,61.523,27.344,62.988,84.961,0
1505808948.995,50.781,72.266,39.551,68.359,118.164,0
1505808948.999,34.668,87.402,38.574,56.641,113.281,0
1505808949.002,22.949,64.941,38.086,45.410,75.195,0
1505808949.006,25.391,45.898,36.133,44.434,75.684,0
1505808949.010,21.973,56.152,33.203,42.969,84.473,0
1505808949.014,24.902,61.523,30.762,35.645,81.543,0
1505808949.018,11.230,37.109,14.160,20.996,62.012,0
1505808949.022,11.719,57.129,22.949,32.227,42.480,0
1505808949.026,7.324,72.266,39.062,27.832,62.500,0
1505808949.030,1.953,51.270,39.062,22.461,74.219,0
1505808949.034,-2.441,51.270,22.949,6.836,54.688,0
1505808949.038,-16.113,57.129,4.883,-14.160,29.785,0
1505808949.042,-6.836,52.246,22.949,-8.301,20.020,0
1505808949.045,-12.695,34.180,28.809,-8.789,32.715,0
1505808949.049,-26.855,16.113,9.277,-10.254,45.898,0
1505808949.053,-7.324,43.945,10.254,0.977,64.453,0
1505808949.057,-2.441,48.340,6.836,6.348,66.406,0
1505808949.061,-3.418,37.109,5.371,1.953,55.176,0
1505808949.065,15.625,51.758,11.719,18.555,50.781,0
1505808949.069,27.344,71.777,11.719,33.691,67.871,0
1505808949.073,12.695,66.895,24.902,20.508,74.219,0
1505808949.077,-3.418,33.203,32.715,10.742,42.480,0
1505808949.081,9.277,23.438,33.691,12.695,57.129,0
1505808949.085,16.113,58.105,32.227,26.855,73.242,0
1505808949.088,28.809,79.590,34.180,47.852,103.027,0
1505808949.092,35.645,63.477,36.621,39.062,83.984,0
1505808949.096,48.828,79.590,49.316,42.480,26.855,0
1505808949.100,52.246,90.820,40.039,47.852,64.941,0
1505808949.104,42.480,78.613,45.410,46.875,97.656,0
1505808949.108,43.945,66.895,57.129,53.711,60.547,0
1505808949.112,46.875,54.688,32.227,57.617,41.016,0
1505808949.116,60.059,47.852,42.480,70.312,51.758,0
1505808949.120,46.875,31.738,46.387,52.734,63.965,0
1505808949.124,20.996,26.367,24.414,28.320,59.570,0
1505808949.127,31.250,58.594,46.387,47.363,37.109,0
1505808949.131,35.645,66.406,55.664,54.199,47.852,0
1505808949.135,30.762,48.340,52.246,41.016,45.410,0
1505808949.139,24.902,32.227,49.316,38.086,28.320,0
1505808949.143,26.855,38.086,31.250,45.410,68.359,0
1505808949.147,21.973,47.852,29.297,45.898,70.801,0
1505808949.151,13.184,39.062,37.598,40.039,77.148,0
1505808949.155,15.137,20.508,30.762,41.992,61.523,0
1505808949.159,15.625,32.715,13.184,49.316,50.781,0
1505808949.163,11.230,25.879,15.625,45.898,67.383,0
1505808949.167,2.441,10.254,34.180,28.809,64.453,0
1505808949.170,-0.488,28.320,30.762,22.461,48.828,0
1505808949.174,-5.371,41.504,26.367,17.578,40.527,0
1505808949.178,-13.184,43.457,21.484,16.113,47.363,0
1505808949.182,-19.531,11.230,17.578,12.695,16.602,0
1505808949.186,-7.324,0.000,27.832,14.648,4.395,0
1505808949.190,3.906,21.484,23.926,23.438,39.551,0
1505808949.194,8.301,26.855,29.785,31.738,55.664,0
1505808949.198,2.441,22.461,30.762,22.949,58.594,0
1505808949.202,-15.137,35.156,22.461,5.859,45.410,0
1505808949.206,-23.438,41.016,30.273,6.348,49.805,0
1505808949.210,-12.207,35.156,47.363,17.578,64.941,0
1505808949.213,-2.930,27.344,48.340,18.555,63.477,0
1505808949.217,-6.836,24.414,30.273,22.461,67.871,0
1505808949.221,-6.348,41.504,20.508,25.391,44.434,0
1505808949.225,-7.812,29.297,17.578,18.555,48.828,0
1505808949.229,-2.441,0.977,19.531,18.555,62.500,0
1505808949.233,20.508,39.062,36.133,27.832,61.035,0
1505808949.237,18.555,41.016,30.273,29.785,71.289,0
1505808949.241,5.859,14.648,8.301,25.879,31.250,0
1505808949.245,13.184,33.203,13.184,36.133,25.391,0
1505808949.249,26.855,66.895,22.461,44.434,66.406,0
1505808949.252,27.344,68.848,20.508,46.875,64.941,0
1505808949.256,15.137,37.598,11.719,41.504,52.734,0
1505808949.260,10.742,47.852,19.043,42.969,35.156,0
1505808949.264,24.414,53.223,32.715,57.129,41.016,0
1505808949.268,37.598,38.086,31.738,69.336,74.707,0
1505808949.272,25.879,31.738,18.555,68.848,40.039,0
1505808949.276,12.207,17.578,9.277,62.500,38.086,0
1505808949.280,17.090,-6.836,25.879,66.406,55.176,0
1505808949.284,19.531,4.395,45.410,70.801,39.551,0
1505808949.288,0.977,17.090,7.324,54.688,30.762,0
1505808949.292,-2.441,32.227,-5.371,43.457,29.297,0
1505808949.295,30.273,55.176,36.133,63.965,56.152,0
1505808949.299,23.438,40.527,47.852,62.500,71.289,0
1505808949.303,5.371,38.086,41.016,51.270,71.777,0
1505808949.307,10.254,41.016,27.832,57.617,65.430,0
1505808949.311,15.625,27.832,24.414,53.711,56.152,0
1505808949.315,27.344,20.020,35.645,52.246,62.500,0
1505808949.319,22.949,13.672,30.762,47.852,48.828,0
1505808949.323,22.461,29.297,22.461,47.852,49.316,0
1505808949.327,23.438,50.293,22.461,52.734,62.012,0
1505808949.331,14.160,50.293,28.320,46.387,62.500,0
1505808949.335,14.160,51.270,26.367,39.551,69.336,0
1505808949.338,18.066,46.875,25.879,33.691,56.641,0
1505808949.342,2.441,53.711,35.156,14.648,35.645,0
1505808949.346,-28.320,43.945,20.020,-3.906,49.805,0
1505808949.350,-16.602,39.062,23.926,13.184,71.289,0
1505808949.354,15.625,56.641,47.852,35.156,97.656,0
1505808949.358,13.672,41.992,45.410,31.250,97.656,0
1505808949.362,10.742,34.668,27.832,35.645,69.824,0
1505808949.366,23.438,61.035,34.180,50.781,74.707,0
1505808949.370,27.832,70.312,40.527,53.223,51.758,0
1505808949.374,23.926,44.922,29.297,45.410,31.250,0
1505808949.377,19.043,37.109,30.273,35.156,50.293,0
1505808949.381,29.297,52.734,32.715,46.387,64.453,0
1505808949.385,40.039,62.988,22.461,58.105,90.332,0
1505808949.389,32.715,41.016,11.230,56.641,83.008,0
1505808949.393,20.996,19.531,8.301,53.711,70.801,0
1505808949.397,34.668,52.246,34.668,62.988,73.242,0
1505808949.401,37.598,51.758,41.016,58.594,84.473,0
1505808949.405,28.320,40.527,15.137,43.457,52.734,0
1505808949.409,34.180,44.434,4.395,47.363,35.156,0
1505808949.413,42.969,57.129,16.113,59.570,69.824,0
1505808949.417,36.621,71.289,19.043,51.758,80.078,0
1505808949.420,41.504,43.457,6.348,46.875,46.387,0
1505808949.424,43.457,43.945,12.695,52.734,41.016,0
1505808949.428,41.992,61.523,41.992,62.500,36.133,0
1505808949.432,50.293,68.359,69.824,75.195,49.805,0
1505808949.436,41.504,49.316,59.082,71.777,90.820,0
1505808949.440,36.621,47.363,25.879,64.941,70.801,0
1505808949.444,49.805,66.895,47.363,79.590,67.383,0
1505808949.448,44.434,49.805,76.660,82.520,58.594,0
1505808949.452,29.785,40.039,67.383,66.895,31.250,0
1505808949.456,20.996,53.223,61.523,59.082,19.043,0
1505808949.460,36.621,44.922,73.730,74.219,34.180,0
1505808949.463,46.875,30.273,76.660,81.055,78.125,0
1505808949.467,23.438,43.457,53.223,62.988,79.102,0
1505808949.471,4.883,48.340,40.527,47.852,62.500,0
1505808949.475,11.230,35.156,44.434,46.875,52.734,0
1505808949.479,14.160,34.180,36.133,49.805,58.105,0
1505808949.483,0.977,23.926,28.809,44.922,47.852,0
1505808949.487,10.254,38.574,50.781,50.293,22.949,0
1505808949.491,8.301,52.734,30.762,33.203,54.199,0
1505808949.495,14.648,73.242,26.855,29.297,84.961,0
1505808949.499,34.668,74.219,52.246,44.922,66.895,0
1505808949.502,21.484,51.758,53.711,45.410,59.570,0
1505808949.506,13.672,58.594,51.758,43.457,56.641,0
1505808949.510,19.531,57.617,41.992,37.109,72.266,0
1505808949.514,22.949,42.969,31.250,50.781,55.176,0
1505808949.518,28.320,49.805,25.879,58.594,60.059,0
1505808949.522,29.785,64.453,27.344,50.781,100.098,0
1505808949.526,32.715,67.383,30.762,58.105,100.098,0
1505808949.530,49.316,82.520,42.969,76.172,78.125,0
1505808949.534,53.223,58.594,55.176,87.402,73.242,0
1505808949.538,41.992,28.809,52.734,76.660,119.141,0
1505808949.542,49.316,64.453,31.738,60.547,122.559,0
1505808949.545,50.781,77.148,28.809,67.871,111.816,0
1505808949.549,50.781,76.172,61.035,74.707,86.426,0
1505808949.553,45.410,65.430,57.129,64.453,92.773,0
1505808949.557,42.480,40.039,30.762,63.477,125.488,0
1505808949.561,49.316,46.387,32.227,70.801,107.910,0
1505808949.565,49.316,34.180,45.410,81.543,92.285,0
1505808949.569,47.363,17.578,46.875,83.984,85.938,0
1505808949.573,27.344,24.414,24.414,60.547,88.379,0
1505808949.577,35.645,37.109,42.480,72.754,90.332,0
1505808949.581,48.828,26.855,46.387,86.426,111.328,0
1505808949.585,35.645,18.555,40.039,72.266,107.422,0
1505808949.588,17.578,27.344,36.621,62.988,97.656,0
1505808949.592,12.695,50.293,29.785,56.641,73.730,0
1505808949.596,15.137,55.664,17.090,57.617,79.590,0
1505808949.600,17.090,28.809,19.043,57.129,92.773,0
1505808949.604,16.602,40.039,39.551,45.410,64.941,0
1505808949.608,22.461,58.594,38.086,41.992,88.379,0
1505808949.612,29.297,43.457,43.945,46.875,96.191,0
1505808949.616,6.348,29.785,54.688,35.645,62.988,0
1505808949.620,4.883,27.832,44.922,32.715,51.758,0
1505808949.624,20.996,35.645,40.527,35.156,65.918,0
1505808949.627,9.277,50.781,28.320,21.484,61.035,0
1505808949.631,7.812,61.523,22.949,20.020,49.805,0
1505808949.635,19.043,65.430,35.645,31.738,61.035,0
1505808949.639,12.695,68.359,43.945,35.645,89.844,0
1505808949.643,-7.812,57.617,20.996,21.484,85.449,0
1505808949.647,-14.648,45.410,7.812,21.484,60.547,0
1505808949.651,10.742,51.758,33.691,45.898,47.363,0
1505808949.655,25.879,44.434,52.246,45.898,40.527,0
1505808949.659,12.695,3.418,35.645,30.762,58.594,0
1505808949.663,4.395,2.930,29.785,37.598,47.363,0
1505808949.667,7.812,50.293,40.039,46.875,41.016,0
1505808949.670,18.066,61.035,33.691,47.852,69.336,0
1505808949.674,33.691,53.223,30.762,45.410,77.148,0
1505808949.678,37.109,65.430,34.668,31.250,62.988,0
1505808949.682,49.805,72.754,31.250,31.250,58.594,0
1505808949.686,67.383,55.176,38.574,43.945,79.590,0
1505808949.690,59.570,38.574,35.156,36.621,92.773,0
1505808949.694,55.176,44.922,21.973,39.062,71.289,0
1505808949.698,60.547,59.082,19.043,57.129,60.059,0
1505808949.702,54.688,53.223,22.461,55.176,65.430,0
1505808949.706,56.152,42.969,39.062,55.176,61.035,0
1505808949.710,62.988,63.965,49.805,57.129,63.477,0
1505808949.713,64.453,71.777,52.246,61.523,59.082,0
1505808949.717,57.129,69.824,53.223,67.383,55.664,0
1505808949.721,51.270,38.574,36.133,69.824,60.547,0
1505808949.725,68.848,36.133,24.414,89.844,62.988,0
1505808949.729,77.637,83.008,52.734,89.844,69.336,0
1505808949.733,62.500,74.707,62.012,72.754,48.828,0
1505808949.737,49.805,45.410,28.320,53.711,28.809,0
1505808949.741,55.176,54.199,17.578,50.293,63.965,0
1505808949.745,56.641,67.871,28.320,62.012,82.031,0
1505808949.749,41.016,40.527,48.340,61.523,81.055,0
1505808949.752,21.973,30.762,52.734,53.223,77.637,0
1505808949.756,6.348,39.062,35.156,42.969,43.457,0
1505808949.760,8.301,21.973,31.250,45.410,61.523,0
1505808949.764,-5.371,18.066,29.297,34.668,77.637,0
1505808949.768,-28.809,21.973,13.184,17.578,49.316,0
1505808949.772,-14.160,15.625,5.859,31.250,53.711,0
1505808949.776,-0.488,42.480,19.531,45.410,87.402,0
1505808949.780,-1.465,45.898,36.133,39.062,110.840,0
1505808949.784,-6.836,17.090,23.438,21.484,118.164,0
1505808949.788,-12.207,34.668,23.926,17.090,113.281,0
1505808949.792,-3.418,44.434,31.250,22.949,80.566,0
1505808949.795,10.254,39.551,48.340,32.715,74.219,0
1505808949.799,0.977,47.852,43.457,27.344,96.680,0
1505808949.803,-0.977,58.105,27.832,28.320,92.285,0
1505808949.807,-6.348,39.551,27.344,26.855,77.637,0
1505808949.811,-14.160,21.973,20.020,25.391,71.289,0
1505808949.815,-4.883,55.664,43.457,34.668,56.641,0
1505808949.819,25.879,76.660,57.129,57.617,45.898,0
1505808949.823,28.809,78.613,44.434,61.035,57.617,0
1505808949.827,-4.883,64.453,31.738,38.574,52.734,0
1505808949.831,2.930,50.781,32.227,45.898,49.805,0
1505808949.835,24.414,61.035,39.551,65.918,50.781,0
1505808949.838,35.645,69.824,45.410,70.312,59.082,0
1505808949.842,39.551,51.270,43.945,75.684,75.195,0
1505808949.846,43.945,30.273,54.688,86.426,82.520,0
1505808949.850,48.828,42.969,59.082,80.078,62.988,0
1505808949.854,30.762,50.781,39.551,66.895,60.059,0
1505808949.858,10.742,43.457,33.691,59.570,52.734,0
1505808949.862,20.020,62.988,30.762,63.965,28.809,0
1505808949.866,24.902,52.246,28.809,60.059,43.457,0
1505808949.870,30.762,37.598,41.016,67.383,59.570,0
1505808949.874,41.016,33.691,49.316,73.730,30.273,0
1505808949.877,44.922,36.621,41.992,69.824,41.016,0
1505808949.881,47.363,64.453,45.410,71.777,65.430,0
1505808949.885,38.574,52.246,47.852,57.617,51.758,0
1505808949.889,16.113,33.691,44.922,43.457,38.574,0
1505808949.893,16.602,51.270,37.109,48.340,64.453,0
1505808949.897,42.969,42.969,37.109,68.848,82.520,0
1505808949.901,34.668,27.344,48.340,57.129,57.129,0
1505808949.905,27.344,35.645,41.016,46.875,70.801,0
1505808949.909,47.852,48.340,48.340,59.570,80.078,0
1505808949.913,34.180,47.852,53.711,41.016,79.590,0
1505808949.917,9.766,30.762,38.086,27.344,92.773,0
1505808949.920,21.973,34.668,33.203,49.805,78.125,0
1505808949.924,9.766,46.875,29.785,43.457,59.082,0
1505808949.928,-5.859,33.203,27.832,25.391,78.125,0
1505808949.932,-6.348,37.109,25.879,24.902,76.660,0
1505808949.936,-4.395,50.293,7.812,24.414,77.148,0
1505808949.940,10.742,37.109,21.973,28.809,96.680,0
1505808949.944,6.836,48.340,44.434,33.203,92.773,0
1505808949.948,0.488,55.664,38.086,34.668,92.773,0
1505808949.952,17.090,45.898,31.738,39.551,94.238,0
1505808949.956,33.691,37.598,28.809,46.875,100.586,0
1505808949.960,51.270,44.434,34.180,60.547,98.145,0
1505808949.963,55.176,35.156,17.578,58.105,89.355,0
1505808949.967,39.551,18.066,9.766,52.734,63.477,0
1505808949.971,30.762,31.738,23.926,58.105,50.293,0
1505808949.975,37.598,50.293,30.273,65.430,82.520,0
1505808949.979,47.852,55.664,43.457,75.195,90.332,0
1505808949.983,38.574,69.336,30.762,74.219,100.098,0
1505808949.987,28.320,51.270,36.621,63.477,114.258,0
1505808949.991,20.508,32.227,44.922,44.922,95.215,0
1505808949.995,10.254,41.504,30.273,37.598,72.754,0
1505808949.999,25.879,37.109,30.273,48.340,68.848,0
1505808950.002,37.598,37.109,21.484,45.410,59.570,0
1505808950.006,26.367,46.875,21.484,34.668,96.191,0
1505808950.010,30.762,42.480,33.691,41.992,99.609,0
1505808950.014,34.668,49.316,36.133,50.293,91.309,0
1505808950.018,18.555,44.922,37.109,39.551,95.703,0
1505808950.022,11.719,10.742,26.855,26.855,78.613,0
1505808950.026,20.020,25.391,25.391,30.273,62.012,0
1505808950.030,28.809,54.199,35.645,31.738,60.059,0
1505808950.034,41.992,50.781,36.133,43.457,97.168,0
1505808950.038,40.527,60.059,38.574,57.129,89.844,0
1505808950.042,25.879,50.293,30.273,47.852,93.750,0
1505808950.045,14.160,45.410,13.672,29.297,100.586,0
1505808950.049,10.254,37.109,14.160,20.508,82.031,0
1505808950.053,9.766,32.227,32.715,16.113,77.148,0
1505808950.057,20.996,51.270,50.781,17.578,67.871,0
1505808950.061,22.949,45.410,51.758,24.414,51.270,0
1505808950.065,20.996,36.133,41.016,30.273,54.199,0
1505808950.069,28.320,37.109,29.297,31.738,55.664,0
1505808950.073,37.598,41.992,33.691,39.551,56.152,0
1505808950.077,46.875,62.988,36.621,45.410,62.500,0
1505808950.081,29.785,61.523,21.484,33.691,67.383,0
1505808950.085,22.949,46.875,32.715,32.227,74.707,0
1505808950.088,28.809,48.340,34.180,36.133,71.777,0
1505808950.092,29.785,55.176,26.367,42.969,51.758,0
1505808950.096,27.344,45.410,38.086,41.504,37.109,0
1505808950.100,21.973,34.180,48.828,43.457,41.504,0
1505808950.104,38.086,41.992,59.082,61.523,43.945,0
1505808950.108,35.645,34.180,48.828,58.105,51.758,0
1505808950.112,20.020,35.645,39.551,56.152,57.129,0
1505808950.116,18.555,45.898,38.086,59.570,48.340,0
1505808950.120,7.812,44.434,27.344,42.969,44.922,0
1505808950.124,10.254,35.156,37.598,44.434,72.754,0
1505808950.127,3.906,29.297,36.621,34.180,55.176,0
1505808950.131,0.977,36.621,26.855,31.250,46.875,0
1505808950.135,3.906,25.879,41.016,34.668,70.312,0
1505808950.139,7.324,50.781,66.895,38.086,53.711,0
1505808950.143,20.996,59.570,81.543,42.969,26.855,0
1505808950.147,41.504,51.270,65.918,50.293,46.387,0
1505808950.151,62.500,70.801,54.199,67.871,59.570,0
1505808950.155,52.734,77.148,25.879,52.734,46.387,0
1505808950.159,43.945,56.641,24.414,43.945,27.832,0
1505808950.163,53.223,40.527,53.711,56.641,16.602,0
1505808950.167,54.199,51.270,54.199,54.688,44.434,0
1505808950.170,47.363,55.664,48.828,48.340,45.410,0
1505808950.174,50.293,46.387,37.598,52.734,34.668,0
1505808950.178,58.105,39.551,34.180,51.758,56.152,0
1505808950.182,58.594,66.406,50.781,61.523,74.219,0
1505808950.186,53.223,74.219,48.340,69.336,71.777,0
1505808950.190,49.805,50.781,27.832,56.152,55.176,0
1505808950.194,44.434,55.176,18.066,56.641,81.543,0
1505808950.198,45.410,67.383,36.621,55.664,84.961,0
1505808950.202,50.781,28.320,40.527,43.457,51.758,0
1505808950.206,52.734,9.277,43.945,45.410,56.152,0
1505808950.210,47.363,49.316,50.781,44.434,56.641,0
1505808950.213,54.199,55.664,54.199,47.363,69.336,0
1505808950.217,49.316,47.363,53.223,45.410,79.590,0
1505808950.221,42.969,47.363,54.199,44.922,73.242,0
1505808950.225,57.129,59.082,53.223,59.082,49.316,0
1505808950.229,45.410,50.293,39.062,55.664,83.008,0
1505808950.233,23.438,30.273,44.434,48.828,98.633,0
1505808950.237,18.555,24.902,55.176,49.316,62.012,0
1505808950.241,10.254,32.227,60.059,47.363,72.266,0
1505808950.245,-9.766,24.902,38.574,28.320,78.125,0
1505808950.249,-13.184,23.926,16.602,22.949,32.715,0
1505808950.252,2.441,46.387,38.086,42.480,17.090,0
1505808950.256,0.000,38.086,55.664,43.457,52.734,0
1505808950.260,11.230,23.926,61.035,49.805,60.547,0
1505808950.264,25.391,23.438,61.523,55.664,40.039,0
1505808950.268,22.949,26.367,47.363,55.664,41.992,0
1505808950.272,25.391,38.086,54.688,59.082,62.988,0
1505808950.276,17.090,38.574,46.875,47.363,76.172,0
1505808950.280,23.926,42.969,34.668,46.875,65.430,0
1505808950.284,37.598,49.316,40.039,55.176,40.039,0
1505808950.288,26.855,33.691,20.996,57.617,37.109,0
1505808950.292,39.551,14.160,25.391,66.895,57.129,0
1505808950.295,53.711,30.762,38.086,72.266,65.918,0
1505808950.299,43.457,42.480,20.508,66.406,59.570,0
1505808950.303,44.922,33.691,16.113,56.152,40.039,0
1505808950.307,23.438,49.316,18.555,39.551,59.082,0
1505808950.311,22.461,62.500,29.297,44.922,57.617,0
1505808950.315,48.828,74.707,50.781,67.871,31.250,0
1505808950.319,36.133,63.477,33.691,51.270,55.176,0
1505808950.323,13.184,31.738,17.578,34.180,69.824,0
1505808950.327,19.043,24.902,32.715,47.852,90.820,0
1505808950.331,31.250,35.156,54.688,59.082,106.934,0
1505808950.335,21.973,35.156,42.480,41.992,77.637,0
1505808950.338,15.625,30.273,20.020,32.715,79.590,0
1505808950.342,28.320,23.926,20.508,54.199,92.773,0
1505808950.346,24.902,35.156,23.926,44.434,73.730,0
1505808950.350,29.297,49.316,29.297,41.504,73.242,0
1505808950.354,41.016,32.715,37.109,55.176,86.426,0
1505808950.358,54.199,51.270,55.664,69.336,75.684,0
1505808950.362,50.293,59.082,47.363,49.316,69.824,0
1505808950.366,16.113,37.109,28.320,18.066,83.984,0
1505808950.370,16.602,53.223,44.922,29.297,65.918,0
1505808950.374,26.367,57.617,49.316,39.551,48.340,0
1505808950.377,21.484,42.480,34.668,32.715,71.777,0
1505808950.381,6.836,9.277,28.320,15.625,62.012,0
1505808950.385,0.000,13.184,11.230,20.020,64.453,0
1505808950.389,4.395,48.828,-0.488,35.645,70.312,0
1505808950.393,13.672,27.344,33.203,39.062,49.805,0
1505808950.397,13.184,25.391,57.129,35.645,55.664,0
1505808950.401,8.301,44.434,58.105,41.504,39.062,0
1505808950.405,10.254,37.109,56.152,58.594,40.039,0
1505808950.409,4.395,26.367,44.434,56.152,63.965,0
1505808950.413,8.301,45.898,44.434,48.828,69.336,0
1505808950.417,13.184,51.758,56.641,52.734,78.613,0
1505808950.420,15.625,49.316,55.176,56.641,79.590,0
1505808950.424,-2.441,37.598,34.180,41.504,83.008,0
1505808950.428,-33.203,34.668,18.066,33.691,79.102,0
1505808950.432,-34.180,41.504,37.598,41.992,73.730,0
1505808950.436,-25.879,37.109,33.691,36.133,64.941,0
1505808950.440,-35.156,23.438,-2.441,30.273,65.918,0
1505808950.444,-26.367,21.973,2.441,31.738,47.852,0
1505808950.448,-0.488,42.480,30.762,37.109,28.809,0
1505808950.452,1.465,49.316,40.039,42.480,63.965,0
1505808950.456,-9.766,50.781,48.340,35.156,71.777,0
1505808950.460,-5.371,63.965,49.316,28.320,47.852,0
1505808950.463,3.906,69.336,50.781,32.227,31.250,0
1505808950.467,-8.301,65.430,51.270,28.809,38.574,0
1505808950.471,-19.043,59.082,38.574,13.184,43.457,0
1505808950.475,-6.348,68.359,36.133,4.395,63.477,0
1505808950.479,13.184,87.891,44.922,1.465,96.191,0
1505808950.483,-3.906,85.938,35.156,-18.555,69.336,0
1505808950.487,-43.457,61.035,29.297,-43.457,64.453,0
1505808950.491,-29.785,70.312,41.992,-20.508,75.684,0
1505808950.495,-20.020,93.750,51.758,-2.930,72.266,0
1505808950.499,-32.715,58.105,28.320,-23.438,84.473,0
1505808950.502,-57.617,62.012,16.113,-47.852,78.125,0
1505808950.506,-74.219,93.262,26.367,-59.082,79.102,0
1505808950.510,-52.246,119.141,36.133,-41.504,89.355,0
1505808950.514,-57.129,120.605,41.016,-45.898,71.289,0
1505808950.518,-82.520,76.660,34.668,-67.383,72.266,0
1505808950.522,-69.824,52.246,30.273,-56.152,84.961,0
1505808950.526,-45.898,59.570,48.340,-41.016,72.266,0
1505808950.530,-36.133,72.754,61.523,-24.902,53.223,0
1505808950.534,-23.926,56.641,37.598,-18.555,72.754,0
1505808950.538,-6.836,38.574,35.156,-2.930,78.613,0
1505808950.542,-6.348,33.691,45.410,14.160,72.266,0
1505808950.545,-10.254,32.715,36.133,9.277,75.195,0
1505808950.549,-0.488,28.809,29.785,15.137,60.059,0
1505808950.553,6.836,36.133,38.086,24.902,73.242,0
1505808950.557,11.230,53.223,43.457,29.785,66.895,0
1505808950.561,6.348,35.156,29.297,24.414,61.035,0
1505808950.565,0.488,17.090,18.555,19.043,65.430,0
1505808950.569,14.648,46.875,29.297,30.762,55.664,0
1505808950.573,15.137,52.734,45.898,27.832,71.289,0
1505808950.577,3.906,30.273,42.480,4.395,68.359,0
1505808950.581,-4.395,25.879,28.320,6.348,63.477,0
1505808950.585,8.301,42.480,34.668,34.668,65.918,0
1505808950.588,22.461,59.082,37.109,32.715,80.078,0
1505808950.592,11.719,27.344,11.719,17.090,60.547,0
1505808950.596,10.254,3.906,2.930,32.227,51.758,0
1505808950.600,28.809,27.832,20.020,46.875,59.082,0
1505808950.604,47.363,47.852,18.066,51.270,52.246,0
1505808950.608,34.668,45.410,15.137,45.410,48.828,0
1505808950.612,34.668,32.227,31.738,42.480,51.270,0
1505808950.616,39.062,33.203,44.922,48.828,62.012,0
1505808950.620,27.832,41.504,37.109,54.199,48.828,0
1505808950.624,41.504,33.691,28.320,58.105,38.574,0
1505808950.627,61.035,22.461,41.992,65.430,68.359,0
1505808950.631,62.500,27.832,36.621,62.012,80.566,0
1505808950.635,66.895,32.715,22.949,60.059,73.242,0
1505808950.639,65.918,9.766,27.344,63.965,53.223,0
1505808950.643,65.918,20.020,23.438,62.012,42.969,0
1505808950.647,73.242,53.223,14.160,62.988,74.707,0
1505808950.651,73.242,55.176,15.625,52.246,81.543,0
1505808950.655,64.453,48.340,16.113,34.180,49.805,0
1505808950.659,68.359,53.711,25.879,47.852,65.918,0
1505808950.663,83.984,57.129,37.598,71.777,90.332,0
1505808950.667,79.590,42.969,23.926,66.406,67.383,0
1505808950.670,73.242,46.387,22.461,65.918,78.125,0
1505808950.674,91.309,57.129,29.785,76.660,81.055,0
1505808950.678,95.215,47.363,30.762,64.453,70.801,0
1505808950.682,86.426,34.668,20.996,56.152,79.102,0
1505808950.686,78.613,39.551,14.160,66.895,89.355,0
1505808950.690,68.359,47.852,12.207,75.195,75.195,0
1505808950.694,69.336,49.316,12.695,85.449,52.734,0
1505808950.698,64.453,34.180,16.602,77.637,73.242,0
1505808950.702,69.336,35.156,34.180,83.008,97.168,0
1505808950.706,78.613,49.316,38.574,96.680,97.656,0
1505808950.710,62.500,59.082,37.598,83.496,67.871,0
1505808950.713,42.969,58.594,38.086,73.242,55.664,0
1505808950.717,41.016,54.688,39.062,74.219,56.152,0
1505808950.721,44.922,51.270,36.133,68.848,66.406,0
1505808950.725,35.156,31.738,17.090,64.453,86.914,0
1505808950.729,31.250,14.160,19.531,67.383,94.238,0
1505808950.733,30.762,34.668,23.926,62.012,73.730,0
1505808950.737,33.691,52.734,4.395,60.547,37.109,0
1505808950.741,42.480,52.246,12.207,67.871,34.668,0
1505808950.745,47.363,71.289,41.504,76.172,69.336,0
1505808950.749,58.105,82.031,52.246,90.820,76.660,0
1505808950.752,56.641,64.453,32.227,88.379,81.543,0
1505808950.756,44.922,58.105,19.043,66.895,71.777,0
1505808950.760,33.691,54.688,22.461,52.734,45.898,0
1505808950.764,34.668,44.434,17.090,50.781,56.152,0
1505808950.768,39.062,45.898,16.113,47.852,47.852,0
1505808950.772,50.781,51.758,36.133,58.105,41.016,0
1505808950.776,64.941,51.270,43.457,63.477,47.363,0
1505808950.780,73.242,46.387,24.414,66.895,66.406,0
1505808950.784,62.988,43.457,23.926,73.242,65.430,0
1505808950.788,48.340,46.387,25.391,58.594,56.152,0
1505808950.792,64.453,64.941,17.090,61.523,75.195,0
1505808950.795,76.172,62.500,34.668,79.590,73.730,0
1505808950.799,68.359,43.457,28.809,69.824,83.496,0
1505808950.803,56.152,43.457,-11.230,53.711,76.660,0
1505808950.807,63.477,54.199,11.230,71.777,60.547,0
1505808950.811,71.289,76.172,44.922,85.449,88.867,0
1505808950.815,81.055,72.266,46.387,89.355,76.660,0
1505808950.819,78.613,52.734,36.621,80.078,50.781,0
1505808950.823,77.148,74.707,33.691,83.496,56.641,0
1505808950.827,79.102,78.125,35.645,93.750,57.129,0
1505808950.831,64.941,62.500,33.203,87.402,47.852,0
1505808950.835,52.734,61.523,43.457,85.449,42.969,0
1505808950.838,45.410,64.941,55.664,74.219,50.293,0
1505808950.842,44.922,51.758,44.922,68.848,97.656,0
1505808950.846,37.109,42.969,43.945,70.312,95.703,0
1505808950.850,20.508,50.293,63.477,65.918,46.387,0
1505808950.854,2.441,30.762,63.965,53.711,48.828,0
1505808950.858,-3.906,15.137,54.688,42.480,57.617,0
1505808950.862,0.488,5.371,59.570,43.945,37.598,0
1505808950.866,-4.883,23.438,58.105,38.574,50.781,0
1505808950.870,-12.695,36.133,43.945,28.320,76.172,0
1505808950.874,-20.020,33.691,41.016,21.973,45.898,0
1505808950.877,-18.066,53.711,47.852,20.996,42.969,0
1505808950.881,-1.953,70.312,65.430,30.762,60.059,0
1505808950.885,23.438,72.754,72.266,50.781,66.406,0
1505808950.889,7.324,55.664,44.922,28.320,83.984,0
1505808950.893,3.906,59.570,44.434,20.020,55.664,0
1505808950.897,30.273,57.617,54.199,51.758,31.738,0
1505808950.901,24.414,58.105,52.734,57.129,72.266,0
1505808950.905,19.043,37.109,51.758,49.316,89.355,0
1505808950.909,25.879,27.344,39.551,48.828,61.035,0
1505808950.913,50.293,59.082,46.875,69.336,44.434,0
1505808950.917,62.500,64.941,57.129,74.707,50.293,0
1505808950.920,54.199,59.570,55.176,64.453,55.176,0
1505808950.924,52.734,68.359,44.922,70.312,37.109,0
1505808950.928,63.477,78.613,39.062,78.125,39.551,0
1505808950.932,64.453,72.266,42.480,71.289,43.945,0
1505808950.936,60.059,54.688,39.062,63.477,42.969,0
1505808950.940,61.035,46.875,37.109,69.336,53.223,0
1505808950.944,58.594,54.199,53.711,77.637,43.945,0
1505808950.948,63.477,46.387,63.477,81.543,50.781,0
1505808950.952,52.734,26.367,44.922,68.359,65.430,0
1505808950.956,25.391,23.926,25.391,45.410,35.645,0
1505808950.960,16.602,42.969,27.344,40.527,28.320,0
1505808950.963,31.738,52.246,49.805,45.410,52.734,0
1505808950.967,23.438,37.598,40.039,37.109,55.664,0
1505808950.971,20.020,34.668,38.086,41.504,50.781,0
1505808950.975,42.480,47.363,61.035,59.082,52.734,0
1505808950.979,36.133,26.367,64.941,63.477,88.867,0
1505808950.983,18.066,21.973,60.547,54.688,66.406,0
1505808950.987,20.508,38.086,53.711,49.805,36.621,0
1505808950.991,28.320,25.391,39.551,50.781,72.754,0
1505808950.995,8.789,28.809,32.227,47.852,91.309,0
1505808950.999,-3.418,43.457,47.363,44.434,62.012,0
1505808951.002,13.672,63.965,60.059,57.617,46.387,0
1505808951.006,6.836,53.711,48.828,57.617,68.848,0
1505808951.010,-5.859,26.855,38.574,43.457,81.543,0
1505808951.014,-9.766,28.809,33.203,33.203,67.871,0
1505808951.018,-15.625,28.320,31.738,24.902,52.734,0
1505808951.022,-26.367,16.113,23.438,17.090,64.453,0
1505808951.026,-33.203,4.883,7.812,6.348,74.219,0
1505808951.030,-23.926,18.555,8.301,6.836,55.664,0
1505808951.034,7.324,21.973,17.578,27.344,54.199,0
1505808951.038,33.691,32.715,20.020,39.551,88.379,0
1505808951.042,36.133,51.758,22.461,33.691,89.844,0
1505808951.045,24.902,50.781,14.160,28.320,101.562,0
1505808951.049,37.598,67.383,28.809,40.039,104.980,0
1505808951.053,50.781,71.777,35.645,33.203,81.055,0
1505808951.057,46.875,62.988,13.184,22.461,77.637,0
1505808951.061,50.293,65.918,12.695,32.227,74.707,0
1505808951.065,62.500,55.176,36.621,43.457,58.594,0
1505808951.069,55.664,32.227,41.504,42.969,80.078,0
1505808951.073,40.039,51.758,23.926,24.902,86.426,0
1505808951.077,48.340,36.621,27.832,22.461,62.012,0
1505808951.081,59.082,14.160,22.949,33.203,107.910,0
1505808951.085,55.664,50.781,12.695,34.668,96.191,0
1505808951.088,51.270,50.781,23.926,30.273,49.316,0
1505808951.092,61.035,42.969,23.438,34.668,53.223,0
1505808951.096,51.270,52.734,18.555,35.156,53.711,0
1505808951.100,41.504,41.992,20.996,31.250,71.289,0
1505808951.104,43.945,24.414,9.277,30.273,84.961,0
1505808951.108,45.410,21.973,3.418,39.062,91.797,0
1505808951.112,29.785,24.902,17.578,41.016,86.426,0
1505808951.116,18.066,37.109,26.855,36.621,79.102,0
1505808951.120,26.855,28.320,20.020,40.039,68.848,0
1505808951.124,45.898,18.555,39.551,62.988,51.758,0
1505808951.127,45.410,36.621,54.688,69.824,46.875,0
1505808951.131,32.227,29.297,48.828,65.918,68.848,0
1505808951.135,37.598,5.859,50.781,68.848,80.566,0
1505808951.139,37.598,28.320,46.875,68.359,48.340,0
1505808951.143,16.602,51.270,38.086,60.059,40.527,0
1505808951.147,-0.977,22.461,26.367,37.598,74.707,0
1505808951.151,3.906,22.949,21.484,28.320,70.312,0
1505808951.155,-3.418,29.785,23.438,21.973,84.961,0
1505808951.159,0.977,39.551,27.344,18.555,92.773,0
1505808951.163,17.090,50.293,33.691,28.320,49.805,0
1505808951.167,14.648,51.270,51.758,37.598,24.414,0
1505808951.170,9.277,54.199,56.152,23.438,29.297,0
1505808951.174,6.836,47.363,41.016,18.066,38.086,0
1505808951.178,12.695,31.250,36.133,34.180,46.387,0
1505808951.182,25.391,31.250,24.902,35.645,46.875,0
1505808951.186,41.992,39.551,20.020,42.480,40.527,0
1505808951.190,45.410,41.504,28.809,44.922,51.270,0
1505808951.194,44.922,44.922,30.762,46.875,48.828,0
1505808951.198,53.711,59.082,47.852,53.711,35.645,0
1505808951.202,58.105,66.406,46.875,54.688,28.809,0
1505808951.206,57.617,42.969,43.457,55.176,35.645,0
1505808951.210,61.035,35.156,38.574,54.688,39.062,0
1505808951.213,67.383,60.059,35.156,57.617,32.227,0
1505808951.217,68.848,66.406,35.156,58.105,33.203,0
1505808951.221,49.316,32.715,11.719,48.828,37.598,0
1505808951.225,29.785,19.043,11.719,47.852,41.504,0
1505808951.229,45.410,39.551,43.945,59.082,45.898,0
1505808951.233,43.945,41.992,42.969,45.898,68.848,0
1505808951.237,17.090,39.062,22.461,23.926,66.406,0
1505808951.241,21.973,50.781,14.160,32.227,54.199,0
1505808951.245,32.227,55.664,28.809,36.133,48.340,0
1505808951.249,29.785,27.832,50.781,25.391,36.133,0
1505808951.252,27.832,18.555,48.340,24.902,54.688,0
1505808951.256,21.484,27.344,35.645,23.926,68.359,0
1505808951.260,16.113,32.715,23.926,26.367,77.637,0
1505808951.264,10.742,31.250,30.273,27.344,87.402,0
1505808951.268,-0.488,19.043,47.363,24.414,79.102,0
1505808951.272,-2.441,13.184,48.828,21.973,80.566,0
1505808951.276,-0.488,15.137,45.410,30.273,108.887,0
1505808951.280,-8.301,21.484,43.945,34.668,112.305,0
1505808951.284,-24.414,10.742,35.645,23.926,89.844,0
1505808951.288,-15.625,48.340,45.898,36.621,93.262,0
1505808951.292,-1.465,72.754,50.781,50.781,79.590,0
1505808951.295,-15.137,42.480,40.527,36.133,78.613,0
1505808951.299,-19.043,20.020,29.297,26.855,67.383,0
1505808951.303,-9.766,21.973,41.992,43.457,82.520,0
1505808951.307,0.977,48.340,58.105,56.641,102.051,0
1505808951.311,-16.602,37.598,24.414,44.434,86.426,0
1505808951.315,-3.418,8.789,22.949,49.805,82.520,0
1505808951.319,28.809,24.414,58.105,74.707,83.984,0
1505808951.323,25.391,43.945,45.898,70.801,104.004,0
1505808951.327,27.832,61.523,24.414,60.059,96.191,0
1505808951.331,58.594,65.918,36.621,75.195,70.312,0
1505808951.335,51.758,50.781,41.016,71.777,74.707,0
1505808951.338,43.945,60.059,34.180,58.594,81.543,0
1505808951.342,45.898,46.387,20.020,48.828,75.195,0
1505808951.346,48.340,28.809,21.973,47.363,48.340,0
1505808951.350,51.270,38.574,33.203,51.758,46.387,0
1505808951.354,31.738,43.457,15.625,45.898,77.637,0
1505808951.358,18.555,30.762,5.371,41.504,67.383,0
1505808951.362,32.715,45.410,31.738,53.711,50.781,0
1505808951.366,37.109,55.664,37.109,56.152,63.477,0
1505808951.370,40.527,44.922,38.086,49.316,68.848,0
1505808951.374,33.691,24.902,25.391,32.227,35.645,0
1505808951.377,41.992,40.527,26.367,48.340,11.230,0
1505808951.381,41.016,62.988,41.992,50.293,21.973,0
1505808951.385,16.113,66.895,39.062,28.809,45.410,0
1505808951.389,17.090,72.754,49.316,44.922,68.359,0
1505808951.393,22.949,55.664,45.410,56.152,47.852,0
1505808951.397,32.227,53.711,44.434,56.152,48.340,0
1505808951.401,17.090,47.852,41.992,48.340,53.711,0
1505808951.405,-9.766,20.508,32.227,34.180,56.152,0
1505808951.409,-12.695,41.504,34.180,29.297,65.430,0
1505808951.413,-11.230,49.316,53.711,35.645,23.438,0
1505808951.417,-22.949,21.484,38.574,22.461,31.250,0
1505808951.420,-13.672,31.250,21.484,35.156,60.547,0
1505808951.424,-5.859,30.273,28.809,49.316,62.012,0
1505808951.428,7.812,53.223,37.598,50.781,69.824,0
1505808951.432,-6.348,30.762,31.738,40.527,60.059,0
1505808951.436,-13.672,4.395,20.996,39.551,49.805,0
1505808951.440,-1.953,49.805,29.297,44.434,45.410,0
1505808951.444,-24.902,49.805,38.086,20.996,55.664,0
1505808951.448,-40.527,25.391,25.879,5.371,65.918,0
1505808951.452,-25.879,41.504,32.715,20.996,73.730,0
1505808951.456,-8.301,72.266,56.152,31.738,54.199,0
1505808951.460,-7.812,75.684,45.898,21.484,38.574,0
1505808951.463,-11.719,56.152,34.180,20.508,64.453,0
1505808951.467,-2.930,39.062,37.598,22.461,64.453,0
1505808951.471,-2.441,39.062,38.574,17.090,55.664,0
1505808951.475,5.859,46.875,32.227,21.973,75.195,0
1505808951.479,32.227,47.363,28.809,30.273,93.750,0
1505808951.483,40.039,51.270,43.457,38.086,78.613,0
1505808951.487,33.203,42.480,45.410,36.133,64.941,0
1505808951.491,29.297,37.109,28.809,27.832,61.035,0
1505808951.495,33.203,22.949,19.043,32.227,86.426,0
1505808951.499,44.922,39.062,28.809,53.711,94.727,0
1505808951.502,40.039,62.988,20.020,41.016,53.711,0
1505808951.506,34.668,36.621,8.301,17.578,47.363,0
1505808951.510,48.828,39.062,31.250,26.367,76.660,0
1505808951.514,54.688,78.125,37.598,41.504,86.914,0
1505808951.518,44.922,45.898,20.020,39.551,61.523,0
1505808951.522,37.109,13.672,22.461,31.250,73.242,0
1505808951.526,37.109,46.387,34.668,39.062,87.402,0
1505808951.530,46.387,66.406,50.781,47.852,81.055,0
1505808951.534,48.828,57.129,53.711,49.805,64.941,0
1505808951.538,42.480,35.156,33.203,53.223,72.754,0
1505808951.542,48.340,42.480,30.273,56.152,89.355,0
1505808951.545,51.270,53.711,45.410,57.129,43.457,0
1505808951.549,43.457,32.715,46.875,52.246,42.480,0
1505808951.553,43.945,29.785,35.645,49.316,81.543,0
1505808951.557,52.734,61.035,49.805,64.453,67.383,0
1505808951.561,38.574,47.363,59.082,68.848,72.266,0
1505808951.565,20.996,15.625,30.762,45.410,85.938,0
1505808951.569,-0.977,20.508,17.090,23.926,98.633,0
1505808951.573,6.348,40.039,40.527,34.180,98.633,0
1505808951.577,21.973,52.246,34.180,38.086,69.824,0
1505808951.581,17.090,40.527,25.391,36.133,49.805,0
1505808951.585,20.020,28.809,28.809,38.086,78.613,0
1505808951.588,27.832,25.879,36.621,42.480,108.887,0
1505808951.592,28.809,41.504,32.227,46.387,35.645,0
1505808951.596,29.785,44.434,15.625,31.738,20.020,0
1505808951.600,31.738,33.203,21.484,37.109,75.684,0
1505808951.604,34.668,42.969,20.020,44.434,62.012,0
1505808951.608,41.016,54.199,33.203,46.387,69.336,0
1505808951.612,31.738,31.250,35.156,31.250,84.961,0
1505808951.616,42.969,29.297,30.762,40.527,85.449,0
1505808951.620,50.293,40.527,29.785,49.316,74.707,0
1505808951.624,38.086,32.227,9.277,35.645,50.781,0
1505808951.627,61.035,32.715,31.250,54.199,65.430,0
1505808951.631,80.566,47.852,60.547,70.801,91.309,0
1505808951.635,76.660,78.613,49.316,75.684,65.918,0
1505808951.639,50.781,69.824,44.434,66.406,25.879,0
1505808951.643,35.156,50.781,41.992,53.223,70.312,0
1505808951.647,52.246,64.941,38.574,64.941,81.543,0
1505808951.651,48.828,65.918,38.574,70.312,56.641,0
1505808951.655,41.504,57.129,56.152,64.453,61.035,0
1505808951.659,49.805,39.062,50.293,70.801,64.453,0
1505808951.663,65.430,38.574,38.574,79.590,43.945,0
1505808951.667,59.570,34.668,23.438,69.336,42.480,0
1505808951.670,47.852,36.621,26.367,68.359,56.152,0
1505808951.674,56.152,58.594,43.945,68.848,71.289,0
1505808951.678,55.176,53.711,50.293,59.570,104.004,0
1505808951.682,45.410,44.922,59.570,59.570,93.750,0
1505808951.686,20.508,39.062,51.758,42.480,72.754,0
1505808951.690,20.996,70.312,54.199,39.062,83.496,0
1505808951.694,38.086,73.242,49.316,53.223,47.852,0
1505808951.698,40.527,36.133,47.363,59.082,18.555,0
1505808951.702,22.949,35.645,40.527,40.039,33.203,0
1505808951.706,28.809,47.363,32.715,38.574,51.270,0
1505808951.710,41.992,64.941,34.668,47.363,62.500,0
1505808951.713,42.480,59.082,43.457,48.828,59.082,0
1505808951.717,41.016,35.645,31.738,47.363,65.918,0
1505808951.721,38.086,44.922,20.508,40.039,82.031,0
1505808951.725,42.480,53.711,45.898,46.875,103.027,0
1505808951.729,26.855,47.363,33.203,43.457,108.887,0
1505808951.733,25.879,38.574,40.039,37.109,83.008,0
1505808951.737,13.672,11.230,50.781,21.484,87.402,0
1505808951.741,26.367,19.043,47.852,32.227,57.617,0
1505808951.745,31.738,44.434,41.016,33.203,42.480,0
1505808951.749,4.395,47.363,31.738,19.531,90.332,0
1505808951.752,22.461,48.828,44.922,46.387,87.402,0
1505808951.756,40.039,45.898,40.039,50.781,52.246,0
1505808951.760,50.781,54.688,40.039,50.781,48.828,0
1505808951.764,52.246,68.848,41.504,59.570,68.848,0
1505808951.768,66.406,82.520,49.316,73.242,75.684,0
1505808951.772,67.871,74.219,41.016,75.684,83.984,0
1505808951.776,58.105,52.246,26.367,61.523,99.609,0
1505808951.780,65.918,47.363,29.785,73.242,100.586,0
1505808951.784,67.871,62.500,43.945,83.496,68.848,0
1505808951.788,67.871,69.824,51.270,80.078,56.641,0
1505808951.792,55.176,47.852,42.480,74.707,61.523,0
1505808951.795,52.246,39.551,20.996,65.430,55.176,0
1505808951.799,56.152,62.012,20.020,54.199,59.082,0
1505808951.803,41.504,62.500,34.668,40.039,63.965,0
1505808951.807,19.531,34.668,20.996,32.227,62.988,0
1505808951.811,19.043,30.273,7.324,29.297,66.895,0
1505808951.815,32.715,23.438,12.695,34.180,66.406,0
1505808951.819,30.273,11.230,21.973,34.180,40.527,0
1505808951.823,12.207,21.973,21.973,28.809,64.941,0
1505808951.827,-1.465,22.949,16.113,14.648,90.820,0
1505808951.831,9.277,42.969,-3.906,16.602,60.059,0
1505808951.835,16.602,46.387,-1.465,28.809,46.875,0
1505808951.838,-27.344,31.250,3.906,-3.906,97.168,0
1505808951.842,-30.273,41.016,19.531,-3.418,97.168,0
1505808951.846,0.977,60.059,24.902,15.625,91.797,0
1505808951.850,11.719,57.617,27.344,11.230,97.656,0
1505808951.854,9.277,30.273,35.156,0.488,97.656,0
1505808951.858,12.695,32.227,41.992,16.602,101.562,0
1505808951.862,18.066,21.973,49.316,30.273,64.453,0
1505808951.866,12.695,11.230,48.828,25.879,73.730,0
1505808951.870,2.930,22.949,42.969,20.996,97.656,0
1505808951.874,5.859,40.039,46.387,23.438,94.238,0
1505808951.877,18.066,67.383,53.711,29.297,70.312,0
1505808951.881,-0.488,46.875,25.391,13.184,62.500,0
1505808951.885,-1.465,36.621,15.625,14.648,100.586,0
1505808951.889,6.348,35.156,49.805,31.738,79.590,0
1505808951.893,4.883,30.273,57.129,39.062,64.941,0
1505808951.897,0.977,44.434,37.109,32.227,85.938,0
1505808951.901,4.883,22.949,48.828,39.551,70.801,0
1505808951.905,2.441,10.254,58.105,48.340,53.711,0
1505808951.909,-4.883,55.664,69.336,51.270,81.543,0
1505808951.913,0.977,71.289,67.871,54.199,102.051,0
1505808951.917,3.906,57.129,41.992,52.246,110.352,0
1505808951.920,2.930,44.922,33.691,48.828,89.844,0
1505808951.924,-2.441,9.766,25.391,35.156,44.434,0
1505808951.928,-6.836,10.742,16.113,34.668,86.426,0
1505808951.932,3.418,50.293,27.344,55.176,78.613,0
1505808951.936,17.090,47.363,28.320,57.129,48.828,0
1505808951.940,6.348,21.973,3.418,41.504,81.055,0
1505808951.944,11.230,17.578,17.090,43.945,53.711,0
1505808951.948,28.809,37.598,51.270,55.664,44.434,0
1505808951.952,25.391,50.293,52.246,57.129,54.688,0
1505808951.956,21.484,52.734,34.180,40.527,50.293,0
1505808951.960,27.344,49.805,33.203,42.480,107.910,0
1505808951.963,24.902,55.664,42.480,48.828,88.867,0
1505808951.967,7.812,59.570,42.480,40.527,20.996,0
1505808951.971,-7.812,42.480,29.297,39.551,67.871,0
1505808951.975,-13.672,28.320,32.715,39.062,84.473,0
1505808951.979,-12.695,17.578,48.828,37.598,41.504,0
1505808951.983,-7.324,0.977,31.738,35.645,56.641,0
1505808951.987,-22.949,19.043,24.902,20.020,77.148,0
1505808951.991,-13.184,69.336,56.641,39.551,64.941,0
1505808951.995,7.812,71.777,50.293,49.316,41.504,0
1505808951.999,8.789,44.434,35.645,38.574,41.504,0
1505808952.002,-2.930,16.602,37.109,28.320,55.664,0
1505808952.006,-6.836,34.668,37.598,20.996,96.680,0
1505808952.010,11.719,55.664,28.320,32.715,72.754,0
1505808952.014,11.230,47.363,28.809,25.391,39.551,0
1505808952.018,-8.301,25.391,53.223,20.020,57.617,0
1505808952.022,-19.043,11.719,40.039,27.832,60.547,0
1505808952.026,-7.324,41.992,30.273,35.156,62.988,0
1505808952.030,1.465,62.012,62.988,46.875,65.918,0
1505808952.034,-4.883,33.691,66.895,50.293,73.242,0
1505808952.038,2.441,32.715,65.430,55.176,60.547,0
1505808952.042,12.207,26.367,61.035,68.848,55.176,0
1505808952.045,15.137,29.785,55.664,77.148,60.059,0
1505808952.049,25.391,51.270,57.129,70.312,57.617,0
1505808952.053,34.668,62.988,58.594,70.312,71.289,0
1505808952.057,31.250,75.684,64.453,76.172,61.523,0
1505808952.061,11.719,32.715,45.410,51.270,30.273,0
1505808952.065,-11.230,23.926,17.090,23.926,65.918,0
1505808952.069,6.836,58.594,43.457,31.738,57.129,0
1505808952.073,7.812,41.504,58.594,27.344,16.113,0
1505808952.077,-11.230,35.645,36.621,27.832,37.598,0
1505808952.081,19.531,78.125,64.941,59.082,52.734,0
1505808952.085,19.043,79.102,60.547,64.453,55.176,0
1505808952.088,2.441,55.664,30.273,55.664,73.242,0
1505808952.092,1.465,37.598,33.691,48.828,70.312,0
1505808952.096,20.508,42.969,37.598,59.082,48.828,0
1505808952.100,43.945,75.684,49.805,83.008,71.777,0
1505808952.104,37.109,50.293,41.504,78.125,74.219,0
1505808952.108,31.738,22.949,32.227,74.707,44.922,0
1505808952.112,56.641,72.266,59.570,93.750,83.008,0
1505808952.116,45.410,81.055,61.523,86.426,48.828,0
1505808952.120,22.949,56.641,41.504,71.289,12.207,0
1505808952.124,22.949,59.082,16.113,63.965,59.570,0
1505808952.127,23.438,63.477,15.137,65.918,61.035,0
1505808952.131,21.484,43.457,40.039,66.406,22.949,0
1505808952.135,-12.695,15.625,21.973,38.574,44.922,0
1505808952.139,-8.301,15.625,22.461,29.785,67.383,0
1505808952.143,4.883,20.508,41.992,32.715,69.336,0
1505808952.147,11.230,29.785,47.852,38.086,72.754,0
1505808952.151,9.766,57.129,37.109,37.109,84.473,0
1505808952.155,2.930,74.707,33.691,30.762,95.215,0
1505808952.159,23.438,80.566,48.340,39.551,49.805,0
1505808952.163,28.320,51.758,39.062,38.574,19.531,0
1505808952.167,12.695,37.109,26.367,21.973,41.016,0
1505808952.170,2.930,41.504,31.250,21.973,55.176,0
1505808952.174,9.766,43.945,30.762,46.875,38.574,0
1505808952.178,0.000,37.598,24.414,47.852,26.367,0
1505808952.182,-5.859,27.344,20.508,32.715,66.406,0
1505808952.186,17.090,41.992,47.852,41.504,72.754,0
1505808952.190,20.996,55.176,59.082,42.969,48.828,0
1505808952.194,13.184,49.316,52.734,37.598,59.082,0
1505808952.198,3.906,14.160,50.293,31.738,79.102,0
1505808952.202,-2.930,7.324,35.156,26.367,71.777,0
1505808952.206,8.301,40.039,36.133,30.762,52.734,0
1505808952.210,19.043,35.156,54.688,31.250,64.941,0
1505808952.213,23.438,30.762,41.992,27.344,51.758,0
1505808952.217,34.668,36.621,38.574,34.180,36.621,0
1505808952.221,14.160,33.203,35.645,19.043,31.738,0
1505808952.225,-4.883,42.480,1.465,4.395,46.875,0
1505808952.229,20.020,46.875,1.465,23.926,74.707,0
1505808952.233,42.480,49.805,15.137,25.391,51.270,0
1505808952.237,55.176,68.359,15.625,25.879,42.480,0
1505808952.241,52.246,87.402,32.715,34.668,90.820,0
1505808952.245,43.945,82.520,35.156,34.668,114.746,0
1505808952.249,53.223,68.359,22.461,39.551,63.965,0
1505808952.252,52.246,44.922,15.625,33.203,19.531,0
1505808952.256,37.109,25.879,25.879,34.180,20.996,0
1505808952.260,41.992,34.668,31.738,51.758,46.387,0
1505808952.264,53.711,59.082,38.086,59.570,48.340,0
1505808952.268,55.664,50.293,30.273,63.477,63.477,0
1505808952.272,47.363,31.738,8.789,51.270,68.359,0
1505808952.276,53.223,58.105,31.738,57.129,30.762,0
1505808952.280,71.289,48.828,42.969,75.684,50.293,0
1505808952.284,57.129,34.668,34.668,71.777,65.430,0
1505808952.288,40.039,37.109,31.738,67.871,63.477,0
1505808952.292,35.645,16.113,27.344,60.547,98.145,0
1505808952.295,45.898,31.250,52.246,61.035,57.129,0
1505808952.299,32.715,27.344,62.500,51.758,55.176,0
1505808952.303,10.254,19.531,38.574,37.109,80.078,0
1505808952.307,21.973,39.062,27.832,45.898,55.176,0
1505808952.311,30.273,35.645,34.668,42.480,41.504,0
1505808952.315,22.949,40.039,43.945,28.809,42.480,0
1505808952.319,27.344,36.133,51.270,29.297,75.195,0
1505808952.323,46.387,35.156,50.781,45.410,113.281,0
1505808952.327,39.551,25.879,51.758,42.480,97.168,0
1505808952.331,18.555,18.555,49.316,26.855,68.848,0
1505808952.335,9.766,37.598,35.645,18.555,103.516,0
1505808952.338,19.043,39.062,29.785,31.738,94.238,0
1505808952.342,25.391,47.852,26.367,38.086,51.270,0
1505808952.346,15.625,46.875,16.602,14.648,68.848,0
1505808952.350,17.090,44.922,20.020,13.672,89.844,0
1505808952.354,38.574,55.664,41.992,26.855,69.336,0
1505808952.358,36.133,52.246,54.688,26.367,26.855,0
1505808952.362,24.902,39.551,30.273,25.391,36.133,0
1505808952.366,44.922,41.992,27.344,33.691,62.988,0
1505808952.370,37.598,42.969,26.367,22.461,40.527,0
1505808952.374,37.598,55.664,27.344,31.738,46.875,0
1505808952.377,65.918,75.684,37.109,52.246,44.922,0
1505808952.381,72.266,77.637,33.203,58.105,81.543,0
1505808952.385,72.754,72.754,41.016,67.383,112.793,0
1505808952.389,73.242,71.289,17.090,66.895,35.156,0
1505808952.393,66.895,94.727,-2.441,56.641,39.062,0
1505808952.397,56.152,113.770,20.508,45.898,67.383,0
1505808952.401,48.340,89.844,22.461,43.945,44.922,0
1505808952.405,40.527,70.312,22.949,40.039,51.758,0
1505808952.409,48.828,68.359,22.461,40.527,77.148,0
1505808952.413,54.199,71.777,20.996,46.387,84.473,0
1505808952.417,46.387,75.684,28.320,46.875,72.266,0
1505808952.420,32.715,69.336,21.484,45.898,44.922,0
1505808952.424,19.043,62.988,18.555,44.922,31.738,0
1505808952.428,32.715,53.711,41.016,53.711,84.473,0
1505808952.432,38.574,37.598,44.434,51.270,100.098,0
1505808952.436,2.441,41.504,22.949,22.949,55.664,0
1505808952.440,-7.324,65.918,20.020,11.230,55.176,0
1505808952.444,3.418,54.688,19.531,24.902,59.082,0
1505808952.448,-2.441,40.039,30.273,19.531,58.594,0
1505808952.452,-3.418,59.570,22.461,3.906,80.078,0
1505808952.456,-5.371,47.852,17.090,-3.418,108.887,0
1505808952.460,0.000,20.508,19.531,-4.395,94.238,0
1505808952.463,-2.441,22.949,17.578,-6.348,59.570,0
1505808952.467,-8.789,26.367,45.410,1.953,71.289,0
1505808952.471,13.672,50.781,69.824,20.508,72.266,0
1505808952.475,24.902,63.965,61.035,31.250,74.219,0
1505808952.479,1.465,30.762,41.992,20.996,106.934,0
1505808952.483,-3.906,29.785,34.668,13.672,89.844,0
1505808952.487,2.441,46.875,31.738,16.602,54.688,0
1505808952.491,11.719,46.875,37.598,20.996,46.875,0
1505808952.495,8.789,32.715,34.668,15.137,67.871,0
1505808952.499,-19.043,31.250,29.297,-4.883,96.191,0
1505808952.502,-10.742,55.664,42.480,6.836,99.609,0
1505808952.506,0.000,46.875,37.598,14.160,80.566,0
1505808952.510,1.953,41.992,40.527,6.836,20.996,0
1505808952.514,7.812,49.316,56.641,8.789,41.992,0
1505808952.518,7.324,53.223,64.453,20.996,60.059,0
1505808952.522,15.137,44.434,61.523,29.785,66.895,0
1505808952.526,25.391,22.461,39.062,31.250,72.754,0
1505808952.530,20.996,5.371,27.344,39.551,48.340,0
1505808952.534,38.574,35.645,55.176,62.500,45.410,0
1505808952.538,43.945,59.082,63.477,67.871,53.223,0
1505808952.542,32.715,43.945,44.434,58.594,58.105,0
1505808952.545,34.668,44.434,57.129,62.012,63.477,0
1505808952.549,47.852,60.059,76.172,72.266,36.133,0
1505808952.553,44.434,55.176,71.289,68.848,6.348,0
1505808952.557,24.902,32.227,60.547,57.617,38.086,0
1505808952.561,47.363,27.832,67.383,69.336,78.613,0
1505808952.565,47.363,36.621,71.289,67.383,63.965,0
1505808952.569,35.645,38.086,70.312,60.547,42.969,0
1505808952.573,40.527,36.133,80.566,53.223,59.570,0
1505808952.577,38.574,34.180,93.750,45.410,66.895,0
1505808952.581,33.203,22.949,86.914,49.316,22.461,0
1505808952.585,19.531,29.785,76.172,50.293,16.113,0
1505808952.588,16.602,34.180,78.613,42.969,60.547,0
1505808952.592,24.902,24.414,77.637,43.945,56.641,0
1505808952.596,37.598,34.668,65.430,55.664,31.250,0
1505808952.600,35.645,39.062,62.988,45.410,49.805,0
1505808952.604,33.203,23.438,70.801,40.039,62.012,0
1505808952.608,31.250,34.668,48.828,43.945,63.477,0
1505808952.612,35.156,53.711,61.523,42.969,56.152,0
1505808952.616,24.414,35.156,79.590,32.227,64.453,0
1505808952.620,13.184,32.227,71.289,26.367,77.148,0
1505808952.624,26.855,52.246,75.195,36.133,59.082,0
1505808952.627,28.320,38.574,73.730,35.645,17.578,0
1505808952.631,2.930,23.926,60.547,20.508,12.207,0
1505808952.635,-2.441,29.785,51.270,20.996,53.711,0
1505808952.639,0.977,29.785,56.152,29.785,41.992,0
1505808952.643,-14.160,21.484,39.551,28.320,48.828,0
1505808952.647,-3.418,32.715,36.133,40.039,56.152,0
1505808952.651,-1.465,29.297,53.711,41.016,53.223,0
1505808952.655,-1.953,28.320,64.453,46.875,41.992,0
1505808952.659,-8.301,26.855,75.684,51.270,-6.836,0
1505808952.663,-2.930,3.418,59.570,52.246,32.715,0
1505808952.667,10.742,22.949,56.641,64.941,76.172,0
1505808952.670,10.254,61.523,63.965,67.383,41.504,0
1505808952.674,16.602,74.219,62.988,59.570,53.711,0
1505808952.678,10.254,64.453,72.266,51.758,57.129,0
1505808952.682,16.602,56.152,58.594,48.828,57.129,0
1505808952.686,24.414,51.270,36.621,55.664,78.125,0
1505808952.690,29.297,36.133,50.781,58.105,62.988,0
1505808952.694,36.621,31.250,65.918,57.617,72.266,0
1505808952.698,71.289,69.336,72.266,84.961,82.031,0
1505808952.702,106.934,94.238,80.078,111.816,23.438,0
1505808952.706,82.031,56.152,52.734,88.867,26.855,0
1505808952.710,67.383,38.574,29.297,75.684,95.215,0
1505808952.713,105.469,61.035,46.387,104.004,113.281,0
1505808952.717,125.000,69.824,67.383,118.652,76.172,0
1505808952.721,106.934,61.035,43.457,111.328,68.359,0
1505808952.725,103.516,44.434,19.531,104.492,63.477,0
1505808952.729,106.445,59.082,37.109,105.469,37.598,0
1505808952.733,103.516,66.895,48.340,104.980,59.082,0
1505808952.737,103.027,69.336,52.246,108.398,74.707,0
1505808952.741,112.305,84.961,74.219,121.094,82.031,0
1505808952.745,126.465,75.684,81.055,131.348,53.711,0
1505808952.749,115.723,62.500,51.758,123.535,32.715,0
1505808952.752,97.168,52.246,41.504,113.770,52.246,0
1505808952.756,107.910,54.199,57.129,131.348,76.172,0
1505808952.760,106.934,48.828,61.035,138.672,90.820,0
1505808952.764,107.910,52.246,64.941,138.184,44.434,0
1505808952.768,111.328,45.410,70.312,130.371,57.129,0
1505808952.772,109.863,48.828,56.641,121.582,85.938,0
1505808952.776,118.164,56.152,56.641,130.859,56.641,0
1505808952.780,114.258,43.457,62.500,124.023,42.480,0
1505808952.784,108.887,35.645,47.363,111.816,81.543,0
1505808952.788,107.422,47.852,52.246,120.605,83.984,0
1505808952.792,76.172,53.223,54.688,97.656,55.176,0
1505808952.795,61.523,43.457,55.664,81.055,83.984,0
1505808952.799,75.195,44.434,56.152,93.262,96.191,0
1505808952.803,82.520,35.645,58.105,104.492,107.910,0
1505808952.807,78.125,37.598,55.176,103.027,88.867,0
1505808952.811,62.988,39.551,49.805,88.379,70.312,0
1505808952.815,57.129,40.039,50.781,86.914,106.934,0
1505808952.819,52.246,40.039,37.598,89.844,88.379,0
1505808952.823,59.082,34.668,54.199,91.797,65.918,0
1505808952.827,61.035,20.996,62.988,83.008,90.820,0
1505808952.831,67.383,27.832,54.688,88.379,101.562,0
1505808952.835,65.430,24.902,48.828,81.055,89.355,0
1505808952.838,45.898,43.457,33.203,60.547,80.078,0
1505808952.842,30.762,74.219,14.160,51.758,89.844,0
1505808952.846,26.855,59.082,25.391,46.875,86.914,0
1505808952.850,27.832,53.711,42.480,45.410,97.656,0
1505808952.854,28.809,53.711,47.363,32.227,122.559,0
1505808952.858,28.320,34.668,41.016,25.391,124.512,0
1505808952.862,32.715,42.969,35.645,29.785,107.422,0
1505808952.866,44.434,44.434,55.176,40.527,34.180,0
1505808952.870,32.715,27.832,41.016,29.785,37.109,0
1505808952.874,32.227,41.992,31.250,20.508,93.262,0
1505808952.877,37.109,52.734,39.062,33.203,98.633,0
1505808952.881,29.785,38.574,51.270,44.922,78.613,0
1505808952.885,19.531,19.531,43.945,39.062,84.473,0
1505808952.889,21.973,38.086,48.340,35.645,114.258,0
1505808952.893,27.344,62.988,62.012,42.480,116.211,0
1505808952.897,25.879,58.594,71.289,48.340,111.816,0
1505808952.901,20.996,55.664,66.406,43.945,125.488,0
1505808952.905,10.742,64.453,59.082,30.273,119.629,0
1505808952.909,16.602,76.172,68.359,38.086,98.145,0
1505808952.913,7.812,68.359,62.012,43.457,70.312,0
1505808952.917,-3.906,49.316,48.340,26.855,74.219,0
1505808952.920,8.789,66.406,49.316,31.250,111.328,0
1505808952.924,8.789,83.496,54.688,41.504,87.402,0
1505808952.928,1.465,73.730,35.645,37.598,48.340,0
1505808952.932,-14.648,54.688,14.648,15.625,73.242,0
1505808952.936,-27.344,47.363,19.531,7.812,78.613,0
1505808952.940,-27.832,50.293,16.113,6.836,65.430,0
1505808952.944,-23.926,63.477,32.227,7.324,83.496,0
1505808952.948,-15.625,64.941,48.828,20.996,66.406,0
1505808952.952,-23.926,62.012,49.316,18.555,58.594,0
1505808952.956,-20.020,63.965,55.176,18.555,41.992,0
1505808952.960,-15.137,58.594,46.387,20.996,23.926,0
1505808952.963,-18.066,24.902,41.504,22.461,51.270,0
1505808952.967,-1.953,5.859,37.598,34.668,87.891,0
1505808952.971,-3.418,19.043,30.762,25.391,86.914,0
1505808952.975,-10.742,45.898,30.273,22.949,82.520,0
1505808952.979,-1.953,42.480,16.113,29.785,85.449,0
1505808952.983,20.020,37.109,20.996,36.621,55.664,0
1505808952.987,22.949,50.781,22.461,40.527,37.109,0
1505808952.991,-0.488,41.992,14.160,21.973,71.777,0
1505808952.995,17.578,46.875,39.551,38.086,80.566,0
1505808952.999,50.781,72.266,67.383,75.195,39.551,0
1505808953.002,44.922,67.871,65.430,72.266,13.184,0
1505808953.006,22.461,29.297,49.805,41.504,21.973,0
1505808953.010,29.785,37.598,49.805,45.410,19.531,0
1505808953.014,37.598,78.125,52.246,55.176,36.133,0
1505808953.018,35.645,70.801,53.711,50.293,50.781,0
1505808953.022,23.438,63.965,44.434,45.410,41.504,0
1505808953.026,2.441,68.848,30.273,37.109,41.992,0
1505808953.030,-1.953,50.293,40.039,39.551,18.555,0
1505808953.034,16.602,52.734,43.945,45.410,23.926,0
1505808953.038,18.555,60.547,31.250,41.016,78.125,0
1505808953.042,7.812,66.406,39.551,37.109,109.863,0
1505808953.045,1.953,68.359,49.316,31.250,81.543,0
1505808953.049,-8.789,73.730,40.527,24.902,69.824,0
1505808953.053,-18.555,66.406,22.461,14.160,83.008,0
1505808953.057,-13.672,63.965,45.410,20.020,69.824,0
1505808953.061,9.766,91.797,72.266,43.457,41.992,0
1505808953.065,-3.906,56.641,42.480,22.461,24.902,0
1505808953.069,-14.160,35.156,36.133,12.207,48.828,0
1505808953.073,1.953,69.336,64.453,23.926,57.617,0
1505808953.077,-16.113,59.570,34.668,9.277,32.715,0
1505808953.081,-24.902,37.598,28.809,1.953,33.203,0
1505808953.085,-10.254,48.340,54.199,8.789,91.797,0
1505808953.088,-6.836,59.570,54.199,5.859,99.609,0
1505808953.092,-3.418,53.711,40.039,0.977,45.898,0
1505808953.096,-16.602,40.039,41.504,-11.230,69.824,0
1505808953.100,-22.461,47.363,47.852,-4.395,79.590,0
1505808953.104,0.977,56.152,40.527,18.555,62.988,0
1505808953.108,0.977,64.941,51.270,22.461,44.922,0
1505808953.112,0.977,45.410,54.688,18.066,64.941,0
1505808953.116,10.254,23.926,69.336,33.203,85.938,0
1505808953.120,25.391,29.297,80.078,53.223,82.031,0
1505808953.124,30.273,46.387,77.637,54.199,95.703,0
1505808953.127,30.762,58.594,68.359,58.105,96.191,0
1505808953.131,64.941,44.922,90.820,82.031,125.000,0
1505808953.135,77.148,38.574,92.773,88.867,99.121,0
1505808953.139,68.359,63.477,71.289,78.613,32.227,0
1505808953.143,79.590,75.684,66.895,85.449,45.898,0
1505808953.147,96.191,67.871,75.684,103.027,73.242,0
1505808953.151,96.680,58.105,79.102,99.121,61.523,0
1505808953.155,84.961,38.086,61.035,85.449,56.641,0
1505808953.159,97.168,33.203,49.805,92.285,83.008,0
1505808953.163,127.930,62.012,64.941,124.023,62.012,0
1505808953.167,127.441,74.219,76.172,121.094,54.688,0
1505808953.170,114.746,50.781,62.500,102.051,95.215,0
1505808953.174,112.793,30.273,60.059,113.281,85.938,0
1505808953.178,119.141,46.875,63.477,128.418,92.773,0
1505808953.182,119.141,64.453,65.918,124.023,101.562,0
1505808953.186,109.863,53.223,57.129,107.422,84.961,0
1505808953.190,91.797,43.457,51.270,86.426,108.398,0
1505808953.194,96.191,66.895,71.289,96.191,92.285,0
1505808953.198,88.867,64.453,73.242,99.609,51.270,0
1505808953.202,68.359,25.879,47.363,71.777,54.199,0
1505808953.206,84.473,34.668,44.434,82.520,63.477,0
1505808953.210,91.309,49.805,52.246,94.727,52.734,0
1505808953.213,72.754,29.297,56.641,86.914,62.988,0
1505808953.217,56.152,13.672,48.340,80.078,57.129,0
1505808953.221,74.219,32.227,63.477,99.609,33.691,0
1505808953.225,73.242,37.109,78.613,104.980,83.008,0
1505808953.229,59.082,26.367,61.523,94.238,113.281,0
1505808953.233,57.129,25.391,46.875,94.238,90.332,0
1505808953.237,49.805,31.250,42.969,86.426,71.777,0
1505808953.241,63.477,58.105,51.270,94.238,40.527,0
1505808953.245,53.711,59.082,42.969,84.961,42.480,0
1505808953.249,46.387,42.480,37.598,80.566,68.359,0
1505808953.252,58.105,46.387,71.777,94.238,59.570,0
1505808953.256,45.898,36.133,74.219,81.055,45.898,0
1505808953.260,34.668,35.156,58.594,74.219,32.227,0
1505808953.264,43.457,42.480,71.289,92.773,44.434,0
1505808953.268,63.965,55.664,75.195,105.469,59.570,0
1505808953.272,58.105,47.852,75.195,103.516,62.500,0
1505808953.276,31.738,24.414,58.105,80.566,76.172,0
1505808953.280,15.137,18.066,48.340,58.594,81.055,1
1505808953.284,9.277,38.574,60.547,59.570,64.453,0
1505808953.288,1.953,51.270,67.383,53.711,62.012,0
1505808953.292,-4.395,38.086,70.312,41.992,41.504,0
1505808953.295,-4.883,40.527,64.453,46.875,36.133,0
1505808953.299,-3.906,56.641,55.176,48.340,41.504,0
1505808953.303,6.836,59.570,62.500,48.828,10.742,0
1505808953.307,-3.418,43.457,56.152,35.645,34.668,0
1505808953.311,-9.766,45.898,44.922,23.438,52.734,0
1505808953.315,5.859,51.270,55.176,38.086,35.645,0
1505808953.319,8.789,38.086,55.176,48.828,37.598,0
1505808953.323,1.953,32.715,43.945,41.016,74.707,0
1505808953.327,21.973,57.617,47.852,47.852,68.359,0
1505808953.331,29.297,86.914,53.711,55.176,35.645,0
1505808953.335,18.066,83.496,46.875,37.109,29.785,0
1505808953.338,24.902,72.266,35.645,35.156,51.270,0
1505808953.342,21.484,50.293,36.621,40.039,74.219,0
1505808953.346,20.996,60.059,42.969,39.062,35.156,0
1505808953.350,9.277,49.316,16.113,31.738,19.043,0
1505808953.354,2.441,42.480,4.395,27.832,65.918,0
1505808953.358,15.137,74.707,26.367,41.504,75.684,0
1505808953.362,19.531,76.172,27.344,44.434,46.875,0
1505808953.366,22.949,67.383,22.461,44.434,55.176,0
1505808953.370,19.043,64.453,18.555,42.480,47.363,0
1505808953.374,2.930,40.527,28.320,38.574,43.457,0
1505808953.377,-2.441,31.250,36.621,34.180,28.320,0
1505808953.381,-5.859,42.480,17.090,23.438,41.016,0
1505808953.385,18.066,57.129,27.344,49.805,70.801,0
1505808953.389,30.273,54.199,33.691,64.453,40.039,0
1505808953.393,14.648,56.152,11.230,45.410,54.688,0
1505808953.397,10.254,59.570,18.555,48.828,84.473,0
1505808953.401,20.508,39.062,50.293,53.711,63.477,0
1505808953.405,27.832,59.082,66.895,53.711,57.129,0
1505808953.409,19.043,72.754,62.988,62.012,67.383,0
1505808953.413,22.461,55.176,59.570,61.035,87.402,0
1505808953.417,5.859,27.344,46.387,46.875,98.145,0
1505808953.420,-4.883,20.508,41.016,47.363,58.594,0
1505808953.424,5.371,26.855,26.855,41.504,21.973,0
1505808953.428,-0.977,27.344,17.578,20.020,33.691,0
1505808953.432,5.371,28.320,33.691,32.715,49.805,0
1505808953.436,12.207,19.043,26.855,41.992,42.969,0
1505808953.440,9.766,15.137,27.832,37.109,43.945,0
1505808953.444,-4.395,5.859,35.156,32.227,51.758,0
1505808953.448,-9.277,14.648,47.852,33.691,84.961,0
1505808953.452,7.324,21.973,48.340,32.715,91.797,0
1505808953.456,8.301,33.691,38.574,31.250,52.246,0
1505808953.460,14.160,13.672,36.621,34.180,80.566,0
1505808953.463,21.973,15.625,46.387,29.297,92.285,0
1505808953.467,23.438,57.617,50.781,24.414,29.785,0
1505808953.471,15.137,38.574,40.039,4.395,36.621,0
1505808953.475,24.414,41.504,29.297,9.766,68.848,0
1505808953.479,55.664,66.895,37.109,33.203,44.434,0
1505808953.483,54.199,70.312,52.734,23.438,33.203,0
1505808953.487,30.273,53.223,29.297,-3.418,43.457,0
1505808953.491,22.461,36.133,6.348,-15.625,58.105,0
1505808953.495,26.855,39.062,13.672,-4.883,63.477,0
1505808953.499,34.668,46.875,22.949,8.789,57.129,0
1505808953.502,45.410,52.246,34.180,15.137,63.965,0
1505808953.506,47.852,61.035,38.086,8.301,83.984,0
1505808953.510,49.316,30.762,23.438,5.371,103.516,0
1505808953.514,20.996,38.574,-14.648,-11.719,68.848,0
1505808953.518,-4.883,83.984,-25.879,-35.156,57.129,0
1505808953.522,21.484,88.379,-9.766,-20.996,82.520,0
1505808953.526,49.805,86.426,9.277,0.000,48.828,0
1505808953.530,50.781,70.312,7.324,-0.977,20.996,0
1505808953.534,26.855,71.289,-5.371,-5.371,54.199,0
1505808953.538,37.109,77.148,8.301,9.766,56.152,0
1505808953.542,47.363,69.336,7.812,20.996,55.176,0
1505808953.545,36.133,76.172,4.395,10.742,59.570,0
1505808953.549,41.504,67.871,2.930,12.695,71.777,0
1505808953.553,56.641,75.684,8.789,33.691,82.520,0
1505808953.557,40.039,86.914,4.395,24.414,59.570,0
1505808953.561,32.227,73.730,15.625,23.438,65.918,0
1505808953.565,56.641,62.988,31.738,40.527,62.012,0
1505808953.569,61.035,75.684,35.645,47.852,55.664,0
1505808953.573,55.176,74.219,52.246,54.199,71.777,0
1505808953.577,49.805,51.758,40.527,52.246,55.176,0
1505808953.581,50.293,56.152,34.668,55.664,62.500,0
1505808953.585,52.734,59.570,45.410,54.688,54.199,0
1505808953.588,39.062,44.922,43.457,42.969,53.711,0
1505808953.592,39.551,28.809,30.762,40.039,81.055,0
1505808953.596,48.828,37.598,33.691,47.363,76.172,0
1505808953.600,59.570,74.219,39.551,64.941,97.656,0
1505808953.604,57.617,57.129,35.645,68.359,86.426,0
1505808953.608,41.504,30.762,35.156,57.129,61.035,0
1505808953.612,40.039,40.527,43.457,59.082,80.566,0
1505808953.616,60.547,39.062,62.012,76.172,73.242,0
1505808953.620,60.059,43.457,52.734,72.266,64.941,0
1505808953.624,48.340,53.711,36.621,53.223,66.406,0
1505808953.627,55.664,51.270,48.340,59.570,55.664,0
1505808953.631,43.457,21.973,40.527,53.223,16.602,0
1505808953.635,33.203,3.906,44.434,30.273,27.832,0
1505808953.639,38.574,16.602,53.711,33.691,48.828,0
1505808953.643,57.617,32.227,59.082,56.641,52.246,0
1505808953.647,61.523,12.695,57.617,55.664,78.613,0
1505808953.651,55.664,10.742,45.898,49.316,83.496,0
1505808953.655,62.012,34.180,56.152,52.734,67.871,0
1505808953.659,69.336,56.152,65.430,67.871,56.641,0
1505808953.663,70.801,71.777,63.965,81.543,70.312,0
1505808953.667,43.945,43.945,55.664,65.918,80.078,0
1505808953.670,42.969,34.668,64.453,67.871,54.688,0
1505808953.674,48.828,45.898,71.777,84.473,46.875,0
1505808953.678,34.668,25.391,50.293,74.219,47.852,0
1505808953.682,23.926,0.488,39.551,57.129,40.527,0
1505808953.686,21.484,9.766,61.035,65.918,48.340,0
1505808953.690,34.180,37.598,52.734,80.566,30.762,0
1505808953.694,46.387,62.012,51.270,88.379,35.645,0
1505808953.698,50.293,56.152,64.453,90.332,59.570,0
1505808953.702,56.641,51.758,50.781,92.773,78.125,0
1505808953.706,62.012,78.613,48.340,103.516,86.914,0
1505808953.710,53.711,58.594,48.340,99.609,80.078,0
1505808953.713,48.828,30.762,36.133,78.613,73.242,0
1505808953.717,49.316,52.734,38.086,78.125,68.848,0
1505808953.721,39.062,54.199,35.645,74.219,53.223,0
1505808953.725,51.758,53.223,48.340,79.102,64.941,0
1505808953.729,64.941,49.805,59.570,99.609,76.172,0
1505808953.733,45.898,38.086,50.293,93.262,58.594,0
1505808953.737,33.203,44.922,36.621,82.031,46.875,0
1505808953.741,32.227,34.180,36.133,87.891,48.828,0
1505808953.745,36.621,48.828,45.410,83.984,52.246,0
1505808953.749,42.969,75.195,52.734,70.312,46.875,0
1505808953.752,29.297,57.617,45.410,61.035,61.035,0
1505808953.756,0.000,34.668,21.484,40.527,47.852,0
1505808953.760,-10.254,29.297,22.461,28.320,46.387,0
1505808953.764,20.508,46.875,52.734,46.875,58.594,0
1505808953.768,20.020,42.969,55.664,50.781,62.988,0
1505808953.772,-7.324,29.297,32.227,31.250,45.898,0
1505808953.776,10.742,52.246,35.645,41.016,19.043,0
1505808953.780,21.484,62.500,24.414,45.410,1.953,0
1505808953.784,23.438,53.711,25.391,54.199,22.949,0
1505808953.788,28.320,56.152,35.645,60.547,62.012,0
1505808953.792,20.508,48.828,21.973,54.199,43.457,0
1505808953.795,23.926,38.574,37.109,63.965,46.875,0
1505808953.799,22.461,51.270,33.691,63.965,83.984,0
1505808953.803,9.766,46.387,10.254,47.363,104.980,0
1505808953.807,24.902,57.617,38.086,57.617,75.195,0
1505808953.811,28.809,60.547,57.617,73.730,52.246,0
1505808953.815,12.695,37.109,31.738,52.246,50.781,0
1505808953.819,0.000,35.156,-2.441,22.461,39.062,0
1505808953.823,-4.883,38.574,0.977,20.020,31.250,0
1505808953.827,-29.297,36.621,2.441,5.371,4.883,0
1505808953.831,-48.340,15.625,0.488,-13.184,27.832,0
1505808953.835,-45.410,20.508,24.414,-8.301,73.242,0
1505808953.838,-60.547,45.410,19.531,-22.949,89.355,0
1505808953.842,-72.266,51.270,22.949,-31.250,87.891,0
1505808953.846,-80.078,42.969,21.484,-34.180,62.012,0
1505808953.850,-86.914,39.062,-0.977,-42.480,31.250,0
1505808953.854,-87.891,40.039,4.395,-43.457,48.340,0
1505808953.858,-92.285,34.180,9.277,-50.293,61.523,0
1505808953.862,-91.309,11.719,-20.508,-62.012,41.016,0
1505808953.866,-82.031,14.648,-17.578,-61.035,40.527,0
1505808953.870,-61.035,62.012,0.977,-49.316,37.598,0
1505808953.874,-68.848,66.895,-19.043,-49.316,51.270,0
1505808953.877,-86.426,62.988,-15.625,-59.570,52.734,0
1505808953.881,-72.754,76.660,15.137,-52.734,41.992,0
1505808953.885,-77.637,48.828,16.602,-61.035,52.246,0
1505808953.889,-100.098,7.324,-12.207,-86.426,75.195,0
1505808953.893,-113.281,1.465,-35.645,-89.844,89.355,0
1505808953.897,-103.516,20.020,-14.160,-69.824,81.543,0
1505808953.901,-93.750,41.504,1.465,-57.129,35.156,0
1505808953.905,-95.703,55.176,-22.949,-64.941,35.645,0
1505808953.909,-103.027,43.457,-37.598,-83.496,60.059,0
1505808953.913,-93.262,38.574,-27.344,-78.613,43.457,0
1505808953.917,-84.961,38.086,-20.996,-62.500,24.902,0
1505808953.920,-93.750,26.367,-28.320,-65.918,42.969,0
1505808953.924,-84.961,23.438,-11.230,-64.453,73.242,0
1505808953.928,-52.734,41.016,18.066,-36.621,80.078,0
1505808953.932,-50.293,42.480,30.273,-30.273,89.844,0
1505808953.936,-63.965,36.621,16.602,-29.297,69.336,0
1505808953.940,-70.312,21.484,2.441,-38.086,64.941,0
1505808953.944,-52.734,20.020,18.555,-24.414,55.664,0
1505808953.948,-35.645,27.832,26.367,-3.906,22.461,0
1505808953.952,-45.410,17.578,19.531,-21.973,60.547,0
1505808953.956,-25.879,28.320,27.832,-15.137,101.562,0
1505808953.960,1.953,36.621,37.109,14.648,59.570,0
1505808953.963,-4.883,34.180,37.598,17.578,45.898,0
1505808953.967,-16.113,41.016,18.555,-5.859,77.148,0
1505808953.971,-22.949,31.250,7.324,-25.879,79.102,0
1505808953.975,-25.879,19.043,6.348,-28.809,66.895,0
1505808953.979,-21.973,15.137,10.254,-29.785,80.078,0
1505808953.983,-39.062,-2.930,5.859,-47.363,91.797,0
1505808953.987,-51.270,-2.441,2.441,-46.387,73.242,0
1505808953.991,-46.875,26.367,5.371,-42.480,51.270,0
1505808953.995,-62.988,-6.836,13.184,-59.082,34.180,0
1505808953.999,-70.801,-32.227,0.488,-71.289,62.012,0
1505808954.002,-62.012,11.230,12.207,-61.523,83.008,0
1505808954.006,-69.824,29.785,19.043,-59.082,62.988,0
1505808954.010,-79.102,16.113,16.602,-63.965,42.480,0
1505808954.014,-69.336,25.391,28.809,-60.547,55.664,0
1505808954.018,-55.176,40.039,29.297,-53.223,82.520,0
1505808954.022,-48.340,25.879,36.621,-41.016,81.055,0
1505808954.026,-65.430,3.418,28.809,-58.105,77.148,0
1505808954.030,-66.895,9.277,18.066,-56.152,72.266,0
1505808954.034,-41.016,16.602,37.598,-24.902,41.992,0
1505808954.038,-44.922,38.574,43.457,-34.668,23.438,0
1505808954.042,-58.594,26.855,18.555,-61.035,55.176,0
1505808954.045,-41.992,16.602,20.020,-36.133,82.031,0
1505808954.049,-29.297,54.199,44.922,-5.371,61.035,0
1505808954.053,-43.945,56.641,39.551,-12.695,40.039,0
1505808954.057,-48.340,30.762,17.090,-26.367,69.336,0
1505808954.061,-20.508,34.668,36.621,-3.418,84.473,0
1505808954.065,-12.695,46.875,46.387,13.672,89.355,0
1505808954.069,-21.973,49.316,39.062,8.789,88.867,0
1505808954.073,-25.879,43.945,22.461,11.230,68.359,0
1505808954.077,-36.133,32.227,-0.977,6.836,74.707,0
1505808954.081,-30.762,45.410,11.230,15.137,39.062,0
1505808954.085,-4.395,45.410,31.738,31.250,-2.930,0
1505808954.088,-1.953,42.969,33.691,32.715,50.781,0
1505808954.092,-16.113,17.090,27.344,27.832,74.707,0
1505808954.096,-5.859,15.625,25.391,41.016,67.871,0
1505808954.100,14.648,47.852,37.109,52.246,88.379,0
1505808954.104,10.742,41.504,16.602,34.668,89.844,0
1505808954.108,26.855,63.477,15.137,55.176,64.453,0
1505808954.112,40.039,68.359,43.457,71.777,46.875,0
1505808954.116,28.320,41.016,33.691,50.781,75.195,0
1505808954.120,23.438,36.621,17.090,45.410,88.379,0
1505808954.124,17.578,20.020,17.578,46.875,73.242,0
1505808954.127,14.160,29.297,5.371,43.457,57.617,0
1505808954.131,-1.465,38.574,-7.324,25.391,67.871,0
1505808954.135,1.953,34.668,2.441,25.391,85.449,0
1505808954.139,20.996,41.992,-2.930,34.668,74.219,0
1505808954.143,36.621,32.227,2.930,34.180,80.078,0
1505808954.147,39.062,33.203,2.930,40.527,91.797,0
1505808954.151,49.316,40.039,2.441,52.734,90.332,0
1505808954.155,64.941,35.156,11.719,56.152,81.543,0
1505808954.159,65.430,31.250,22.461,58.105,76.660,0
1505808954.163,57.617,35.645,30.762,52.246,87.402,0
1505808954.167,54.688,39.062,20.020,42.480,108.398,0
1505808954.170,62.012,42.969,43.945,50.781,87.402,0
1505808954.174,39.551,42.969,37.109,33.203,36.133,0
1505808954.178,37.109,35.156,11.230,27.832,42.480,0
1505808954.182,65.430,40.527,42.969,59.570,43.457,0
1505808954.186,65.918,41.016,49.805,58.105,44.922,0
1505808954.190,51.270,34.668,32.715,43.945,78.125,0
1505808954.194,61.035,42.480,31.738,53.711,95.215,0
1505808954.198,59.570,35.645,35.645,58.105,74.707,0
1505808954.202,55.664,24.414,46.875,63.477,62.012,0
1505808954.206,58.594,31.250,48.828,61.523,64.453,0
1505808954.210,48.340,54.199,33.691,54.688,80.566,0
1505808954.213,57.617,53.711,36.133,58.105,109.863,0
1505808954.217,57.617,34.668,57.617,54.199,103.027,0
1505808954.221,41.992,46.875,43.945,39.062,66.406,0
1505808954.225,40.039,45.898,31.738,37.109,62.012,0
1505808954.229,44.922,47.363,63.965,54.688,69.824,0
1505808954.233,46.875,72.754,68.848,59.082,55.176,0
1505808954.237,22.949,51.270,50.781,35.645,64.941,0
1505808954.241,18.066,35.156,45.898,35.156,52.246,0
1505808954.245,41.504,42.480,40.039,62.988,31.250,0
1505808954.249,39.551,38.574,40.527,56.641,62.012,0
1505808954.252,33.203,37.109,47.363,46.387,65.918,0
1505808954.256,36.133,35.645,31.250,54.199,88.867,0
1505808954.260,29.785,25.391,21.484,40.527,134.766,0
1505808954.264,23.926,31.738,32.715,39.062,88.379,0
1505808954.268,12.695,39.551,9.277,40.039,64.453,0
1505808954.272,6.836,38.086,2.930,38.086,69.336,0
1505808954.276,12.695,36.621,32.227,39.551,64.941,0
1505808954.280,3.906,31.250,22.949,32.715,56.152,0
1505808954.284,0.488,18.066,9.766,32.227,67.871,0
1505808954.288,12.207,31.738,25.391,41.992,79.590,0
1505808954.292,25.391,47.363,31.250,51.270,53.223,0
1505808954.295,8.301,25.879,21.973,32.715,80.078,0
1505808954.299,-8.789,43.457,26.855,21.484,85.449,0
1505808954.303,14.160,72.754,43.945,41.016,81.543,0
1505808954.307,22.949,59.570,34.668,40.527,101.074,0
1505808954.311,15.625,39.551,28.320,34.668,96.191,0
1505808954.315,2.930,25.391,29.297,40.039,63.965,0
1505808954.319,3.906,19.043,26.855,39.551,42.969,0
1505808954.323,8.301,26.855,43.457,48.340,25.879,0
1505808954.327,-0.488,15.137,44.434,32.227,40.527,0
1505808954.331,0.488,20.508,53.223,26.855,64.453,0
1505808954.335,-12.695,41.992,53.711,31.738,53.223,0
1505808954.338,-10.254,46.387,52.246,40.039,38.574,0
1505808954.342,-4.883,32.227,60.059,51.270,33.203,0
1505808954.346,-1.953,26.855,62.500,60.547,44.434,0
1505808954.350,1.465,36.621,55.664,64.453,53.223,0
1505808954.354,10.742,39.062,53.223,70.312,58.594,0
1505808954.358,0.488,25.879,34.668,58.594,28.809,0
1505808954.362,-7.812,16.113,37.598,46.387,19.531,0
1505808954.366,18.066,40.527,65.430,65.918,13.672,0
1505808954.370,19.043,47.363,43.457,54.199,23.926,0
1505808954.374,13.672,58.105,45.898,51.270,51.270,0
1505808954.377,35.156,78.125,69.336,71.777,72.754,0
1505808954.381,40.527,62.012,66.895,66.406,54.688,0
1505808954.385,8.789,54.199,51.270,41.016,46.875,0
1505808954.389,4.395,60.547,36.133,34.180,52.246,0
1505808954.393,21.484,44.434,34.668,42.480,35.645,0
1505808954.397,31.738,46.387,46.875,47.363,32.227,0
1505808954.401,41.504,60.059,44.922,55.664,52.734,0
1505808954.405,24.414,41.992,34.668,44.922,65.430,0
1505808954.409,23.438,57.617,40.527,44.922,53.223,0
1505808954.413,41.992,64.453,41.504,61.035,18.555,0
1505808954.417,25.879,62.500,40.039,52.246,2.441,0
1505808954.420,16.602,49.805,38.574,46.387,53.223,0
1505808954.424,31.738,42.969,51.758,58.105,59.570,0
1505808954.428,45.410,60.059,61.523,65.918,31.250,0
1505808954.432,39.551,35.645,47.363,51.270,52.734,0
1505808954.436,29.785,14.160,46.875,38.086,57.617,0
1505808954.440,24.902,26.855,52.734,47.852,42.969,0
1505808954.444,6.348,53.223,47.852,34.180,49.805,0
1505808954.448,2.441,45.410,22.461,21.973,71.289,0
1505808954.452,13.672,32.715,25.879,40.039,90.820,0
1505808954.456,32.227,28.809,40.039,55.176,73.242,0
1505808954.460,37.109,23.438,40.527,57.129,37.598,0
1505808954.463,22.949,38.086,46.387,48.828,57.129,0
1505808954.467,19.043,34.180,50.781,43.457,73.242,0
1505808954.471,13.184,28.809,55.664,36.133,61.035,0
1505808954.475,3.906,52.734,48.340,32.227,63.965,0
1505808954.479,8.789,44.922,57.617,43.945,50.293,0
1505808954.483,12.695,41.016,70.801,59.570,61.035,0
1505808954.487,-3.418,48.828,58.105,48.828,68.359,0
1505808954.491,-2.930,46.387,49.805,37.109,74.219,0
1505808954.495,9.277,56.641,61.523,44.922,96.191,0
1505808954.499,22.461,43.945,71.289,50.293,61.035,0
1505808954.502,20.020,30.762,49.805,47.363,25.391,0
1505808954.506,1.953,39.062,34.668,35.645,49.805,0
1505808954.510,8.789,82.520,55.176,40.527,73.730,0
1505808954.514,11.719,78.125,70.801,41.504,79.102,0
1505808954.518,-3.418,43.945,60.547,20.996,79.590,0
1505808954.522,-0.488,43.457,56.152,17.578,39.551,0
1505808954.526,10.742,58.594,38.574,20.996,33.691,0
1505808954.530,16.602,82.520,43.945,32.227,41.504,0
1505808954.534,10.254,72.754,47.852,32.715,50.781,0
1505808954.538,-11.230,53.711,55.664,16.113,60.059,0
1505808954.542,-18.066,43.457,72.754,9.277,53.223,2
1505808954.545,4.883,52.734,87.402,25.391,48.828,0
1505808954.549,3.906,64.941,76.660,27.832,20.020,0
1505808954.553,-13.184,50.781,43.945,6.348,30.762,0
1505808954.557,-15.137,62.500,41.504,-6.836,14.160,0
1505808954.561,-14.648,53.711,40.527,-14.160,-1.465,0
1505808954.565,-12.695,35.156,40.039,-3.418,27.832,0
1505808954.569,-4.883,46.387,38.086,10.254,32.227,0
1505808954.573,3.906,55.664,56.641,18.066,22.949,0
1505808954.577,-1.953,49.316,52.734,11.719,30.762,0
1505808954.581,3.418,8.301,45.898,13.184,39.551,0
1505808954.585,17.578,13.184,50.781,33.203,37.109,0
1505808954.588,21.484,37.109,39.062,38.086,63.477,0
1505808954.592,25.391,28.320,38.086,39.551,46.875,0
1505808954.596,20.508,43.945,49.316,45.898,26.367,0
1505808954.600,22.461,57.129,57.129,48.340,26.855,0
1505808954.604,12.207,28.320,37.109,26.367,29.297,0
1505808954.608,0.488,18.555,37.598,19.043,63.965,0
1505808954.612,12.695,34.180,41.992,43.457,67.383,0
1505808954.616,22.461,29.785,61.523,55.664,65.918,0
1505808954.620,19.531,50.293,87.402,53.711,70.801,0
1505808954.624,23.438,52.246,77.148,56.152,65.430,0
1505808954.627,26.855,21.484,70.312,56.641,53.711,0
1505808954.631,13.184,27.832,72.754,47.852,59.570,0
1505808954.635,15.625,50.293,83.008,46.387,88.867,0
1505808954.639,32.715,57.129,67.871,53.711,49.805,0
1505808954.643,18.066,24.414,29.297,38.574,30.273,0
1505808954.647,32.715,22.949,38.086,43.457,49.316,0
1505808954.651,46.387,46.387,33.203,54.688,45.898,0
1505808954.655,46.387,52.734,28.809,52.246,34.668,0
1505808954.659,45.410,42.480,56.152,51.270,41.504,0
1505808954.663,49.316,50.781,52.734,59.082,48.828,0
1505808954.667,62.500,61.523,55.176,66.895,44.434,0
1505808954.670,57.617,52.734,68.848,59.082,48.828,0
1505808954.674,58.105,46.387,72.754,52.734,52.246,0
1505808954.678,60.547,62.988,77.148,61.035,90.820,0
1505808954.682,46.875,64.453,63.477,62.012,82.031,0
1505808954.686,11.719,34.180,37.598,17.090,52.734,0
1505808954.690,22.949,38.574,53.711,30.762,74.707,0
1505808954.694,45.410,66.406,83.008,66.406,57.617,0
1505808954.698,23.926,41.504,67.383,44.434,66.895,0
1505808954.702,7.324,10.742,51.270,24.902,96.680,0
1505808954.706,15.137,48.340,71.289,36.133,106.445,0
1505808954.710,21.484,52.246,78.613,39.062,75.195,0
1505808954.713,20.996,38.574,67.383,22.949,83.496,0
1505808954.717,20.020,35.645,77.637,25.391,115.234,0
1505808954.721,40.039,41.504,81.543,38.086,93.750,0
1505808954.725,54.199,52.246,70.801,56.152,96.191,0
1505808954.729,29.297,41.992,62.988,54.199,101.562,0
1505808954.733,18.066,50.781,64.453,45.410,104.492,0
1505808954.737,41.992,56.152,77.637,53.711,83.496,0
1505808954.741,59.570,53.711,93.262,66.406,76.660,0
1505808954.745,58.105,62.988,87.891,71.289,104.492,0
1505808954.749,54.688,75.684,79.590,65.430,91.309,0
1505808954.752,55.176,74.707,85.938,62.500,76.172,0
1505808954.756,34.180,44.434,73.242,43.457,54.199,0
1505808954.760,28.320,39.551,64.941,42.969,55.176,0
1505808954.764,54.199,69.336,80.078,65.430,58.594,0
1505808954.768,65.918,78.125,96.191,73.730,38.574,0
1505808954.772,56.641,78.613,102.051,72.266,43.457,0
1505808954.776,29.785,41.016,73.730,55.664,81.055,0
1505808954.780,30.273,39.062,59.570,61.523,83.496,0
1505808954.784,25.391,60.547,64.453,53.711,69.336,0
1505808954.788,-0.977,30.762,71.777,22.949,46.387,0
1505808954.792,6.836,15.137,81.055,20.020,32.715,0
1505808954.795,6.836,28.809,82.031,27.832,50.781,0
1505808954.799,4.395,44.922,88.867,30.762,58.105,0
1505808954.803,-4.883,40.039,84.473,16.602,52.734,0
1505808954.807,-15.625,33.691,83.008,20.020,73.242,0
1505808954.811,9.277,46.387,86.914,47.363,79.590,0
1505808954.815,13.672,58.105,91.797,55.176,40.527,0
1505808954.819,-5.859,47.363,83.008,44.434,34.668,0
1505808954.823,-15.625,28.809,69.336,25.879,47.363,0
1505808954.827,-13.672,11.719,69.824,19.531,42.969,0
1505808954.831,-10.742,17.578,72.754,36.133,30.762,0
1505808954.835,-16.602,-1.465,48.340,24.902,26.855,0
1505808954.838,-20.508,-16.113,42.480,12.207,27.832,0
1505808954.842,-23.438,9.277,75.195,23.438,60.059,0
1505808954.846,-21.484,14.160,73.242,31.738,63.965,0
1505808954.850,-18.555,14.160,59.082,32.227,46.875,0
1505808954.854,-20.020,17.090,61.035,25.391,74.707,0
1505808954.858,0.000,19.531,75.684,33.203,52.734,0
1505808954.862,20.020,19.531,79.590,44.434,50.781,0
1505808954.866,24.414,10.742,67.871,52.734,88.867,0
1505808954.870,27.344,24.414,68.359,57.129,81.543,0
1505808954.874,40.039,27.832,68.848,63.965,45.898,0
1505808954.877,48.828,40.527,65.918,70.801,16.602,0
1505808954.881,43.945,48.828,65.430,62.500,9.277,0
1505808954.885,38.574,40.039,65.918,52.734,40.527,0
1505808954.889,37.598,56.641,56.641,51.758,26.855,0
1505808954.893,38.086,55.664,57.129,47.363,-3.418,0
1505808954.897,24.902,58.594,48.340,40.039,27.832,0
1505808954.901,24.414,76.660,36.133,38.574,48.340,0
1505808954.905,34.668,72.266,59.082,33.203,57.129,0
1505808954.909,38.574,55.664,71.777,34.180,48.340,0
1505808954.913,46.875,60.059,49.316,33.203,58.594,0
1505808954.917,38.574,53.711,35.645,19.531,65.918,0
1505808954.920,36.133,64.941,46.875,31.250,21.973,0
1505808954.924,43.945,63.477,48.828,46.387,22.949,0
1505808954.928,51.758,37.598,52.246,44.922,60.059,0
1505808954.932,62.988,46.875,72.754,46.387,53.711,0
1505808954.936,57.617,82.031,83.984,42.480,5.859,0
1505808954.940,38.574,72.754,48.828,31.738,13.184,0
1505808954.944,32.227,56.152,33.691,31.250,81.055,0
1505808954.948,36.621,67.871,57.617,43.945,70.312,0
1505808954.952,37.109,49.316,62.500,43.457,24.902,0
1505808954.956,37.598,49.805,52.246,35.645,17.090,0
1505808954.960,24.414,55.664,56.641,24.414,50.781,0
1505808954.963,20.020,35.645,59.082,30.273,86.914,0
1505808954.967,26.367,21.484,54.688,41.016,37.598,0
1505808954.971,19.531,10.742,40.527,24.902,5.859,0
1505808954.975,20.508,16.113,37.109,30.273,21.484,0
1505808954.979,8.789,41.016,36.133,33.691,34.668,0
1505808954.983,18.066,60.059,41.504,40.527,52.734,0
1505808954.987,17.578,38.086,41.504,29.785,61.035,0
1505808954.991,1.465,32.227,16.113,15.137,49.805,0
1505808954.995,10.742,46.387,24.902,27.344,48.340,0
1505808954.999,14.648,20.508,57.129,45.410,32.227,0
1505808955.002,12.695,-6.348,52.246,40.039,31.250,0
1505808955.006,20.508,32.227,40.039,33.203,87.402,0
1505808955.010,37.598,65.918,69.824,63.477,60.547,0
1505808955.014,22.461,50.293,65.918,66.406,11.719,0
1505808955.018,-4.395,33.203,20.996,39.062,67.871,0
1505808955.022,-3.906,27.344,14.648,35.156,83.008,0
1505808955.026,7.812,40.039,39.062,47.852,38.086,0
1505808955.030,10.742,51.270,51.270,54.199,36.133,0
1505808955.034,5.859,21.973,40.039,49.805,81.543,0
1505808955.038,11.230,27.344,54.688,50.781,83.496,0
1505808955.042,9.766,50.293,62.012,40.527,64.941,0
1505808955.045,0.488,31.738,39.551,32.715,102.539,3
1505808955.049,-11.230,34.668,46.387,31.250,104.980,0
1505808955.053,-8.301,62.988,39.551,34.180,113.770,0
1505808955.057,0.977,51.270,18.555,29.785,91.309,0
1505808955.061,3.418,13.184,26.855,16.113,65.918,0
1505808955.065,14.648,14.648,33.203,19.043,73.730,0
1505808955.069,27.344,21.484,49.805,36.133,46.875,0
1505808955.073,22.949,26.855,62.500,36.133,51.758,0
1505808955.077,20.508,35.645,47.852,23.438,56.152,0
1505808955.081,29.785,25.879,34.668,27.344,69.336,0
1505808955.085,22.461,42.969,29.297,27.344,73.730,0
1505808955.088,16.113,65.430,26.855,19.531,46.875,0
1505808955.092,13.672,57.129,19.043,8.301,59.570,0
1505808955.096,16.602,70.801,3.906,5.859,71.777,0
1505808955.100,21.973,75.195,17.090,7.324,65.918,0
1505808955.104,22.949,66.406,42.969,5.859,102.051,0
1505808955.108,9.766,48.828,33.691,-10.742,96.191,0
1505808955.112,0.488,39.551,25.879,-17.578,64.453,0
1505808955.116,13.184,60.059,41.504,4.883,23.926,0
1505808955.120,5.859,43.945,33.203,-2.441,28.809,0
1505808955.124,-4.395,30.273,23.926,-7.812,80.078,0
1505808955.127,7.812,45.410,35.156,10.254,69.824,0
1505808955.131,17.090,50.293,33.691,20.020,47.852,0
1505808955.135,10.742,45.898,37.109,17.090,57.129,0
1505808955.139,-2.441,36.621,34.180,14.160,76.172,0
1505808955.143,10.742,45.410,46.387,41.504,73.730,0
1505808955.147,20.020,53.711,70.801,47.852,62.988,0
1505808955.151,10.254,41.016,52.734,31.250,86.914,0
1505808955.155,-5.859,23.438,35.645,22.461,113.281,0
1505808955.159,11.719,33.691,54.199,40.039,91.797,0
1505808955.163,41.504,54.199,61.523,59.082,73.242,0
1505808955.167,23.926,45.410,49.805,53.223,70.801,0
1505808955.170,10.254,43.945,59.082,51.758,75.684,0
1505808955.174,24.902,34.180,52.246,53.223,60.059,0
1505808955.178,10.254,3.906,15.137,41.504,42.969,0
1505808955.182,2.441,-4.395,-0.977,42.969,67.871,0
1505808955.186,22.461,3.906,7.812,66.895,86.914,0
1505808955.190,29.297,22.949,7.324,85.449,83.984,0
1505808955.194,44.434,27.344,-1.465,95.703,81.543,0
1505808955.198,49.316,21.973,4.883,91.797,78.613,0
1505808955.202,48.340,24.902,-2.930,89.844,90.332,0
1505808955.206,61.035,24.414,-16.113,94.727,62.988,0
1505808955.210,52.246,-3.906,-22.461,88.379,38.574,0
1505808955.213,39.062,-16.602,-28.809,83.008,74.219,0
1505808955.217,64.941,14.160,-3.418,95.215,77.148,0
1505808955.221,77.148,28.320,16.113,104.004,71.777,0
1505808955.225,73.242,39.551,14.648,97.168,67.871,0
1505808955.229,83.984,20.508,20.508,104.004,47.363,0
1505808955.233,94.727,2.441,21.484,117.188,58.594,0
1505808955.237,91.797,0.000,20.508,109.375,66.895,0
1505808955.241,93.262,6.836,40.527,119.629,91.797,0
1505808955.245,90.820,6.836,45.410,121.094,127.930,0
1505808955.249,84.961,7.812,45.410,112.305,96.191,0
1505808955.252,83.008,14.160,62.012,117.188,30.762,0
1505808955.256,67.383,-4.883,48.828,110.840,33.691,0
1505808955.260,74.219,-0.977,57.617,124.023,74.707,0
1505808955.264,82.031,10.742,77.148,130.859,58.105,0
1505808955.268,78.125,10.742,75.195,119.141,73.730,0
1505808955.272,74.707,-3.418,66.895,126.465,98.633,0
1505808955.276,59.570,-17.090,62.988,118.164,97.168,0
1505808955.280,63.965,9.277,68.848,104.980,102.051,0
1505808955.284,69.824,33.203,81.543,129.883,96.680,0
1505808955.288,69.336,29.297,84.473,147.461,94.238,0
1505808955.292,72.754,4.883,61.035,138.184,98.633,0
1505808955.295,65.918,22.949,58.105,127.441,87.402,0
1505808955.299,62.012,32.715,79.590,124.512,55.664,0
1505808955.303,51.270,21.973,74.707,100.586,62.988,0
1505808955.307,52.246,47.852,67.383,100.586,80.566,0
1505808955.311,45.898,53.223,62.988,101.074,72.754,0
1505808955.315,45.410,37.598,81.055,96.680,69.824,0
1505808955.319,56.152,32.715,98.633,101.074,82.520,0
1505808955.323,62.012,45.410,90.332,106.445,71.777,0
1505808955.327,60.059,41.016,78.613,106.934,62.988,0
1505808955.331,51.758,47.852,71.289,92.285,54.688,0
1505808955.335,60.059,62.500,83.008,95.215,67.871,0
1505808955.338,67.383,49.805,83.008,93.750,91.797,0
1505808955.342,71.777,54.688,72.754,94.238,85.938,0
1505808955.346,59.082,38.574,76.660,96.191,63.965,0
1505808955.350,55.176,24.902,69.336,84.473,67.383,0
1505808955.354,73.242,62.988,63.477,94.238,44.922,0
1505808955.358,75.684,71.289,75.195,96.191,27.832,0
1505808955.362,50.781,51.270,53.711,62.988,48.828,0
1505808955.366,43.457,59.570,36.133,55.176,43.945,0
1505808955.370,46.875,47.363,37.109,51.758,49.805,0
1505808955.374,47.852,47.363,46.387,49.805,67.871,0
1505808955.377,42.480,55.664,49.316,53.711,74.707,0
1505808955.381,41.992,62.988,58.105,56.152,78.125,0
1505808955.385,53.711,60.059,49.805,61.523,62.012,0
1505808955.389,38.086,45.410,33.691,47.363,26.367,0
1505808955.393,21.484,32.227,40.039,38.574,40.039,0
1505808955.397,26.855,36.621,47.852,39.062,43.457,0
1505808955.401,34.668,62.012,50.293,38.574,26.855,0
1505808955.405,30.762,49.805,38.086,29.297,39.062,0
1505808955.409,19.043,50.293,31.738,18.555,54.199,0
1505808955.413,39.062,72.754,52.246,41.016,62.012,0
1505808955.417,41.504,67.383,46.387,51.758,31.250,0
1505808955.420,12.207,59.082,21.484,27.832,20.508,0
1505808955.424,13.184,55.664,20.020,24.414,22.949,0
1505808955.428,35.645,75.195,37.598,39.062,28.809,0
1505808955.432,37.598,74.707,37.109,38.574,39.551,0
1505808955.436,31.250,62.988,18.066,33.203,43.457,0
1505808955.440,49.805,73.242,30.762,47.363,44.922,0
1505808955.444,59.570,68.848,34.180,52.734,32.227,0
1505808955.448,46.875,46.387,8.789,48.828,9.766,0
1505808955.452,40.527,51.758,-13.184,52.734,14.160,0
1505808955.456,46.387,76.172,-5.371,63.965,43.945,0
1505808955.460,49.805,88.379,13.672,69.336,61.035,0
1505808955.463,44.434,77.637,19.531,70.801,49.316,0
1505808955.467,36.621,85.449,23.926,63.965,38.574,0
1505808955.471,41.992,90.820,29.297,53.711,62.500,0
1505808955.475,55.664,91.797,39.062,66.895,85.938,0
1505808955.479,36.621,78.613,18.066,58.105,49.316,0
1505808955.483,32.227,52.734,1.953,50.781,0.977,0
1505808955.487,49.316,66.406,19.531,65.430,40.039,0
1505808955.491,48.828,97.656,23.438,70.312,16.602,0
1505808955.495,43.945,85.449,9.277,55.664,-12.695,0
1505808955.499,41.016,77.637,4.883,49.805,53.223,0
1505808955.502,38.574,85.938,7.324,46.387,68.359,0
1505808955.506,37.598,68.848,11.230,33.691,57.617,0
1505808955.510,41.016,67.871,4.395,34.668,61.035,0
1505808955.514,51.758,60.059,8.301,34.180,55.664,0
1505808955.518,55.664,40.527,31.250,36.621,92.773,0
1505808955.522,47.363,61.035,41.016,39.551,145.996,0
1505808955.526,41.504,84.961,27.832,27.344,93.750,0
1505808955.530,36.621,89.844,22.949,21.484,66.895,0
1505808955.534,48.828,97.168,57.617,34.668,83.008,0
1505808955.538,51.758,93.262,66.406,31.738,62.988,0
1505808955.542,40.527,71.289,59.082,20.020,61.523,0
1505808955.545,43.457,79.590,53.223,25.391,79.590,4
1505808955.549,43.457,93.262,52.246,31.738,74.707,0
1505808955.553,33.691,72.266,48.828,24.414,76.660,0
1505808955.557,26.855,60.547,32.715,21.484,95.703,0
1505808955.561,24.902,56.152,29.785,27.344,93.262,0
1505808955.565,20.996,48.828,31.738,29.297,76.660,0
1505808955.569,34.180,77.148,49.316,43.945,63.477,0
1505808955.573,46.387,91.797,55.176,54.199,83.496,0
1505808955.577,42.480,63.965,51.758,55.176,131.836,0
1505808955.581,48.340,70.312,52.246,69.824,103.027,0
1505808955.585,46.387,68.848,33.691,70.801,45.410,0
1505808955.588,44.922,52.734,37.598,67.383,52.734,0
1505808955.592,66.406,57.129,41.504,95.215,57.617,0
1505808955.596,78.125,64.941,46.387,119.141,42.480,0
1505808955.600,74.219,76.660,70.312,120.605,50.781,0
1505808955.604,72.754,79.590,71.289,114.258,77.637,0
1505808955.608,72.266,55.664,66.895,103.027,57.617,0
1505808955.612,73.242,57.617,70.801,106.934,51.270,0
1505808955.616,73.242,72.266,76.172,111.816,75.195,0
1505808955.620,83.984,52.734,83.008,114.746,97.168,0
1505808955.624,82.031,50.781,63.477,107.910,75.684,0
1505808955.627,63.965,77.148,39.062,94.727,31.738,0
1505808955.631,54.199,78.125,29.785,87.402,40.039,0
1505808955.635,60.059,67.871,43.457,87.402,74.219,0
1505808955.639,65.918,70.312,42.969,85.938,79.590,0
1505808955.643,42.480,62.500,37.598,63.477,59.570,0
1505808955.647,33.691,41.992,15.625,47.363,67.383,0
1505808955.651,44.922,30.762,-5.859,42.480,71.777,0
1505808955.655,44.434,49.805,26.367,45.410,73.242,0
1505808955.659,44.922,38.574,40.527,43.457,59.570,0
1505808955.663,45.410,37.109,27.832,36.133,59.570,0
1505808955.667,34.668,69.336,19.043,32.715,94.727,0
1505808955.670,22.461,72.266,18.555,23.926,71.289,0
1505808955.674,15.625,54.199,19.043,15.625,39.062,0
1505808955.678,16.113,22.461,18.555,17.090,62.988,0
1505808955.682,31.250,20.020,35.156,37.109,59.082,0
1505808955.686,26.367,32.715,30.762,28.809,60.547,0
1505808955.690,8.301,28.809,31.738,21.484,68.848,0
1505808955.694,-6.836,29.785,33.203,22.949,79.590,0
1505808955.698,-9.277,33.203,17.578,13.184,72.266,0
1505808955.702,-2.441,33.203,28.320,18.555,52.246,0
1505808955.706,-2.930,26.855,29.785,19.531,64.941,0
1505808955.710,-15.625,26.855,25.879,9.277,104.004,0
1505808955.713,-13.672,36.133,38.086,14.648,103.516,0
1505808955.717,-6.348,35.645,29.785,20.508,42.969,0
1505808955.721,-15.137,30.273,12.207,14.160,36.621,0
1505808955.725,-6.836,33.691,34.180,20.020,64.453,0
1505808955.729,2.930,27.832,44.434,23.926,56.641,0
1505808955.733,2.930,38.574,32.227,24.902,42.480,0
1505808955.737,-0.977,36.621,32.715,26.367,56.641,0
1505808955.741,-10.254,23.438,20.996,30.762,67.871,0
1505808955.745,-21.484,10.254,19.531,25.879,62.012,0
1505808955.749,-18.066,4.395,30.762,20.996,47.852,0
1505808955.752,-20.020,41.504,27.832,31.250,62.500,0
1505808955.756,-23.438,31.250,20.508,30.273,68.359,0
1505808955.760,-4.395,7.812,26.367,33.203,76.172,0
1505808955.764,6.348,37.598,24.902,37.598,67.383,0
1505808955.768,-9.277,21.973,10.254,32.227,44.434,0
1505808955.772,-12.207,-6.836,5.371,34.668,76.172,0
1505808955.776,1.953,29.785,10.254,37.598,61.523,0
1505808955.780,-0.977,48.340,18.066,36.621,15.625,0
1505808955.784,5.371,16.113,0.488,31.738,50.781,0
1505808955.788,12.207,22.949,-11.719,30.762,63.965,0
1505808955.792,9.277,50.293,6.836,36.133,55.664,0
1505808955.795,25.879,48.340,11.230,48.828,66.895,0
1505808955.799,31.250,16.602,5.859,45.898,39.062,0
1505808955.803,48.340,32.715,24.414,53.711,47.852,0
1505808955.807,33.203,61.035,18.555,50.781,38.086,0
1505808955.811,9.277,35.156,4.883,30.273,19.043,0
1505808955.815,29.297,23.926,17.578,54.199,63.477,0
1505808955.819,48.828,20.020,25.391,77.148,69.824,0
1505808955.823,56.641,25.879,11.230,57.617,62.988,0
1505808955.827,72.754,65.918,32.715,66.406,66.895,0
1505808955.831,59.570,57.129,33.691,68.359,61.035,0
1505808955.835,43.945,36.621,11.719,56.641,45.898,0
1505808955.838,32.227,37.598,22.949,42.480,26.367,0
1505808955.842,8.789,20.996,11.230,10.254,40.039,0
1505808955.846,28.320,33.691,11.719,11.230,47.852,0
1505808955.850,33.203,38.086,16.602,14.648,72.754,0
1505808955.854,12.695,30.273,-10.742,2.441,76.660,0
1505808955.858,-2.930,4.883,-22.461,-8.789,64.941,0
1505808955.862,1.953,-8.789,16.113,1.953,73.730,0
1505808955.866,4.883,28.809,38.086,9.766,61.035,0
1505808955.870,0.488,38.086,18.066,8.789,62.500,0
1505808955.874,7.812,12.207,18.066,16.113,101.074,0
1505808955.877,12.207,16.113,46.387,37.598,114.258,0
1505808955.881,9.766,34.180,50.293,46.875,76.172,0
1505808955.885,-0.488,12.695,39.062,33.691,20.508,0
1505808955.889,-8.301,-15.137,19.043,26.855,44.922,0
1505808955.893,-5.371,8.301,5.859,27.344,68.848,0
1505808955.897,8.789,52.734,24.414,37.109,50.293,0
1505808955.901,12.695,50.293,38.086,45.410,76.172,0
1505808955.905,-3.418,29.297,29.785,37.109,73.730,0
1505808955.909,1.953,37.109,31.250,35.645,64.453,0
1505808955.913,3.418,40.527,33.691,45.898,31.250,0
1505808955.917,-25.879,19.043,10.742,30.273,36.133,0
1505808955.920,-32.227,15.625,15.625,28.320,84.473,0
1505808955.924,-15.137,24.414,42.969,42.969,69.824,0
1505808955.928,-9.766,25.879,47.852,47.363,60.059,0
1505808955.932,0.000,43.457,52.734,62.012,66.406,0
1505808955.936,1.953,55.664,55.664,54.199,78.125,0
1505808955.940,-11.230,38.574,35.156,38.574,83.984,0
1505808955.944,-0.977,36.621,31.738,52.246,83.496,0
1505808955.948,12.207,44.922,35.645,58.594,72.266,0
1505808955.952,1.953,26.855,19.043,52.246,62.012,0
1505808955.956,7.812,29.297,23.438,52.246,40.039,0
1505808955.960,21.484,36.133,30.273,53.223,25.391,0
1505808955.963,25.391,26.367,21.484,49.316,40.527,0
1505808955.967,35.156,34.668,20.508,48.828,66.895,0
1505808955.971,44.922,54.688,28.809,47.363,77.148,0
1505808955.975,42.480,73.730,37.109,40.527,52.246,0
1505808955.979,42.480,64.453,43.457,45.410,59.570,0
1505808955.983,62.500,53.223,33.203,55.664,73.242,0
1505808955.987,58.594,49.805,14.160,38.086,43.945,0
1505808955.991,43.945,35.156,19.531,26.855,69.824,0
1505808955.995,38.086,19.043,12.207,25.391,101.562,0
1505808955.999,54.688,32.227,35.156,38.574,96.680,0
1505808956.002,61.035,54.199,61.035,42.969,85.449,0
1505808956.006,59.082,56.152,47.363,39.551,45.410,0
1505808956.010,54.688,44.434,48.828,47.852,56.152,0
1505808956.014,49.316,60.547,56.152,44.922,71.777,0
1505808956.018,48.828,49.316,39.551,36.133,44.922,0
1505808956.022,35.156,7.324,40.039,27.344,52.246,0
1505808956.026,40.039,12.695,51.758,30.762,85.938,0
1505808956.030,51.758,46.875,54.688,33.691,63.477,0
1505808956.034,39.062,34.668,32.715,10.742,29.785,0
1505808956.038,20.996,6.348,13.672,-16.113,72.754,0
1505808956.042,8.301,6.348,18.066,-9.277,100.586,0
1505808956.045,29.785,3.906,18.555,20.996,57.617,5
1505808956.049,48.340,16.602,30.762,43.457,59.082,0
1505808956.053,33.203,14.160,33.691,45.898,71.777,0
1505808956.057,35.645,14.160,35.156,57.617,66.406,0
1505808956.061,45.898,44.922,44.922,73.730,69.336,0
1505808956.065,42.969,32.227,50.293,68.848,48.828,0
1505808956.069,44.434,21.973,58.105,71.777,67.871,0
1505808956.073,58.594,34.180,69.336,79.590,58.594,0
1505808956.077,58.105,17.578,64.453,75.684,24.902,0
1505808956.081,42.480,16.602,54.199,72.266,33.203,0
1505808956.085,39.062,42.969,57.617,73.242,77.637,0
1505808956.088,63.965,53.223,65.430,89.844,103.027,0
1505808956.092,71.777,25.879,69.336,92.285,77.148,0
1505808956.096,57.617,18.066,49.316,77.637,75.195,0
1505808956.100,58.594,36.133,32.227,75.684,76.172,0
1505808956.104,74.707,51.758,47.363,80.566,76.172,0
1505808956.108,80.566,46.875,48.828,77.148,89.355,0
1505808956.112,69.336,25.879,32.715,77.148,84.961,0
1505808956.116,63.965,30.273,27.832,75.195,83.984,0
1505808956.120,65.918,42.480,39.551,66.406,89.355,0
1505808956.124,75.684,48.340,32.227,75.195,74.219,0
1505808956.127,76.172,45.410,16.602,77.637,55.664,0
1505808956.131,83.984,53.223,23.926,89.844,68.359,0
1505808956.135,88.867,55.176,15.137,94.238,60.059,0
1505808956.139,70.312,18.555,-0.488,70.312,58.594,0
1505808956.143,59.570,24.902,-13.184,56.152,48.340,0
1505808956.147,68.848,42.480,18.066,69.824,35.156,0
1505808956.151,78.125,31.250,41.992,74.707,49.805,0
1505808956.155,72.266,44.922,30.273,64.941,69.336,0
1505808956.159,62.500,59.082,34.180,68.848,44.434,0
1505808956.163,58.594,45.410,32.715,64.453,25.391,0
1505808956.167,74.707,53.711,46.875,72.266,77.637,0
1505808956.170,67.383,52.246,43.457,71.289,79.102,0
1505808956.174,45.898,24.902,22.949,45.410,29.297,0
1505808956.178,59.082,32.227,36.621,49.805,42.480,0
1505808956.182,66.406,23.438,40.039,68.359,78.125,0
1505808956.186,39.062,25.879,20.020,54.688,77.637,0
1505808956.190,37.598,78.613,30.762,50.293,40.039,0
1505808956.194,41.504,91.797,43.457,63.477,27.344,0
1505808956.198,44.434,69.824,43.457,62.500,38.086,0
1505808956.202,54.688,57.617,47.852,73.730,18.066,0
1505808956.206,44.434,40.039,47.363,83.984,42.480,0
1505808956.210,51.270,51.270,62.012,91.797,69.824,0
1505808956.213,47.852,70.312,69.336,95.703,61.523,0
1505808956.217,17.578,34.180,38.574,66.406,37.598,0
1505808956.221,18.066,25.391,20.020,60.059,21.973,0
1505808956.225,40.039,41.016,37.109,84.473,50.781,0
1505808956.229,41.504,33.691,41.504,83.008,78.613,0
1505808956.233,28.320,31.250,26.855,74.707,63.965,0
1505808956.237,36.621,47.363,37.109,82.520,34.668,0
1505808956.241,41.016,56.641,41.016,70.801,20.508,0
1505808956.245,32.227,37.109,30.273,63.477,24.414,0
1505808956.249,31.738,35.645,23.438,65.430,55.664,0
1505808956.252,38.086,61.523,36.133,66.406,45.898,0
1505808956.256,58.594,72.266,50.293,79.102,-4.883,0
1505808956.260,59.570,41.992,27.832,76.660,-7.812,0
1505808956.264,55.664,37.109,17.578,66.895,28.809,0
1505808956.268,62.500,81.055,46.387,78.125,17.090,0
1505808956.272,67.383,83.984,47.363,83.984,31.738,0
1505808956.276,54.688,38.086,37.109,60.547,71.289,0
1505808956.280,32.227,10.254,29.297,47.363,68.359,0
1505808956.284,43.945,38.086,29.297,64.941,41.992,0
1505808956.288,64.453,62.012,42.480,76.172,15.625,0
1505808956.292,37.598,47.363,32.715,47.363,29.297,0
1505808956.295,31.738,51.758,21.973,40.039,52.734,0
1505808956.299,56.641,65.918,49.805,57.617,23.926,0
1505808956.303,39.551,60.059,40.039,48.828,27.832,0
1505808956.307,17.090,45.898,21.484,26.855,78.125,0
1505808956.311,17.090,38.574,40.039,20.996,62.012,0
1505808956.315,5.859,45.410,25.879,10.742,50.293,0
1505808956.319,5.371,53.223,20.996,10.254,71.777,0
1505808956.323,-4.395,37.109,21.484,10.254,93.750,0
1505808956.327,-19.531,35.156,10.254,1.465,97.168,0
1505808956.331,-8.789,56.641,27.344,16.113,30.273,0
1505808956.335,-24.902,35.645,7.324,-5.859,9.277,0
1505808956.338,-32.715,32.227,-4.883,-12.695,57.617,0
1505808956.342,-20.020,62.988,24.902,0.977,57.129,0
1505808956.346,-18.066,51.270,34.668,-0.488,63.477,0
1505808956.350,-17.090,29.297,22.461,0.000,97.168,0
1505808956.354,-22.461,31.738,11.230,-3.906,91.797,0
1505808956.358,-16.113,70.801,21.484,15.625,57.617,0
1505808956.362,-31.738,56.152,29.297,20.508,29.297,0
1505808956.366,-43.945,14.160,21.973,7.324,53.711,0
1505808956.370,-31.250,40.039,10.742,1.953,61.523,0
1505808956.374,-23.438,59.570,9.766,9.277,49.805,0
1505808956.377,-13.672,55.664,25.391,26.855,40.527,0
1505808956.381,-28.809,21.973,10.742,8.789,6.836,0
1505808956.385,-53.711,-15.137,-13.184,-13.672,40.527,0
1505808956.389,-41.504,0.488,0.488,13.672,60.059,0
1505808956.393,-37.598,20.020,2.441,20.020,42.969,0
1505808956.397,-47.363,26.367,5.859,11.230,54.688,0
1505808956.401,-20.996,34.180,41.016,29.297,70.801,0
1505808956.405,-3.418,51.270,74.219,50.293,73.730,0
1505808956.409,-12.207,46.875,72.266,59.570,63.965,0
1505808956.413,-9.277,7.812,56.152,54.199,88.379,0
1505808956.417,-3.906,20.508,58.105,58.105,115.723,0
1505808956.420,-2.441,53.711,71.777,69.824,70.312,0
1505808956.424,-5.859,53.711,65.430,72.266,41.504,0
1505808956.428,-2.930,41.504,63.965,65.918,30.762,0
1505808956.432,-2.441,39.062,71.289,70.312,19.043,0
1505808956.436,10.742,57.617,81.055,83.008,11.230,0
1505808956.440,18.066,49.316,76.660,80.566,36.133,0
1505808956.444,11.230,21.973,83.496,74.707,66.895,0
1505808956.448,42.969,41.016,112.305,108.887,54.688,0
1505808956.452,64.941,69.824,104.492,129.883,52.246,0
1505808956.456,57.617,70.312,101.074,123.047,46.387,0
1505808956.460,65.430,72.754,106.934,131.836,70.801,0
1505808956.463,81.055,71.777,111.328,142.578,104.980,0
1505808956.467,66.406,58.594,100.098,132.812,79.102,0
1505808956.471,59.082,64.453,82.031,126.465,62.988,0
1505808956.475,77.148,62.012,82.031,130.859,82.031,0
1505808956.479,77.637,46.875,89.844,128.418,68.359,0
1505808956.483,68.848,52.246,90.820,126.465,49.805,0
1505808956.487,59.082,42.480,75.684,111.328,70.312,0
1505808956.491,58.105,46.387,72.754,111.328,83.984,0
1505808956.495,79.102,62.500,88.867,134.766,72.754,0
1505808956.499,74.219,62.500,84.961,131.348,49.805,0
1505808956.502,38.086,43.457,81.055,99.609,54.199,0
1505808956.506,41.504,38.574,85.938,101.562,89.355,0
1505808956.510,41.504,38.086,65.430,98.633,90.332,0
1505808956.514,39.062,27.344,61.523,90.820,54.688,0
1505808956.518,49.805,34.180,60.547,99.121,58.105,0
1505808956.522,56.641,56.641,68.848,105.469,86.426,0
1505808956.526,60.547,47.852,75.195,103.516,86.914,0
1505808956.530,67.871,50.293,75.195,107.422,64.941,0
1505808956.534,71.289,71.777,76.660,107.910,83.984,0
1505808956.538,58.594,58.105,70.801,100.098,98.633,0
1505808956.542,50.781,34.668,75.195,98.633,93.262,0
1505808956.545,48.828,32.227,72.754,80.566,70.312,0
1505808956.549,44.434,26.367,65.430,67.871,53.711,0
1505808956.553,44.922,41.016,70.801,83.008,89.355,0
1505808956.557,50.781,71.777,72.266,91.309,96.191,0
1505808956.561,39.062,59.082,53.223,82.520,79.590,0
1505808956.565,30.762,54.199,51.270,68.359,87.891,0
1505808956.569,33.203,53.223,50.781,65.430,67.383,0
1505808956.573,36.133,56.641,45.410,64.453,63.965,0
1505808956.577,40.039,53.223,57.129,63.965,70.312,0
1505808956.581,48.828,37.109,59.082,61.035,67.383,0
1505808956.585,51.270,32.227,58.105,62.988,58.105,0
1505808956.588,25.879,7.324,33.203,51.758,66.406,0
1505808956.592,14.160,10.254,16.113,30.273,89.844,0
1505808956.596,36.621,53.711,33.691,47.363,51.758,0
1505808956.600,61.523,60.547,55.176,68.359,36.621,0
1505808956.604,48.828,41.016,49.805,56.641,67.383,0
1505808956.608,22.949,39.062,37.598,47.852,78.125,0
1505808956.612,32.227,42.480,35.645,60.059,70.312,0
1505808956.616,29.785,44.922,37.598,56.641,59.082,0
1505808956.620,19.531,31.250,27.832,46.875,32.715,0
1505808956.624,11.719,6.348,8.789,33.203,20.508,0
1505808956.627,7.324,8.301,26.855,26.855,39.551,0
1505808956.631,15.625,37.109,40.527,45.898,13.184,0
1505808956.635,8.301,56.152,30.273,42.480,1.465,0
1505808956.639,3.418,55.176,15.625,25.391,54.199,0
1505808956.643,16.113,51.270,17.090,34.180,51.758,0
1505808956.647,26.367,42.969,20.508,39.062,36.133,0
1505808956.651,17.090,40.039,8.789,31.738,67.383,0
1505808956.655,23.926,39.062,-2.441,24.902,44.922,0
1505808956.659,44.434,50.781,30.762,32.227,24.902,0
1505808956.663,38.086,59.082,39.551,34.180,39.062,0
1505808956.667,29.297,53.223,11.719,24.414,56.152,0
1505808956.670,39.062,64.941,17.578,24.414,72.266,0
1505808956.674,46.875,71.777,23.926,29.297,55.176,0
1505808956.678,41.992,75.195,25.391,31.250,41.016,0
1505808956.682,28.809,29.785,24.414,20.020,43.457,0
1505808956.686,27.832,23.438,21.484,17.578,58.594,0
1505808956.690,41.504,63.965,17.090,22.949,76.172,0
1505808956.694,60.059,70.312,24.414,39.062,72.754,0
1505808956.698,42.969,56.641,30.762,37.109,77.148,0
1505808956.702,29.785,27.344,27.344,23.926,88.867,0
1505808956.706,47.852,49.805,22.949,32.227,39.551,0
1505808956.710,47.363,73.730,4.883,35.645,10.742,0
1505808956.713,38.086,64.941,9.766,31.250,56.152,0
1505808956.717,41.504,70.312,35.156,33.203,72.754,0
1505808956.721,28.320,47.852,26.855,23.926,48.340,0
1505808956.725,15.625,28.809,20.996,16.113,35.645,0
1505808956.729,34.180,52.734,22.949,25.879,56.152,0
1505808956.733,49.316,40.527,30.273,37.109,44.922,0
1505808956.737,29.785,43.945,36.621,24.902,31.250,0
1505808956.741,26.367,68.359,55.664,21.973,63.477,0
1505808956.745,17.578,54.688,41.504,13.672,105.469,0
1505808956.749,10.254,47.852,11.719,13.184,90.820,0
1505808956.752,12.207,38.086,25.879,18.066,35.156,0
1505808956.756,-13.184,9.277,16.113,1.953,22.461,0
1505808956.760,-15.625,7.324,4.883,0.977,50.781,0
1505808956.764,4.395,27.344,17.090,19.531,58.105,0
1505808956.768,22.949,44.434,27.344,29.785,49.805,0
1505808956.772,4.883,42.969,16.602,4.883,60.547,0
1505808956.776,11.719,46.875,10.254,1.953,76.172,0
1505808956.780,17.090,34.668,8.301,8.301,53.223,0
1505808956.784,23.438,18.555,4.395,17.578,9.766,0
1505808956.788,50.781,22.949,15.137,43.945,81.543,0
1505808956.792,58.105,12.695,11.719,45.410,114.746,0
1505808956.795,72.754,47.363,20.020,54.199,43.945,0
1505808956.799,76.660,73.242,34.180,63.965,37.109,0
1505808956.803,77.637,51.270,16.113,45.898,58.105,0
1505808956.807,97.656,39.551,3.418,53.223,50.781,0
1505808956.811,107.422,42.969,8.789,74.707,49.805,0
1505808956.815,103.027,49.805,8.789,60.059,71.289,0
1505808956.819,110.840,31.738,19.531,70.312,87.891,0
1505808956.823,114.746,49.805,26.855,87.891,68.848,0
1505808956.827,96.191,60.059,4.883,61.523,38.086,0
1505808956.831,101.562,65.430,17.090,57.617,28.809,0
1505808956.835,100.098,80.078,25.391,65.430,60.059,0
1505808956.838,89.844,59.570,11.230,70.801,77.148,0
1505808956.842,84.473,57.129,10.254,65.430,62.988,0
1505808956.846,74.219,48.340,-11.230,55.664,59.570,0
1505808956.850,76.172,35.156,-13.184,65.430,66.406,0
1505808956.854,83.496,66.406,2.930,75.195,47.363,0
1505808956.858,73.730,80.566,-6.348,65.430,39.062,0
1505808956.862,54.199,44.434,-16.113,53.223,57.129,0
1505808956.866,59.082,33.203,-7.324,62.500,44.922,0
1505808956.870,65.918,36.621,-0.488,65.918,65.918,0
1505808956.874,46.875,20.508,-5.859,63.965,71.777,0
1505808956.877,33.691,36.133,4.883,67.383,60.059,0
1505808956.881,38.574,62.500,17.090,69.824,88.867,0
1505808956.885,46.875,67.871,24.902,73.242,123.535,0
1505808956.889,36.133,55.176,13.672,56.152,80.078,0
1505808956.893,22.949,29.785,-9.277,41.992,42.480,0
1505808956.897,39.062,32.715,15.137,58.594,63.477,0
1505808956.901,51.270,47.852,39.062,71.289,38.086,0
1505808956.905,30.273,34.668,14.648,53.223,29.297,0
1505808956.909,25.391,24.902,16.113,52.734,59.570,0
1505808956.913,45.410,47.363,35.156,72.266,41.016,0
1505808956.917,46.387,60.547,30.762,67.871,22.949,0
1505808956.920,29.297,55.176,23.438,53.223,34.180,0
1505808956.924,23.926,55.664,16.602,53.223,39.062,0
1505808956.928,37.109,42.969,18.555,59.082,62.988,0
1505808956.932,37.109,34.180,17.578,58.105,89.355,0
1505808956.936,30.762,39.551,4.883,48.828,68.848,0
1505808956.940,17.090,52.246,-10.742,39.062,54.199,0
1505808956.944,26.367,63.965,3.418,51.758,49.316,0
1505808956.948,43.457,65.430,27.344,70.801,37.598,0
1505808956.952,20.996,27.832,12.695,54.199,54.688,0
1505808956.956,13.672,4.395,10.742,42.480,68.848,0
1505808956.960,17.090,31.250,19.043,41.504,41.992,0
1505808956.963,10.742,54.688,9.766,42.969,49.805,0
1505808956.967,-4.883,42.969,-0.977,34.180,65.430,0
1505808956.971,-4.395,31.250,-1.953,23.926,57.129,0
1505808956.975,5.859,38.086,3.418,33.691,77.637,0
1505808956.979,-22.461,24.902,-6.836,25.391,106.934,0
1505808956.983,-25.879,22.949,-12.695,17.090,81.055,0
1505808956.987,-17.090,39.062,-9.766,20.020,63.965,0
1505808956.991,-16.602,33.691,9.277,29.785,52.246,0
1505808956.995,-17.578,21.484,17.090,28.320,55.176,0
1505808956.999,-13.184,34.180,14.160,27.832,81.543,0
1505808957.002,4.395,42.480,38.086,43.457,55.176,0
1505808957.006,-2.930,24.414,37.109,43.457,38.574,0
1505808957.010,-7.812,19.043,31.738,38.086,48.340,0
1505808957.014,11.230,49.316,33.203,46.387,83.008,0
1505808957.018,12.695,65.918,25.879,41.992,82.031,0
1505808957.022,5.859,53.711,25.391,29.297,85.938,0
1505808957.026,-3.906,57.129,31.250,34.668,104.004,0
1505808957.030,-7.812,44.922,25.391,33.203,91.309,0
1505808957.034,1.953,32.715,18.555,28.809,87.402,0
1505808957.038,7.324,41.016,30.273,30.762,69.336,0
1505808957.042,11.719,48.340,22.461,33.203,50.781,0
1505808957.045,15.625,33.203,16.113,32.227,68.848,0
1505808957.049,36.621,41.016,31.738,46.875,70.312,0
1505808957.053,45.410,57.129,38.574,55.176,40.039,0
1505808957.057,19.531,41.016,25.879,32.715,61.523,0
1505808957.061,23.926,39.062,32.715,33.203,83.008,0
1505808957.065,34.668,52.246,46.875,41.992,44.434,0
1505808957.069,29.785,63.965,43.457,35.645,60.059,0
1505808957.073,30.273,48.340,24.414,18.555,77.148,0
1505808957.077,31.738,60.547,23.438,22.949,62.012,0
1505808957.081,37.598,72.266,42.969,44.922,47.852,0
1505808957.085,34.668,58.594,36.621,45.410,56.152,0
1505808957.088,26.855,72.754,20.996,40.039,72.266,0
1505808957.092,28.320,83.496,20.996,42.480,73.242,0
1505808957.096,17.090,66.406,24.902,32.227,66.406,0
1505808957.100,6.836,39.062,32.715,24.902,64.453,0
1505808957.104,13.672,42.969,42.969,29.297,57.129,0
1505808957.108,10.254,58.594,40.039,26.855,57.129,0
1505808957.112,5.859,63.477,38.086,26.367,48.828,0
1505808957.116,2.930,64.941,41.016,23.926,41.992,0
1505808957.120,4.883,52.246,51.270,22.461,50.293,0
1505808957.124,21.973,62.012,60.547,34.668,78.125,0
1505808957.127,21.973,62.500,51.270,41.992,98.633,0
1505808957.131,7.324,35.645,44.922,35.156,89.844,0
1505808957.135,15.137,48.340,42.480,40.527,78.125,0
1505808957.139,27.832,54.688,39.062,38.086,86.914,0
1505808957.143,20.508,47.363,39.551,33.691,61.523,0
1505808957.147,12.695,54.688,35.156,31.738,30.273,0
1505808957.151,19.043,37.598,33.203,29.297,67.871,0
1505808957.155,29.297,35.156,41.992,40.039,83.984,0
1505808957.159,25.391,49.805,39.551,34.180,77.637,0
1505808957.163,20.996,50.293,28.809,19.531,63.965,0
1505808957.167,33.691,51.270,44.922,31.250,61.523,0
1505808957.170,46.387,52.734,58.594,59.570,72.754,0
1505808957.174,63.965,61.035,50.293,71.777,76.172,0
1505808957.178,76.172,72.266,42.969,71.777,65.430,0
1505808957.182,75.195,80.566,37.598,70.801,64.941,0
1505808957.186,70.801,70.801,29.297,55.664,88.379,0
1505808957.190,60.059,51.758,33.691,51.758,59.570,0
1505808957.194,51.270,47.363,24.902,49.805,47.363,0
1505808957.198,46.875,33.203,22.461,33.691,56.152,0
1505808957.202,50.781,17.578,39.551,36.133,44.434,0
1505808957.206,41.016,21.973,22.949,23.926,61.035,0
1505808957.210,31.738,40.039,8.789,15.137,71.777,0
1505808957.213,45.898,53.223,24.902,30.273,40.527,0
1505808957.217,45.898,63.965,30.762,23.926,37.598,0
1505808957.221,41.016,61.523,34.180,21.484,39.551,0
1505808957.225,48.340,47.852,36.133,36.621,27.344,0
1505808957.229,51.758,36.133,44.434,38.574,33.203,0
1505808957.233,46.387,49.805,42.480,33.203,56.641,0
1505808957.237,41.504,39.551,22.949,29.785,85.449,0
