timestamps,TP9,AF7,AF8,TP10,Right AUX,Marker0
1505772170.781,75.195,61.035,24.902,70.312,128.418,0
1505772170.785,75.195,70.801,20.020,63.965,122.070,0
1505772170.789,79.102,67.383,13.184,63.965,140.137,0
1505772170.793,84.961,64.453,10.254,69.336,135.742,0
1505772170.797,88.379,64.453,11.230,72.754,135.254,0
1505772170.801,88.867,63.477,11.230,73.242,136.230,0
1505772170.805,91.797,68.359,5.371,75.195,153.809,0
1505772170.809,95.703,70.312,4.883,78.613,151.367,0
1505772170.813,107.910,66.406,11.230,87.891,98.145,0
1505772170.817,103.027,68.848,3.906,78.613,109.375,0
1505772170.821,94.238,72.266,2.441,70.312,133.301,0
1505772170.824,97.656,74.707,12.695,79.102,121.582,0
1505772170.828,84.961,65.918,8.301,72.266,95.215,0
1505772170.832,64.941,56.152,-1.953,57.617,104.004,0
1505772170.836,66.406,61.035,5.371,56.641,113.770,0
1505772170.840,69.824,62.988,20.020,63.477,108.398,0
1505772170.844,67.383,63.477,26.367,62.012,114.746,0
1505772170.848,60.547,60.547,26.855,58.594,141.113,0
1505772170.852,48.828,52.734,23.438,54.688,176.270,0
1505772170.856,63.965,71.289,34.668,62.500,151.367,0
1505772170.860,62.012,63.965,40.527,65.918,132.324,0
1505772170.864,42.480,44.434,29.785,57.129,110.352,0
1505772170.867,37.109,49.805,25.879,53.711,120.117,0
1505772170.871,45.410,59.570,32.227,57.129,130.371,0
1505772170.875,36.621,56.641,29.297,54.688,123.535,0
1505772170.879,20.020,45.898,21.484,48.340,137.695,0
1505772170.883,32.227,54.688,29.785,52.246,117.676,0
1505772170.887,29.785,49.805,34.180,50.293,139.648,0
1505772170.891,24.902,43.457,31.250,47.852,154.297,0
1505772170.895,29.785,43.457,33.203,49.316,164.062,0
1505772170.899,32.227,44.434,35.645,52.246,166.016,0
1505772170.903,30.273,45.410,41.504,60.059,117.676,0
1505772170.906,18.066,31.738,39.062,53.223,106.445,0
1505772170.910,10.254,24.414,33.203,40.527,122.559,0
1505772170.914,20.508,38.574,38.086,52.734,138.672,0
1505772170.918,25.879,46.875,39.551,61.035,157.715,0
1505772170.922,26.855,41.992,36.621,54.688,143.555,0
1505772170.926,38.086,41.992,40.039,66.895,115.723,0
1505772170.930,43.945,49.316,43.945,74.219,124.023,0
1505772170.934,44.434,46.875,38.086,66.895,136.719,0
1505772170.938,47.363,43.945,32.227,61.523,121.094,0
1505772170.942,57.617,49.805,33.203,63.965,150.391,0
1505772170.946,62.012,48.340,30.273,62.012,150.879,0
1505772170.949,60.547,45.410,30.273,59.082,127.441,0
1505772170.953,63.477,43.457,32.715,66.406,130.859,0
1505772170.957,61.035,40.039,31.738,71.289,138.672,0
1505772170.961,68.848,55.176,38.574,83.496,110.352,0
1505772170.965,66.406,60.547,37.109,87.402,108.887,0
1505772170.969,41.016,32.715,25.391,75.684,139.648,0
1505772170.973,41.016,31.738,33.203,83.008,146.973,0
1505772170.977,38.086,43.945,40.039,84.961,159.180,0
1505772170.981,35.645,42.969,39.551,78.613,155.762,0
1505772170.985,41.992,43.945,44.434,83.008,136.230,0
1505772170.989,42.969,38.574,53.711,88.867,142.090,0
1505772170.992,40.039,35.645,59.082,90.332,140.625,0
1505772170.996,33.203,32.227,57.129,85.938,128.906,0
1505772171.000,40.039,29.297,51.758,82.031,147.461,0
1505772171.004,45.410,31.738,61.523,84.473,105.469,0
1505772171.008,32.227,32.227,60.547,79.102,95.215,0
1505772171.012,27.344,24.414,44.434,63.477,110.352,0
1505772171.016,25.391,19.043,41.992,55.664,134.766,0
1505772171.020,23.926,25.879,45.410,59.570,140.137,0
1505772171.024,18.066,20.508,39.551,49.805,138.672,0
1505772171.028,11.719,13.184,37.109,40.527,143.066,0
1505772171.031,11.230,15.625,37.598,45.898,136.719,0
1505772171.035,17.578,32.227,39.062,44.434,147.461,0
1505772171.039,11.719,35.645,35.156,35.156,136.719,0
1505772171.043,4.395,23.438,31.738,27.832,143.555,0
1505772171.047,15.625,30.762,38.086,37.109,131.348,0
1505772171.051,22.949,33.691,42.480,42.480,112.793,0
1505772171.055,22.461,34.180,35.645,39.062,104.492,0
1505772171.059,20.996,35.645,32.227,41.504,116.699,0
1505772171.063,27.344,42.969,35.645,49.316,136.230,0
1505772171.067,27.832,32.715,27.832,44.922,110.352,0
1505772171.071,26.855,23.438,28.320,42.969,99.121,0
1505772171.074,37.109,41.016,31.738,53.223,136.230,0
1505772171.078,48.828,53.711,40.527,65.918,133.301,0
1505772171.082,51.758,55.664,44.434,79.590,117.676,0
1505772171.086,44.922,46.875,28.809,75.195,141.113,0
1505772171.090,45.410,45.410,29.297,72.266,136.719,0
1505772171.094,44.434,45.410,33.203,80.078,139.648,0
1505772171.098,39.062,43.945,29.785,81.055,118.652,0
1505772171.102,42.480,40.527,22.461,67.871,97.656,0
1505772171.106,41.016,36.133,17.090,53.711,118.164,0
1505772171.110,42.969,44.922,26.855,57.617,109.375,0
1505772171.114,50.293,49.805,29.297,60.059,98.145,0
1505772171.117,50.293,42.480,17.578,57.129,97.168,0
1505772171.121,52.734,41.504,14.160,53.711,119.141,0
1505772171.125,52.734,53.223,23.438,61.035,144.531,0
1505772171.129,50.293,54.688,29.297,65.430,134.277,0
1505772171.133,39.551,47.363,26.855,55.176,133.301,0
1505772171.137,20.996,41.504,18.555,37.109,116.211,0
1505772171.141,22.949,37.109,21.484,33.691,93.750,0
1505772171.145,24.414,41.504,21.484,31.738,93.262,0
1505772171.149,10.254,37.109,7.324,21.484,128.906,0
1505772171.153,16.113,41.504,4.883,25.391,148.438,0
1505772171.156,25.391,48.340,10.742,31.738,110.352,0
1505772171.160,20.996,47.852,20.020,33.203,91.309,0
1505772171.164,21.484,48.340,18.066,33.203,136.230,0
1505772171.168,24.902,50.781,24.414,42.480,128.906,0
1505772171.172,30.762,59.570,33.691,47.363,91.797,0
1505772171.176,38.086,62.988,29.297,45.898,131.348,0
1505772171.180,29.785,58.594,28.809,45.898,158.203,0
1505772171.184,24.414,57.617,31.250,43.945,143.066,0
1505772171.188,32.715,57.129,34.668,41.504,126.465,0
1505772171.192,25.879,45.410,27.832,27.832,116.699,0
1505772171.196,26.367,40.527,26.855,26.855,105.957,0
1505772171.199,31.250,48.828,34.668,37.598,104.492,0
1505772171.203,33.203,41.504,28.809,32.715,119.141,0
1505772171.207,27.832,33.691,21.484,24.902,135.742,0
1505772171.211,24.414,36.621,22.949,23.926,122.070,0
1505772171.215,28.320,29.785,29.297,20.508,90.332,0
1505772171.219,23.438,25.391,27.832,19.531,54.199,0
1505772171.223,21.484,26.855,18.066,14.160,66.895,0
1505772171.227,14.648,23.438,18.066,10.742,135.254,0
1505772171.231,17.578,24.414,26.855,18.555,93.750,0
1505772171.235,23.438,20.996,29.297,14.648,43.457,0
1505772171.239,19.043,14.648,18.066,7.812,113.770,0
1505772171.242,20.020,20.508,15.625,19.043,126.953,0
1505772171.246,28.809,21.484,16.113,23.926,99.121,0
1505772171.250,34.180,27.832,16.602,24.414,100.586,0
1505772171.254,28.809,34.668,20.508,34.180,95.215,0
1505772171.258,33.203,32.715,33.691,44.434,102.539,0
1505772171.262,38.574,33.203,35.156,46.387,114.258,0
1505772171.266,43.457,34.180,29.297,51.758,133.301,0
1505772171.270,41.992,32.227,37.109,54.199,145.508,0
1505772171.274,31.738,23.926,36.133,49.805,167.969,0
1505772171.278,36.133,28.809,38.086,57.617,130.859,0
1505772171.281,41.992,24.414,36.621,54.199,101.074,0
1505772171.285,33.691,18.066,25.879,49.805,136.230,0
1505772171.289,28.809,29.297,27.832,53.223,107.910,0
1505772171.293,25.879,31.738,29.297,36.621,89.355,0
1505772171.297,22.949,31.738,20.996,30.273,109.863,0
1505772171.301,21.973,30.273,17.090,34.180,124.512,0
1505772171.305,28.320,27.832,17.090,35.156,108.398,0
1505772171.309,35.645,27.832,10.254,32.715,107.422,0
1505772171.313,33.203,30.273,7.324,25.879,122.559,0
1505772171.317,25.391,20.508,5.371,21.484,125.977,0
1505772171.321,32.227,18.066,2.930,23.438,120.117,0
1505772171.324,37.598,18.555,0.000,16.602,109.863,0
1505772171.328,23.926,14.160,-6.348,10.742,108.398,0
1505772171.332,28.809,25.391,-1.953,14.160,121.094,0
1505772171.336,32.227,32.227,-9.277,9.277,119.141,0
1505772171.340,25.879,23.438,-25.391,1.465,113.281,0
1505772171.344,26.367,15.625,-28.320,-7.324,142.090,0
1505772171.348,30.273,24.902,-21.973,-0.488,133.301,0
1505772171.352,38.086,24.902,-20.996,6.836,88.379,0
1505772171.356,35.156,12.207,-34.180,3.418,100.098,0
1505772171.360,36.621,23.438,-29.785,6.348,111.816,0
1505772171.364,46.875,43.457,-19.043,13.672,128.906,0
1505772171.367,50.781,51.758,-15.625,12.207,114.258,0
1505772171.371,41.504,38.086,-23.438,0.488,57.617,0
1505772171.375,41.504,21.973,-29.297,-7.324,96.680,0
1505772171.379,54.688,36.133,-12.695,2.930,102.051,0
1505772171.383,42.969,47.852,-1.953,11.719,75.195,0
1505772171.387,54.199,51.758,5.859,20.020,85.938,0
1505772171.391,65.430,53.223,8.789,25.391,109.863,0
1505772171.395,64.453,55.664,11.719,28.320,93.750,0
1505772171.399,79.590,63.965,14.160,37.109,75.195,0
1505772171.403,82.031,58.594,15.625,44.922,80.078,0
1505772171.406,73.730,59.082,24.902,51.270,73.242,0
1505772171.410,60.547,67.383,35.156,57.617,87.891,0
1505772171.414,41.504,52.246,26.855,45.898,79.102,0
1505772171.418,25.391,37.598,7.324,17.578,71.289,0
1505772171.422,32.715,34.668,8.301,12.207,83.496,0
1505772171.426,23.438,22.949,12.695,11.230,54.688,0
1505772171.430,18.555,32.227,2.441,9.766,69.336,0
1505772171.434,47.363,26.855,-10.742,19.531,82.031,0
1505772171.438,53.223,6.348,-10.742,17.578,68.848,0
1505772171.442,26.855,11.230,-16.113,3.906,66.406,0
1505772171.446,13.672,20.996,-19.531,0.488,70.312,0
1505772171.449,4.883,16.602,-20.996,-7.324,68.359,0
1505772171.453,-16.602,-7.324,-33.691,-32.227,54.688,0
1505772171.457,-12.207,-16.602,-38.574,-41.016,80.566,0
1505772171.461,-5.859,-25.391,-55.664,-52.734,113.770,0
1505772171.465,-21.973,-40.039,-70.312,-58.594,157.715,0
1505772171.469,-25.391,-56.152,-73.730,-44.922,157.715,0
1505772171.473,-47.852,-70.801,-94.727,-57.129,161.133,0
1505772171.477,-81.543,-87.402,-112.793,-82.031,189.453,0
1505772171.481,-82.520,-82.520,-115.723,-98.633,209.961,0
1505772171.485,-67.871,-64.453,-115.723,-104.004,249.023,0
1505772171.489,-52.246,-53.711,-113.770,-100.098,215.332,0
1505772171.492,-68.848,-54.688,-125.488,-116.699,162.598,0
1505772171.496,-70.801,-85.449,-126.465,-126.465,135.254,0
1505772171.500,-70.801,-83.008,-116.211,-130.859,85.449,0
1505772171.504,-63.965,-53.711,-90.820,-109.375,57.617,0
1505772171.508,-31.738,-66.895,-69.824,-78.613,60.059,0
1505772171.512,-32.715,-53.711,-89.355,-78.125,65.430,0
1505772171.516,-23.438,-30.273,-86.914,-68.848,31.250,0
1505772171.520,-15.137,-28.320,-89.844,-77.637,-18.555,0
1505772171.524,-66.895,-15.625,-108.398,-108.887,-7.812,0
1505772171.528,-56.152,1.953,-83.984,-99.121,47.363,0
1505772171.531,-33.691,9.766,-53.223,-75.684,80.078,0
1505772171.535,-95.215,-18.555,-95.703,-116.699,90.820,0
1505772171.539,-149.902,-66.895,-152.344,-179.199,157.715,0
1505772171.543,-126.953,-60.059,-134.277,-172.852,237.793,0
1505772171.547,-102.539,-27.344,-118.164,-137.207,289.062,0
1505772171.551,-107.910,-5.859,-138.184,-146.484,345.215,0
1505772171.555,-126.465,0.488,-162.598,-153.809,419.922,0
1505772171.559,-151.855,-9.766,-172.852,-140.137,441.406,0
1505772171.563,-143.066,-19.043,-171.875,-132.812,415.527,0
1505772171.567,-152.344,-22.949,-181.641,-155.273,421.875,0
1505772171.571,-167.480,-34.668,-195.801,-184.570,418.457,0
1505772171.574,-179.688,-60.059,-205.566,-202.148,419.434,0
1505772171.578,-194.336,-61.523,-208.496,-207.520,450.684,0
1505772171.582,-265.137,-83.984,-277.832,-271.973,526.855,0
1505772171.586,-366.211,-155.762,-361.328,-350.586,575.195,0
1505772171.590,-362.305,-124.023,-360.840,-342.773,597.168,0
1505772171.594,-317.871,-54.199,-327.148,-302.246,545.898,0
1505772171.598,-289.062,-14.648,-292.480,-262.695,549.316,0
1505772171.602,-262.695,-2.441,-276.855,-241.699,643.066,0
1505772171.606,-246.094,14.648,-272.461,-217.285,652.344,0
1505772171.610,-260.742,24.902,-281.250,-212.402,702.148,0
1505772171.614,-305.176,17.578,-279.297,-229.980,867.188,0
1505772171.617,-285.156,38.086,-246.094,-217.773,981.934,0
1505772171.621,-222.656,60.547,-224.609,-197.754,998.535,0
1505772171.625,-224.609,76.660,-215.820,-170.898,997.070,0
1505772171.629,-243.652,78.125,-213.867,-169.434,999.512,0
1505772171.633,-244.141,71.289,-219.238,-204.102,999.512,0
1505772171.637,-235.840,83.496,-213.379,-192.383,999.512,0
1505772171.641,-212.891,99.121,-203.613,-168.457,999.512,0
1505772171.645,-197.266,113.281,-210.449,-168.457,999.512,0
1505772171.649,-209.961,139.160,-218.750,-160.645,999.512,0
1505772171.653,-214.355,182.617,-192.383,-135.254,999.512,0
1505772171.656,-184.570,209.961,-170.410,-125.488,999.512,0
1505772171.660,-169.434,216.797,-174.805,-135.742,999.512,0
1505772171.664,-156.738,234.863,-150.391,-101.074,999.512,0
1505772171.668,-145.508,259.277,-127.441,-76.172,999.512,0
1505772171.672,-120.117,263.672,-116.211,-66.406,999.512,0
1505772171.676,-112.793,260.742,-103.516,-36.621,999.512,0
1505772171.680,-98.145,274.414,-90.820,-20.508,999.512,0
1505772171.684,-58.594,276.367,-79.102,-14.648,999.512,0
1505772171.688,-41.504,274.414,-77.637,-2.441,999.512,0
1505772171.692,-31.250,280.273,-60.059,20.508,999.512,0
1505772171.696,-19.043,305.176,-22.461,51.758,999.512,0
1505772171.699,-28.320,288.574,-21.484,53.223,999.512,0
1505772171.703,-41.016,254.395,-40.039,31.738,999.512,0
1505772171.707,-15.625,258.301,-24.902,41.504,999.512,1
1505772171.711,0.977,256.836,-10.742,58.105,999.512,0
1505772171.715,10.742,248.047,-8.789,65.918,999.512,0
1505772171.719,26.855,236.816,5.859,67.383,999.512,0
1505772171.723,41.504,232.910,15.625,71.289,999.512,0
1505772171.727,42.969,224.609,5.859,83.008,999.512,0
1505772171.731,28.320,216.797,-3.418,80.566,999.512,0
1505772171.735,28.809,209.961,-11.230,81.543,999.512,0
1505772171.739,57.129,207.520,-6.348,77.148,999.512,0
1505772171.742,91.309,214.844,1.953,63.965,999.512,0
1505772171.746,97.656,201.172,-7.812,45.410,999.512,0
1505772171.750,106.445,187.988,-8.789,44.922,999.512,0
1505772171.754,112.305,179.688,9.766,72.266,999.512,0
1505772171.758,100.586,160.645,16.113,79.590,999.512,0
1505772171.762,89.355,177.246,9.766,56.641,999.512,0
1505772171.766,96.191,214.355,7.324,57.129,999.512,0
1505772171.770,104.004,237.305,17.090,82.031,993.652,0
1505772171.774,100.586,234.375,17.578,78.613,-993.164,0
1505772171.778,115.723,238.770,21.484,75.684,937.500,0
1505772171.781,127.930,242.676,25.391,70.801,745.117,0
1505772171.785,116.699,222.168,25.879,72.754,597.656,0
1505772171.789,96.191,186.035,22.461,70.801,462.402,0
1505772171.793,73.242,161.621,17.578,58.594,335.449,0
1505772171.797,76.660,158.691,17.578,54.688,215.332,0
1505772171.801,66.895,145.020,8.301,39.062,113.281,0
1505772171.805,61.523,136.719,13.672,39.062,-1.953,0
1505772171.809,68.848,131.348,21.484,47.852,-110.840,0
1505772171.813,61.035,138.672,21.484,41.992,-158.691,0
1505772171.817,62.988,165.039,25.391,34.668,-246.582,0
1505772171.821,61.035,170.898,13.672,32.227,-306.641,0
1505772171.824,56.641,170.410,4.395,37.598,-322.266,0
1505772171.828,61.523,170.898,5.371,54.199,-345.215,0
1505772171.832,53.711,172.363,3.418,56.641,-342.285,0
1505772171.836,59.082,176.270,-0.488,31.738,-363.770,0
1505772171.840,58.105,181.152,-1.465,17.090,-390.137,0
1505772171.844,50.781,193.848,8.789,38.086,-418.457,0
1505772171.848,59.570,208.984,23.438,54.199,-468.262,0
1505772171.852,53.711,204.590,6.836,41.016,-456.543,0
1505772171.856,57.617,213.867,-5.859,47.852,-451.172,0
1505772171.860,57.129,220.703,8.789,50.293,-437.988,0
1505772171.864,71.777,232.422,18.066,51.270,-428.223,0
1505772171.867,83.496,246.582,22.461,65.430,-439.453,0
1505772171.871,83.496,248.047,37.598,82.520,-424.316,0
1505772171.875,91.797,255.371,46.875,96.191,-427.734,0
1505772171.879,85.449,259.766,43.945,86.914,-429.199,0
1505772171.883,60.547,242.188,39.551,66.406,-419.434,0
1505772171.887,59.570,232.910,36.133,63.965,-397.461,0
1505772171.891,62.012,239.746,37.598,67.383,-392.578,0
1505772171.895,47.363,223.633,30.762,63.965,-395.020,0
1505772171.899,32.715,213.867,20.508,67.383,-332.520,0
1505772171.903,48.340,237.305,21.484,71.289,-268.555,0
1505772171.906,69.336,255.859,27.832,71.289,-239.258,0
1505772171.910,67.871,260.742,36.621,75.195,-159.180,0
1505772171.914,60.547,254.395,33.691,64.453,-20.996,0
1505772171.918,44.922,234.863,32.227,53.711,84.473,0
1505772171.922,37.598,225.586,24.902,44.922,157.227,0
1505772171.926,31.250,221.680,20.020,39.551,256.836,0
1505772171.930,28.320,226.562,32.227,47.363,347.168,0
1505772171.934,41.504,242.676,45.898,61.523,383.301,0
1505772171.938,76.660,259.277,58.594,73.730,425.781,0
1505772171.942,56.641,247.070,48.340,56.641,522.949,0
1505772171.946,35.156,240.234,43.945,50.781,608.887,0
1505772171.949,46.387,253.906,56.152,69.824,644.043,0
1505772171.953,39.062,250.977,55.664,68.359,677.734,0
1505772171.957,33.203,243.652,50.781,52.734,700.195,0
1505772171.961,32.227,244.629,57.129,48.828,725.098,0
1505772171.965,28.320,252.441,61.035,55.176,756.836,0
1505772171.969,37.109,255.859,57.617,53.711,751.465,0
1505772171.973,37.109,251.465,48.340,52.734,771.484,0
1505772171.977,34.180,244.629,41.992,55.176,808.105,0
1505772171.981,44.434,251.953,53.223,56.641,791.504,0
1505772171.985,37.109,242.676,53.223,63.965,759.277,0
1505772171.989,25.391,218.262,34.668,52.734,802.734,0
1505772171.992,38.574,214.355,36.621,48.340,855.469,0
1505772171.996,34.180,208.008,30.762,48.340,849.609,0
1505772172.000,11.719,185.059,10.742,29.785,881.836,0
1505772172.004,11.230,178.711,9.766,22.461,927.246,0
1505772172.008,15.625,176.758,13.184,32.715,941.895,0
1505772172.012,15.625,165.527,7.812,28.809,980.469,0
1505772172.016,0.000,158.691,6.348,19.531,-998.047,0
1505772172.020,-5.371,153.809,7.812,20.996,998.047,0
1505772172.024,-11.719,144.043,11.719,23.438,999.512,0
1505772172.028,-16.602,138.672,12.207,28.809,999.512,0
1505772172.031,-24.414,126.953,-0.977,10.742,999.512,0
1505772172.035,-34.668,118.164,0.000,6.348,999.512,0
1505772172.039,-24.414,124.512,12.695,24.902,999.512,0
1505772172.043,-13.184,120.605,14.160,21.484,999.512,0
1505772172.047,-18.066,112.305,14.648,14.648,999.023,0
1505772172.051,-27.344,105.469,14.160,19.043,996.094,0
1505772172.055,-19.043,112.305,19.531,30.762,-995.605,0
1505772172.059,-16.113,113.770,25.391,20.508,946.777,0
1505772172.063,-16.602,108.887,25.879,19.043,836.914,0
1505772172.067,-7.812,115.723,32.715,38.574,795.410,0
1505772172.071,1.953,113.281,44.434,50.781,696.289,0
1505772172.074,22.949,108.398,56.641,58.594,543.945,0
1505772172.078,18.555,100.586,52.246,58.105,461.426,0
1505772172.082,5.859,85.449,46.875,55.176,396.973,0
1505772172.086,18.555,82.520,60.547,70.801,322.754,0
1505772172.090,23.926,82.520,62.500,80.078,207.520,0
1505772172.094,26.367,73.730,55.664,76.660,156.250,0
1505772172.098,29.785,78.613,65.430,83.496,136.230,0
1505772172.102,32.227,84.473,70.312,85.449,50.293,0
1505772172.106,24.902,77.637,70.801,85.449,-5.371,0
1505772172.110,27.832,76.660,75.684,91.797,-48.340,0
1505772172.114,43.457,70.312,78.125,106.445,-79.590,0
1505772172.117,34.180,64.941,81.055,109.375,-119.141,0
1505772172.121,19.043,68.359,85.938,104.004,-212.402,0
1505772172.125,40.039,89.844,98.145,119.141,-236.816,0
1505772172.129,74.707,121.582,116.211,138.672,-256.836,0
1505772172.133,87.891,116.211,122.559,139.648,-312.500,0
1505772172.137,73.242,104.004,108.398,133.301,-327.148,0
1505772172.141,79.590,107.422,101.074,134.766,-346.680,0
1505772172.145,94.238,108.398,109.375,140.137,-389.160,0
1505772172.149,88.379,96.191,101.074,137.207,-406.250,0
1505772172.153,82.520,94.727,88.379,124.023,-406.250,0
1505772172.156,74.707,97.656,90.332,114.258,-395.996,0
1505772172.160,97.168,100.586,93.262,128.418,-407.227,0
1505772172.164,100.098,103.516,90.332,124.023,-443.848,0
1505772172.168,79.590,88.867,77.148,107.910,-476.562,0
1505772172.172,97.168,87.402,82.031,127.930,-496.094,0
1505772172.176,114.746,88.867,87.402,135.742,-539.062,0
1505772172.180,99.121,82.031,78.125,127.930,-550.293,0
1505772172.184,98.145,79.590,77.148,127.930,-524.414,0
1505772172.188,112.305,79.590,77.637,122.559,-517.578,0
1505772172.192,103.516,75.195,73.242,114.258,-553.711,0
1505772172.196,110.352,73.730,69.824,117.188,-558.594,0
1505772172.199,124.023,73.242,66.895,121.094,-543.457,0
1505772172.203,106.934,81.543,73.730,122.070,-566.406,0
1505772172.207,100.586,90.332,78.613,118.164,-537.109,0
1505772172.211,112.305,85.449,71.289,117.676,-518.555,0
1505772172.215,104.492,75.195,72.754,110.840,-542.969,0
1505772172.219,100.098,62.500,67.383,105.469,-538.574,0
1505772172.223,109.863,73.730,67.383,109.863,-590.332,0
1505772172.227,95.215,80.566,73.730,102.051,-577.637,0
1505772172.231,89.355,55.664,68.359,101.074,-537.598,0
1505772172.235,94.727,54.199,69.824,104.004,-581.543,0
1505772172.239,92.773,69.336,67.871,84.473,-619.141,0
1505772172.242,80.566,72.754,62.012,66.406,-588.379,0
1505772172.246,70.312,74.219,72.266,75.684,-567.871,0
1505772172.250,76.660,65.918,76.172,78.125,-593.262,0
1505772172.254,79.590,66.895,74.707,78.613,-587.891,0
1505772172.258,80.078,75.195,77.637,82.031,-550.293,0
1505772172.262,88.867,78.613,68.848,87.402,-542.480,0
1505772172.266,97.168,81.055,74.707,107.910,-571.289,0
1505772172.270,82.031,65.430,75.684,96.191,-590.820,0
1505772172.274,67.383,64.941,63.477,83.984,-564.453,0
1505772172.278,80.566,85.449,71.777,105.469,-567.871,0
1505772172.281,92.285,87.891,69.824,93.262,-563.477,0
1505772172.285,75.195,83.008,62.988,81.543,-564.453,0
1505772172.289,52.734,87.891,64.941,91.797,-570.801,0
1505772172.293,58.594,100.586,71.777,99.121,-561.035,0
1505772172.297,76.660,91.797,69.336,96.191,-587.891,0
1505772172.301,70.801,76.172,60.547,89.844,-590.332,0
1505772172.305,53.223,72.754,54.688,82.031,-542.969,0
1505772172.309,62.012,78.613,47.852,79.590,-538.086,0
1505772172.313,81.055,96.680,52.734,86.426,-582.520,0
1505772172.317,68.359,76.660,41.504,76.172,-600.586,0
1505772172.321,65.918,65.918,28.320,61.523,-581.543,0
1505772172.324,75.684,74.707,41.992,74.707,-565.430,0
1505772172.328,66.406,63.965,49.805,79.590,-564.941,0
1505772172.332,69.336,69.336,53.711,76.172,-540.527,0
1505772172.336,68.848,69.336,48.828,75.195,-533.203,0
1505772172.340,61.523,71.777,41.504,69.336,-562.988,0
1505772172.344,63.965,76.172,34.668,66.895,-570.312,0
1505772172.348,57.617,70.801,29.785,59.082,-520.020,0
1505772172.352,59.082,80.566,36.133,63.477,-505.371,0
1505772172.356,67.871,84.473,41.504,73.730,-556.641,0
1505772172.360,73.730,79.102,47.363,72.754,-559.570,0
1505772172.364,65.918,75.195,42.480,60.059,-529.785,0
1505772172.367,51.270,76.172,39.062,49.316,-527.832,0
1505772172.371,50.781,63.477,38.086,49.805,-538.086,0
1505772172.375,47.363,50.781,36.621,49.316,-530.762,0
1505772172.379,55.176,64.941,47.363,60.059,-523.926,0
1505772172.383,62.012,72.754,47.363,58.105,-514.648,0
1505772172.387,48.828,71.777,25.391,27.832,-506.836,0
1505772172.391,47.852,74.707,27.344,30.762,-496.582,0
1505772172.395,53.711,82.031,38.574,40.527,-488.770,0
1505772172.399,55.664,83.008,37.109,36.621,-490.723,0
1505772172.403,48.828,73.242,45.898,40.527,-499.512,0
1505772172.406,48.828,68.848,44.922,42.969,-504.395,0
1505772172.410,51.758,66.895,43.457,47.363,-483.398,0
1505772172.414,48.340,71.289,55.176,57.129,-473.145,0
1505772172.418,41.016,71.289,57.129,56.152,-483.398,0
1505772172.422,43.457,60.059,50.781,56.641,-469.727,0
1505772172.426,60.059,64.453,58.594,78.613,-460.938,0
1505772172.430,56.641,63.965,54.199,77.148,-494.141,0
1505772172.434,50.781,66.406,42.969,69.336,-476.562,0
1505772172.438,61.035,69.336,38.086,68.848,-470.215,0
1505772172.442,86.914,71.289,36.133,74.219,-474.609,0
1505772172.446,96.191,71.289,41.016,73.242,-459.961,0
1505772172.449,81.543,65.918,41.992,68.359,-486.816,0
1505772172.453,80.078,63.965,23.438,80.078,-466.309,0
1505772172.457,95.703,75.684,20.508,92.773,-450.684,0
1505772172.461,113.281,87.891,30.273,103.516,-473.145,0
1505772172.465,110.840,77.148,22.949,100.586,-479.004,0
1505772172.469,101.562,68.848,14.160,95.703,-459.473,0
1505772172.473,103.516,69.824,16.602,105.469,-458.008,0
1505772172.477,99.121,72.754,19.531,98.633,-471.191,0
1505772172.481,104.004,77.637,19.531,97.168,-465.820,0
1505772172.485,118.652,82.520,18.555,100.586,-454.102,0
1505772172.489,112.793,85.449,28.320,107.422,-403.809,0
1505772172.492,107.910,83.008,33.203,119.141,-425.781,0
1505772172.496,108.398,65.918,17.090,91.309,-486.816,0
1505772172.500,109.375,57.617,11.230,75.684,-451.172,0
1505772172.504,109.863,68.359,17.090,88.379,-435.059,0
1505772172.508,104.980,72.754,18.555,83.984,-450.195,0
1505772172.512,99.121,65.430,14.648,80.078,-433.594,0
1505772172.516,90.332,63.477,12.207,74.219,-405.762,0
1505772172.520,85.449,75.684,20.996,76.172,-429.688,0
1505772172.524,78.613,59.570,14.648,66.406,-448.242,0
1505772172.528,64.941,40.527,6.348,50.293,-415.039,0
1505772172.531,60.059,55.664,16.602,57.129,-422.363,0
1505772172.535,85.449,71.777,26.855,62.012,-392.578,0
1505772172.539,84.473,62.988,24.902,56.641,-370.117,0
1505772172.543,65.430,58.594,18.555,52.246,-395.020,0
1505772172.547,81.055,72.266,21.484,62.988,-369.141,0
1505772172.551,81.543,70.801,21.973,55.664,-375.000,0
1505772172.555,65.918,67.383,24.902,50.293,-378.906,0
1505772172.559,69.336,65.430,30.762,61.523,-368.164,0
1505772172.563,76.172,66.895,37.598,66.895,-369.141,0
1505772172.567,68.359,65.430,44.434,67.383,-381.836,0
1505772172.571,57.617,50.781,29.297,53.711,-354.004,0
1505772172.574,43.945,39.551,16.602,46.875,-322.266,0
1505772172.578,41.016,50.781,28.320,56.641,-318.848,0
1505772172.582,60.547,67.383,38.574,68.359,-320.312,0
1505772172.586,76.660,62.500,30.273,71.777,-299.316,0
1505772172.590,86.426,51.270,33.691,70.312,-311.523,0
1505772172.594,96.191,66.895,50.781,77.637,-347.656,0
1505772172.598,62.988,90.820,55.176,77.637,-331.055,0
1505772172.602,62.500,86.914,50.293,68.359,-294.922,0
1505772172.606,94.238,81.543,54.688,86.914,-288.086,0
1505772172.610,75.195,79.590,60.059,94.727,-312.012,0
1505772172.614,69.336,78.125,58.105,81.055,-321.777,0
1505772172.617,79.590,80.566,51.758,74.707,-302.246,0
1505772172.621,94.238,85.449,56.641,85.938,-287.109,0
1505772172.625,93.750,88.867,62.500,85.449,-293.457,0
1505772172.629,76.172,77.148,59.570,64.941,-305.664,0
1505772172.633,81.543,65.918,52.246,71.289,-279.785,0
1505772172.637,84.961,66.895,38.086,74.219,-241.211,0
1505772172.641,74.219,69.336,44.434,69.336,-267.578,0
1505772172.645,77.637,72.754,51.758,71.289,-310.059,0
1505772172.649,85.938,64.453,37.598,61.523,-297.363,0
1505772172.653,82.031,59.570,41.504,53.223,-272.949,0
1505772172.656,75.195,67.871,42.480,59.570,-304.199,0
1505772172.660,54.199,61.523,38.574,37.598,-310.059,0
1505772172.664,54.688,51.270,36.621,34.180,-260.254,0
1505772172.668,83.008,52.246,34.180,58.105,-294.922,0
1505772172.672,62.988,48.828,32.715,44.434,-343.750,0
1505772172.676,38.086,43.945,28.320,28.809,-302.734,0
1505772172.680,33.691,34.180,25.391,13.184,-254.395,0
1505772172.684,40.527,32.227,22.461,22.949,-260.742,0
1505772172.688,34.668,45.898,23.438,22.949,-269.043,0
1505772172.692,44.922,45.898,21.484,-2.441,-264.648,0
1505772172.696,42.969,33.203,7.812,-4.395,-260.742,0
1505772172.699,30.762,31.250,18.066,10.742,-272.461,0
1505772172.703,9.766,44.434,37.598,8.789,-296.875,0
1505772172.707,-16.602,51.758,61.523,-32.227,-281.250,0
1505772172.711,62.500,51.270,24.414,21.484,-269.043,0
1505772172.715,92.285,52.246,2.441,50.293,-277.344,0
1505772172.719,7.324,37.109,20.020,-14.648,-269.531,0
1505772172.723,-46.387,30.762,-1.465,-28.320,-269.531,0
1505772172.727,-18.066,31.738,38.086,-20.996,-249.023,0
1505772172.731,4.395,29.785,28.809,-17.090,-254.883,0
1505772172.735,-33.203,24.414,-7.324,-42.969,-277.344,0
1505772172.739,30.762,17.578,-6.348,-6.348,-247.559,0
1505772172.742,81.543,25.391,-8.301,47.363,-243.164,0
1505772172.746,19.531,17.090,9.277,-8.301,-218.262,0
1505772172.750,-61.523,7.812,82.520,-63.477,-224.609,0
1505772172.754,-0.977,33.691,6.348,-12.207,-273.438,0
1505772172.758,88.379,11.719,-32.227,59.570,-245.605,0
1505772172.762,-15.137,16.602,23.926,-16.602,-239.746,0
1505772172.766,25.391,55.176,-46.875,-15.625,-257.812,0
1505772172.770,88.379,7.324,8.301,42.480,-223.633,0
1505772172.774,104.004,8.301,13.184,61.035,-186.035,0
1505772172.778,120.605,45.410,-39.062,89.355,-233.398,0
1505772172.781,77.637,29.297,3.418,31.738,-252.441,0
1505772172.785,38.574,3.906,66.406,0.000,-227.539,0
1505772172.789,47.852,32.227,37.109,41.504,-247.559,0
1505772172.793,120.117,37.598,-9.277,74.707,-245.605,0
1505772172.797,106.934,38.574,-19.043,71.777,-224.121,0
1505772172.801,13.184,19.531,94.727,-7.812,-245.117,0
1505772172.805,54.688,22.949,49.805,11.230,-235.352,0
1505772172.809,117.188,40.039,-42.969,69.824,-202.148,0
1505772172.813,60.547,4.883,24.414,31.250,-228.027,0
1505772172.817,14.648,17.578,0.000,-7.812,-209.473,0
1505772172.821,14.648,55.664,-3.418,-7.812,-190.918,0
1505772172.824,65.918,26.367,-9.766,26.367,-231.445,0
1505772172.828,56.641,-19.531,-44.434,32.227,-244.629,0
1505772172.832,18.555,-23.438,-32.715,1.465,-216.309,0
1505772172.836,42.480,-23.438,-30.273,-11.230,-193.848,0
1505772172.840,28.809,-22.461,-41.992,-22.461,-199.707,0
1505772172.844,3.906,-20.996,-34.668,-36.621,-180.176,0
1505772172.848,8.789,-5.859,-24.902,-15.625,-180.176,0
1505772172.852,-20.508,-5.371,-12.695,-17.578,-199.219,0
1505772172.856,-58.105,-6.836,-23.438,-71.777,-175.293,0
1505772172.860,-75.684,-0.488,-29.785,-82.031,-181.641,0
1505772172.864,-65.918,-17.578,-2.441,-56.152,-160.156,0
1505772172.867,3.418,-31.250,4.395,-25.879,-104.980,0
1505772172.871,-11.719,-26.367,-21.973,-1.465,-139.160,0
1505772172.875,-18.066,-17.578,-10.254,8.789,-168.945,0
1505772172.879,28.809,-8.789,12.207,14.160,-171.875,0
1505772172.883,7.812,-8.301,29.297,6.348,-159.668,0
1505772172.887,-1.953,-13.672,37.109,27.344,-159.180,0
1505772172.891,14.160,-5.371,24.414,48.340,-153.320,0
1505772172.895,25.879,-7.324,32.227,42.969,-136.230,0
1505772172.899,18.066,-10.742,48.828,40.039,-142.090,0
1505772172.903,11.230,-10.742,58.105,63.965,-119.141,0
1505772172.906,11.719,-4.395,70.312,59.570,-93.262,0
1505772172.910,23.438,7.812,80.078,74.219,-97.656,0
1505772172.914,19.043,-4.883,69.336,70.312,-99.121,0
1505772172.918,-6.348,-21.484,49.316,37.109,-119.141,0
1505772172.922,37.109,-11.719,51.270,65.918,-117.188,0
1505772172.926,35.645,-0.977,57.617,73.242,-118.164,0
1505772172.930,-4.395,-13.672,49.316,42.969,-158.691,0
1505772172.934,-0.488,-25.391,48.828,60.547,-200.684,0
1505772172.938,8.301,-20.020,59.570,80.566,-228.027,0
1505772172.942,11.719,-17.090,61.523,74.219,-265.625,0
1505772172.946,-16.113,-16.602,61.035,52.246,-317.871,0
1505772172.949,6.348,-7.812,63.477,61.035,-381.348,0
1505772172.953,41.504,5.859,65.430,66.406,-450.684,0
1505772172.957,46.875,9.277,63.477,68.359,-479.492,0
1505772172.961,18.066,7.324,61.035,65.430,-509.277,0
1505772172.965,1.953,3.906,62.012,54.688,-575.195,0
1505772172.969,40.527,3.906,69.336,69.336,-655.273,0
1505772172.973,43.457,14.648,76.172,85.449,-767.090,0
1505772172.977,6.836,8.301,60.059,51.758,-815.430,2
1505772172.981,28.809,14.160,58.594,36.133,-839.844,0
1505772172.985,36.621,20.508,62.988,70.801,-897.461,0
1505772172.989,18.555,13.184,56.152,53.223,-933.105,0
1505772172.992,4.883,4.883,48.340,23.438,-962.402,0
1505772172.996,4.883,-2.930,48.828,43.945,-967.773,0
1505772173.000,9.277,6.836,55.176,57.617,-966.309,0
1505772173.004,-6.348,12.695,52.734,49.316,-967.285,0
1505772173.008,-18.555,0.488,45.898,23.926,-967.285,0
1505772173.012,-27.344,-11.719,44.922,26.367,-966.797,0
1505772173.016,-26.367,3.418,53.223,38.574,-966.797,0
1505772173.020,-8.301,5.371,49.316,41.016,-966.797,0
1505772173.024,-9.277,-7.812,36.133,42.969,-967.285,0
1505772173.028,-8.789,8.301,41.992,26.367,-967.285,0
1505772173.031,5.859,11.230,51.758,36.133,-967.285,0
1505772173.035,-0.488,4.883,44.922,59.082,-967.285,0
1505772173.039,-8.789,4.395,32.715,57.617,-967.285,0
1505772173.043,-2.930,5.371,47.363,58.105,-967.285,0
1505772173.047,3.906,7.812,57.129,62.012,-967.285,0
1505772173.051,13.184,12.207,53.711,86.914,-967.285,0
1505772173.055,23.926,13.184,47.363,86.914,-967.285,0
1505772173.059,29.785,6.348,43.457,81.055,-967.285,0
1505772173.063,22.949,2.441,46.387,83.496,-966.797,0
1505772173.067,-11.230,-2.930,33.691,66.895,-965.820,0
1505772173.071,-4.395,0.977,31.738,64.941,-970.703,0
1505772173.074,33.203,12.695,39.062,66.895,-941.406,0
1505772173.078,39.062,10.254,40.527,81.543,-891.113,0
1505772173.082,57.617,10.254,38.086,82.520,-902.344,0
1505772173.086,66.406,14.648,34.180,79.590,-916.504,0
1505772173.090,59.082,14.648,37.598,84.473,-918.457,0
1505772173.094,62.012,22.461,40.039,90.820,-941.895,0
1505772173.098,69.824,27.344,46.387,95.703,-950.684,0
1505772173.102,76.172,29.785,41.992,77.637,-963.379,0
1505772173.106,60.547,28.320,46.875,77.637,-967.773,0
1505772173.110,50.293,20.020,45.898,84.961,-966.309,0
1505772173.114,43.945,16.602,25.879,61.523,-967.285,0
1505772173.117,45.410,18.066,26.855,63.965,-967.285,0
1505772173.121,52.734,18.066,31.738,69.824,-966.797,0
1505772173.125,44.922,18.066,29.785,65.918,-966.797,0
1505772173.129,32.715,17.578,20.508,58.594,-967.285,0
1505772173.133,55.176,23.926,26.855,50.781,-967.285,0
1505772173.137,66.895,30.273,39.062,60.547,-966.797,0
1505772173.141,40.039,34.668,32.227,56.152,-967.285,0
1505772173.145,33.691,25.879,37.109,46.387,-967.285,0
1505772173.149,46.387,21.484,36.621,56.641,-967.285,0
1505772173.153,58.105,39.062,33.691,66.406,-967.285,0
1505772173.156,50.293,34.180,24.414,57.617,-967.285,0
1505772173.160,40.039,31.738,27.344,51.270,-966.797,0
1505772173.164,55.176,38.086,35.156,45.898,-966.797,0
1505772173.168,67.383,35.645,32.227,50.781,-967.285,0
1505772173.172,57.129,36.621,33.203,49.805,-967.285,0
1505772173.176,52.734,48.828,39.062,73.730,-966.797,0
1505772173.180,67.383,60.547,48.828,83.496,-966.797,0
1505772173.184,70.312,59.570,56.152,70.312,-966.797,0
1505772173.188,65.430,54.199,51.758,69.824,-966.797,0
1505772173.192,82.520,61.523,41.992,73.730,-967.285,0
1505772173.196,87.891,66.406,45.898,88.867,-967.285,0
1505772173.199,88.379,52.734,41.016,78.613,-967.285,0
1505772173.203,66.406,39.551,26.367,62.012,-966.797,0
1505772173.207,49.805,48.340,39.551,63.477,-967.285,0
1505772173.211,56.152,52.246,41.016,63.965,-967.285,0
1505772173.215,43.457,44.434,48.828,69.824,-966.797,0
1505772173.219,38.086,41.504,56.641,71.777,-966.797,0
1505772173.223,50.293,40.039,52.734,70.801,-966.797,0
1505772173.227,57.617,39.062,49.316,71.289,-967.285,0
1505772173.231,61.523,38.574,52.734,73.730,-967.285,0
1505772173.235,61.035,39.062,57.129,83.984,-967.285,0
1505772173.239,59.570,46.875,55.176,88.379,-967.285,0
1505772173.242,65.430,43.945,45.410,83.496,-967.285,0
1505772173.246,53.223,30.273,41.016,79.590,-966.797,0
1505772173.250,59.570,33.203,40.039,81.543,-966.797,0
1505772173.254,72.754,41.016,46.875,92.285,-967.285,0
1505772173.258,69.336,35.645,47.363,87.891,-967.285,0
1505772173.262,50.293,33.691,37.109,74.219,-964.844,0
1505772173.266,33.691,33.691,32.227,71.289,-970.215,0
1505772173.270,52.734,32.715,40.527,77.637,-945.801,0
1505772173.274,50.781,23.926,37.109,72.754,-882.324,0
1505772173.278,33.691,11.719,26.855,52.734,-837.402,0
1505772173.281,35.645,3.906,14.160,51.758,-785.156,0
1505772173.285,44.434,9.766,19.043,60.547,-706.543,0
1505772173.289,44.434,12.207,31.738,63.965,-673.828,0
1505772173.293,33.203,-4.395,25.879,56.641,-672.363,0
1505772173.297,41.992,-2.930,27.832,49.805,-661.133,0
1505772173.301,50.293,12.695,36.621,59.082,-683.105,0
1505772173.305,39.551,16.602,41.016,62.500,-661.133,0
1505772173.309,39.062,21.973,45.410,71.289,-595.215,0
1505772173.313,54.688,34.180,58.105,83.496,-603.027,0
1505772173.317,55.176,28.320,47.852,80.566,-602.539,0
1505772173.321,60.547,28.320,31.738,79.590,-559.570,0
1505772173.324,71.289,21.484,39.551,84.473,-558.594,0
1505772173.328,64.453,19.531,44.922,83.008,-557.129,0
1505772173.332,60.059,35.156,42.969,79.590,-527.344,0
1505772173.336,53.711,30.273,42.969,75.195,-519.531,0
1505772173.340,58.594,30.273,41.992,75.195,-494.141,0
1505772173.344,72.266,33.691,47.852,78.613,-500.488,0
1505772173.348,85.938,46.875,60.059,93.262,-541.992,0
1505772173.352,81.543,47.852,60.059,99.609,-536.133,0
1505772173.356,69.336,40.527,56.641,93.262,-485.840,0
1505772173.360,86.914,61.035,66.406,112.793,-493.164,0
1505772173.364,83.984,59.082,72.266,114.258,-503.418,0
1505772173.367,53.711,37.598,64.453,88.379,-477.539,0
1505772173.371,42.480,46.387,55.176,77.637,-492.188,0
1505772173.375,39.062,58.594,48.340,63.965,-471.191,0
1505772173.379,30.762,58.105,46.387,54.199,-427.734,0
1505772173.383,9.766,54.199,33.203,37.109,-393.066,0
1505772173.387,3.418,48.828,16.113,24.902,-378.418,0
1505772173.391,9.766,55.664,28.320,29.785,-404.785,0
1505772173.395,-5.859,47.852,29.297,9.766,-411.621,0
1505772173.399,-30.762,33.691,20.508,-13.672,-351.562,0
1505772173.403,-34.180,40.527,31.738,-9.766,-317.383,0
1505772173.406,-17.578,46.387,23.926,-6.348,-310.059,0
1505772173.410,-15.625,58.594,19.043,-6.836,-313.965,0
1505772173.414,-28.809,61.035,17.090,-18.066,-288.574,0
1505772173.418,-44.434,51.270,4.395,-30.273,-241.699,0
1505772173.422,-42.969,38.086,6.836,-36.133,-203.125,0
1505772173.426,-39.551,28.320,18.555,-35.645,-169.434,0
1505772173.430,-41.992,49.316,12.207,-35.645,-150.391,0
1505772173.434,-23.926,53.711,10.742,-36.621,-115.723,0
1505772173.438,8.301,74.707,31.738,-6.836,-118.652,0
1505772173.442,-26.367,75.195,30.762,-35.645,-98.145,0
1505772173.446,-78.125,33.691,23.926,-78.613,-38.574,0
1505772173.449,-49.316,45.410,27.344,-56.152,-29.297,0
1505772173.453,-25.879,53.223,32.227,-41.504,-14.160,0
1505772173.457,-38.574,48.340,17.090,-55.664,38.086,0
1505772173.461,-36.133,36.133,23.438,-68.848,80.078,0
1505772173.465,-35.645,38.574,11.719,-33.203,66.895,0
1505772173.469,-16.113,44.434,17.090,-10.742,44.434,0
1505772173.473,-13.184,21.973,38.574,-32.227,113.770,0
1505772173.477,-20.508,31.738,14.648,-38.574,142.090,0
1505772173.481,3.906,52.246,12.207,-19.531,125.488,3
1505772173.485,-16.113,30.762,22.949,-31.738,154.297,0
1505772173.489,-64.941,1.465,29.297,-90.820,178.711,0
1505772173.492,-45.898,20.996,-16.602,-57.617,203.125,0
1505772173.496,-30.762,8.789,4.395,-43.945,220.215,0
1505772173.500,-20.508,-12.207,12.695,-45.410,231.445,0
1505772173.504,-18.066,-12.695,-12.207,-38.086,263.672,0
1505772173.508,-42.969,-25.391,7.324,-63.477,283.203,0
1505772173.512,-42.480,-27.344,-22.949,-40.039,286.621,0
1505772173.516,-38.574,-32.227,-70.312,-28.320,299.805,0
1505772173.520,-72.266,-57.129,-22.461,-52.734,341.797,0
1505772173.524,-74.219,-49.805,63.477,-64.941,369.629,0
1505772173.528,-20.996,-22.949,-29.785,-41.504,324.707,0
1505772173.531,-51.270,-61.035,-33.203,-61.035,314.941,0
1505772173.535,-85.938,-55.664,-17.090,-44.922,350.098,0
1505772173.539,-52.246,-20.996,-43.457,6.836,342.285,0
1505772173.543,-27.832,-39.551,37.109,1.953,327.637,0
1505772173.547,-67.871,-38.574,21.973,-19.043,343.750,0
1505772173.551,-39.062,-22.461,-38.574,6.836,386.719,0
1505772173.555,8.789,-41.504,-47.852,-4.883,386.230,0
1505772173.559,-79.590,-70.312,5.371,-58.594,393.555,0
1505772173.563,-68.359,-102.539,62.988,-45.410,400.879,0
1505772173.567,-20.020,-56.152,-55.176,-11.719,416.992,0
1505772173.571,2.441,-36.133,-85.938,11.230,406.738,0
1505772173.574,-14.160,-81.543,27.344,-18.555,409.668,0
1505772173.578,-58.594,-61.523,38.574,-25.879,447.266,0
1505772173.582,-9.277,-30.273,-41.504,10.254,422.363,0
1505772173.586,3.418,-36.133,-57.129,27.832,412.598,0
1505772173.590,-15.625,-58.105,2.441,16.113,425.781,0
1505772173.594,-4.883,-66.895,64.453,-21.484,427.734,0
1505772173.598,53.711,-18.555,43.457,28.320,426.270,0
1505772173.602,66.895,-1.953,39.551,81.055,432.617,0
1505772173.606,12.695,8.301,54.688,36.133,431.152,0
1505772173.610,6.836,45.898,58.594,32.227,428.711,0
1505772173.614,-38.574,10.742,103.516,-14.648,436.523,0
1505772173.617,2.930,-4.395,15.625,1.953,431.641,0
1505772173.621,182.617,-9.766,-53.223,156.250,410.156,0
1505772173.625,146.484,-8.301,-0.977,141.602,440.918,0
1505772173.629,91.797,13.184,42.480,96.191,420.898,0
1505772173.633,93.262,21.484,40.039,81.543,426.270,0
1505772173.637,58.105,29.785,48.828,63.477,465.820,0
1505772173.641,39.551,52.246,96.680,58.594,449.707,0
1505772173.645,2.930,95.703,95.215,69.336,445.312,0
1505772173.649,22.949,66.895,96.680,33.691,420.898,0
1505772173.653,34.180,38.574,101.562,-18.066,422.852,0
1505772173.656,-51.758,61.523,127.441,12.695,443.848,0
1505772173.660,25.391,65.430,168.457,76.172,471.191,0
1505772173.664,135.742,85.449,79.590,117.676,457.031,0
1505772173.668,139.648,81.543,-5.859,106.445,445.312,0
1505772173.672,98.633,115.723,94.727,131.348,467.285,0
1505772173.676,132.812,90.332,167.969,145.508,439.453,0
1505772173.680,136.230,57.617,164.062,115.234,430.176,0
1505772173.684,95.703,116.699,120.117,132.324,440.430,0
1505772173.688,147.461,116.699,91.309,152.832,427.734,0
1505772173.692,111.816,113.281,85.449,131.836,426.270,0
1505772173.696,109.375,101.074,88.379,108.398,448.730,0
1505772173.699,140.625,60.059,62.012,115.234,447.266,0
1505772173.703,144.043,77.148,-4.395,174.805,417.480,0
1505772173.707,109.375,84.961,113.281,123.047,417.969,0
1505772173.711,45.410,100.586,130.859,55.664,423.340,0
1505772173.715,96.680,45.410,107.910,70.312,402.832,0
1505772173.719,144.043,50.781,111.816,104.004,412.109,0
1505772173.723,102.539,90.820,36.621,96.191,405.762,0
1505772173.727,87.402,60.547,90.332,78.125,392.578,0
1505772173.731,55.664,99.121,83.984,98.145,391.113,0
1505772173.735,92.285,116.211,72.754,95.215,367.676,0
1505772173.739,180.664,77.637,102.051,158.691,339.355,0
1505772173.742,110.840,98.145,96.680,128.418,353.516,0
1505772173.746,128.906,117.676,60.059,112.305,365.723,0
1505772173.750,144.531,106.445,69.336,134.277,354.004,0
1505772173.754,123.535,64.453,148.926,104.980,381.836,0
1505772173.758,90.332,77.637,95.215,76.660,386.230,0
1505772173.762,120.117,56.152,47.852,105.469,367.188,0
1505772173.766,117.676,70.801,102.539,133.789,337.402,0
1505772173.770,128.418,80.078,50.781,128.418,315.430,0
1505772173.774,122.559,33.203,53.711,105.957,353.516,0
1505772173.778,104.980,60.547,79.590,124.023,345.215,0
1505772173.781,118.164,93.262,110.840,130.371,311.523,0
1505772173.785,60.059,72.266,97.656,28.320,311.523,0
1505772173.789,110.840,45.410,5.859,75.684,354.492,0
1505772173.793,148.438,42.969,6.348,139.160,371.094,0
1505772173.797,128.906,46.387,66.406,100.586,336.914,0
1505772173.801,107.422,43.945,86.426,106.934,333.496,0
1505772173.805,59.082,31.738,31.250,88.379,376.953,0
1505772173.809,103.027,48.340,50.781,97.656,384.766,0
1505772173.813,130.371,57.617,86.426,128.906,349.121,0
1505772173.817,99.121,35.645,61.035,110.840,319.824,0
1505772173.821,103.516,41.992,45.410,92.285,328.613,0
1505772173.824,100.586,58.594,64.453,116.699,313.965,0
1505772173.828,114.258,60.547,91.309,118.164,290.527,0
1505772173.832,105.469,46.875,75.195,83.984,319.336,0
1505772173.836,103.027,58.105,63.965,107.422,338.867,0
1505772173.840,132.324,70.801,76.660,128.906,318.848,0
1505772173.844,113.281,65.918,76.660,100.586,317.871,0
1505772173.848,95.215,61.035,63.477,88.867,337.891,0
1505772173.852,104.492,70.801,52.734,111.816,339.844,0
1505772173.856,140.137,88.867,72.266,113.281,324.219,0
1505772173.860,134.277,80.078,90.820,106.934,289.551,0
1505772173.864,102.539,85.938,75.684,114.258,299.805,0
1505772173.867,111.816,90.332,48.340,79.102,318.359,0
1505772173.871,97.656,78.125,48.828,60.547,326.660,0
1505772173.875,65.918,68.359,56.152,71.289,348.145,0
1505772173.879,63.477,71.777,42.969,84.961,326.660,0
1505772173.883,67.871,75.684,50.781,77.637,295.898,0
1505772173.887,83.008,93.750,58.105,62.988,291.016,0
1505772173.891,84.473,97.168,48.340,56.152,303.223,0
1505772173.895,79.102,72.266,35.156,83.496,330.566,0
1505772173.899,83.496,66.895,20.996,67.383,342.773,0
1505772173.903,63.477,71.289,23.926,38.086,270.996,0
1505772173.906,55.176,73.730,30.273,38.574,265.137,0
1505772173.910,66.895,94.238,50.293,49.805,304.199,0
1505772173.914,87.402,113.281,63.477,80.566,287.109,0
1505772173.918,107.910,130.371,65.918,91.797,279.785,0
1505772173.922,110.840,130.859,78.613,94.727,282.227,0
1505772173.926,110.840,130.371,50.293,94.238,296.875,0
1505772173.930,117.676,154.297,47.852,107.910,299.316,0
1505772173.934,115.723,148.438,89.844,101.562,299.805,0
1505772173.938,101.074,129.395,95.703,90.820,309.082,0
1505772173.942,80.078,119.629,84.961,84.473,331.055,0
1505772173.946,58.594,112.305,79.102,78.125,320.312,0
1505772173.949,66.895,114.746,82.520,84.473,260.254,0
1505772173.953,66.895,79.102,31.250,84.473,271.484,0
1505772173.957,60.059,71.289,8.789,76.660,299.316,0
1505772173.961,38.086,67.871,24.902,41.504,268.066,0
1505772173.965,20.508,48.828,24.414,27.344,264.648,0
1505772173.969,9.766,48.340,19.043,27.832,284.180,0
1505772173.973,0.977,31.250,16.113,20.508,275.879,0
1505772173.977,23.926,38.574,42.969,45.410,252.930,0
1505772173.981,31.738,58.594,53.711,60.059,262.695,4
1505772173.985,-8.301,26.367,3.418,12.695,286.621,0
1505772173.989,-19.531,8.789,-31.250,-11.719,273.438,0
1505772173.992,3.906,26.367,-18.066,13.672,278.809,0
1505772173.996,1.953,20.508,7.812,20.996,263.184,0
1505772174.000,-0.977,14.160,19.043,11.719,260.742,0
1505772174.004,11.719,35.156,27.344,22.461,248.047,0
1505772174.008,15.137,44.922,25.879,29.785,231.445,0
1505772174.012,15.137,34.668,19.531,23.926,249.023,0
1505772174.016,18.555,34.180,30.273,28.809,254.883,0
1505772174.020,26.367,45.898,23.438,36.621,235.352,0
1505772174.024,38.574,44.922,31.738,44.434,224.609,0
1505772174.028,36.133,19.531,36.621,36.133,250.488,0
1505772174.031,32.715,20.996,37.598,38.574,252.441,0
1505772174.035,34.668,46.387,39.062,47.363,251.465,0
1505772174.039,18.555,40.527,22.461,29.297,247.070,0
1505772174.043,11.230,27.832,19.531,9.766,229.980,0
1505772174.047,42.969,36.133,42.480,35.156,227.051,0
1505772174.051,56.641,33.203,55.664,59.082,227.539,0
1505772174.055,27.344,19.043,40.039,46.875,208.496,0
1505772174.059,40.039,35.645,64.453,64.453,210.449,0
1505772174.063,63.965,49.316,85.449,75.195,209.473,0
1505772174.067,51.270,38.086,66.895,44.922,202.148,0
1505772174.071,40.527,32.715,60.547,36.133,208.496,0
1505772174.074,34.668,20.020,65.918,49.805,212.891,0
1505772174.078,41.992,20.508,62.988,66.895,195.312,0
1505772174.082,58.594,65.430,79.590,82.520,232.422,0
1505772174.086,37.598,53.223,70.801,57.617,256.348,0
1505772174.090,33.691,23.926,57.129,50.781,203.613,0
1505772174.094,61.523,51.758,78.613,77.148,187.012,0
1505772174.098,60.547,39.551,71.777,77.637,182.129,0
1505772174.102,50.781,26.367,57.129,68.848,168.945,0
1505772174.106,57.129,52.246,62.500,75.684,191.406,0
1505772174.110,74.219,72.754,63.965,103.027,175.293,0
1505772174.114,63.965,38.086,62.988,85.449,157.715,0
1505772174.117,31.738,24.902,64.453,54.199,164.551,0
1505772174.121,45.898,59.082,91.309,86.426,169.922,0
1505772174.125,43.945,43.945,87.891,100.586,182.129,0
1505772174.129,40.527,51.758,71.777,93.750,161.133,0
1505772174.133,46.387,62.988,62.012,75.195,187.988,0
1505772174.137,25.879,45.898,41.992,48.828,212.891,0
1505772174.141,35.156,56.641,61.523,54.199,161.621,0
1505772174.145,27.344,42.969,68.359,51.758,151.367,0
1505772174.149,19.043,49.316,65.430,47.363,172.363,0
1505772174.153,13.672,63.965,25.879,44.434,145.996,0
1505772174.156,3.906,60.059,0.977,36.133,153.809,0
1505772174.160,12.207,61.523,49.316,41.016,169.434,0
1505772174.164,-19.531,40.527,18.066,12.695,160.645,0
1505772174.168,-44.434,28.809,-6.836,-17.090,172.363,0
1505772174.172,-45.898,21.484,9.766,-34.668,166.992,0
1505772174.176,-67.383,4.395,-41.016,-54.199,158.203,0
1505772174.180,-53.223,1.465,-90.820,-41.016,162.598,0
1505772174.184,-138.184,-66.895,-140.137,-126.953,122.070,0
1505772174.188,-221.680,-112.305,-140.137,-203.125,63.477,0
1505772174.192,-219.727,-144.531,-149.414,-207.520,82.520,0
1505772174.196,-251.465,-165.039,-242.188,-249.512,108.887,0
1505772174.199,-295.410,-154.785,-274.414,-284.180,99.121,0
1505772174.203,-323.242,-188.965,-290.527,-319.336,112.793,0
1505772174.207,-332.520,-191.406,-341.309,-336.426,106.934,0
1505772174.211,-346.680,-215.820,-345.215,-350.586,98.145,0
1505772174.215,-321.289,-183.594,-299.805,-330.078,115.234,0
1505772174.219,-316.406,-148.926,-349.121,-322.754,113.770,0
1505772174.223,-399.902,-276.855,-428.711,-411.133,124.023,0
1505772174.227,-470.703,-346.191,-386.719,-480.469,122.559,0
1505772174.231,-479.004,-275.879,-386.719,-497.070,82.520,0
1505772174.235,-494.141,-271.484,-444.824,-524.414,26.855,0
1505772174.239,-622.070,-428.711,-591.797,-654.297,20.020,0
1505772174.242,-814.453,-634.277,-795.898,-842.285,61.035,0
1505772174.246,-948.242,-817.383,-939.453,-957.520,26.855,0
1505772174.250,-967.285,-953.613,-967.285,-965.820,-28.320,0
1505772174.254,-963.867,-968.262,-963.867,-964.844,-21.973,0
1505772174.258,-967.773,-963.379,-967.285,-967.773,-24.902,0
1505772174.262,-967.285,-968.262,-967.285,-967.285,-36.621,0
1505772174.266,-967.285,-967.285,-967.285,-967.285,-45.898,0
1505772174.270,-967.285,-967.285,-966.797,-967.285,-22.461,0
1505772174.274,-966.797,-967.285,-967.285,-967.285,-21.973,0
1505772174.278,-966.797,-967.285,-967.285,-966.797,-32.715,0
1505772174.281,-966.797,-967.285,-967.285,-966.797,-17.090,0
1505772174.285,-967.285,-967.285,-967.285,-967.285,-11.230,0
1505772174.289,-967.285,-967.285,-967.285,-967.285,2.441,0
1505772174.293,-967.285,-966.797,-967.285,-967.285,-22.461,0
1505772174.297,-967.285,-967.285,-967.285,-967.285,-1.953,0
1505772174.301,-967.285,-967.285,-967.285,-967.285,35.645,0
1505772174.305,-967.285,-966.797,-967.285,-967.285,34.180,0
1505772174.309,-967.285,-967.285,-967.285,-967.285,32.227,0
1505772174.313,-967.285,-967.285,-967.285,-966.797,25.879,0
1505772174.317,-967.285,-966.797,-967.285,-967.285,64.453,0
1505772174.321,-966.797,-967.285,-967.285,-966.797,87.402,0
1505772174.324,-967.285,-967.285,-966.797,-966.797,12.695,0
1505772174.328,-967.285,-967.285,-967.285,-967.285,15.137,0
1505772174.332,-966.797,-966.797,-967.285,-967.285,63.477,0
1505772174.336,-967.285,-966.797,-966.797,-966.797,71.777,0
1505772174.340,-966.797,-967.285,-967.285,-967.285,82.031,0
1505772174.344,-967.285,-967.285,-967.285,-967.285,99.121,0
1505772174.348,-967.285,-967.285,-967.285,-967.285,109.375,0
1505772174.352,-967.285,-967.285,-966.797,-967.285,96.191,0
1505772174.356,-967.285,-967.285,-967.285,-967.285,62.988,0
1505772174.360,-967.285,-966.797,-967.285,-967.285,74.707,0
1505772174.364,-967.285,-967.773,-967.285,-966.797,125.000,0
1505772174.367,-967.285,-965.332,-967.285,-967.285,141.113,0
1505772174.371,-966.797,-964.355,-967.285,-967.285,134.277,0
1505772174.375,-966.797,-966.309,-967.285,-967.285,159.180,0
1505772174.379,-967.285,-864.258,-967.285,-967.285,159.180,0
1505772174.383,-967.285,-687.012,-967.285,-967.285,136.719,0
1505772174.387,-967.285,-620.117,-964.355,-967.285,155.273,0
1505772174.391,-967.285,-569.824,-971.680,-967.285,184.082,0
1505772174.395,-967.285,-496.582,-949.707,-967.285,187.012,0
1505772174.399,-967.285,-412.109,-891.602,-966.797,201.660,0
1505772174.403,-967.285,-375.000,-927.734,-967.285,217.285,0
1505772174.406,-967.285,-682.617,-972.656,-967.285,217.285,0
1505772174.410,-967.285,-976.562,-965.332,-967.285,207.031,0
1505772174.414,-967.285,-962.891,-966.797,-967.285,180.176,0
1505772174.418,-967.285,-960.938,-967.285,-967.285,176.270,0
1505772174.422,-967.285,-968.750,-967.285,-967.285,208.984,0
1505772174.426,-967.285,-967.285,-967.285,-967.285,178.223,0
1505772174.430,-967.285,-967.285,-967.285,-966.797,161.133,0
1505772174.434,-967.285,-966.797,-967.285,-966.797,192.383,0
1505772174.438,-967.285,-966.797,-967.285,-967.285,225.098,0
1505772174.442,-967.285,-967.285,-966.797,-967.285,222.168,0
1505772174.446,-967.285,-967.285,-967.285,-967.285,212.402,0
1505772174.449,-967.285,-967.285,-967.285,-967.285,218.750,0
1505772174.453,-967.285,-967.285,-967.285,-967.285,214.355,0
1505772174.457,-967.285,-967.285,-967.285,-966.797,238.281,0
1505772174.461,-967.285,-966.797,-967.285,-967.285,247.559,0
1505772174.465,-967.285,-966.797,-967.285,-967.285,215.332,0
1505772174.469,-967.285,-967.285,-967.285,-966.797,188.965,0
1505772174.473,-967.285,-967.285,-967.285,-967.285,157.227,0
1505772174.477,-967.285,-967.285,-966.797,-967.285,177.734,0
1505772174.481,-967.285,-967.285,-967.285,-967.285,216.797,5
1505772174.485,-967.285,-967.285,-967.285,-966.797,206.055,0
1505772174.489,-967.285,-966.797,-967.285,-967.285,189.941,0
1505772174.492,-966.797,-967.285,-967.285,-967.285,183.594,0
1505772174.496,-967.285,-967.285,-966.797,-967.285,191.406,0
1505772174.500,-967.285,-967.285,-967.285,-967.285,180.176,0
1505772174.504,-967.285,-967.285,-967.285,-967.285,192.871,0
1505772174.508,-967.285,-967.285,-967.285,-967.285,232.910,0
1505772174.512,-966.797,-967.285,-966.797,-967.285,227.539,0
1505772174.516,-967.285,-967.285,-966.797,-967.285,181.641,0
1505772174.520,-967.285,-967.285,-966.797,-967.285,176.758,0
1505772174.524,-967.285,-967.285,-967.285,-966.797,208.008,0
1505772174.528,-966.797,-967.285,-967.285,-966.797,192.871,0
1505772174.531,-967.285,-967.285,-967.285,-966.797,192.383,0
1505772174.535,-967.285,-967.285,-967.285,-966.797,180.664,0
1505772174.539,-967.285,-967.285,-966.797,-967.285,178.223,0
1505772174.543,-967.285,-967.285,-966.797,-967.285,177.734,0
1505772174.547,-966.797,-966.797,-967.285,-967.285,155.273,0
1505772174.551,-967.285,-967.285,-967.285,-967.285,149.902,0
1505772174.555,-967.285,-967.285,-967.285,-967.285,189.453,0
1505772174.559,-967.285,-967.285,-967.285,-967.285,213.379,0
1505772174.563,-967.285,-967.285,-966.797,-967.285,157.715,0
1505772174.567,-966.797,-967.285,-966.797,-966.797,131.348,0
1505772174.571,-966.797,-966.797,-967.285,-967.285,172.852,0
1505772174.574,-967.285,-966.797,-966.797,-967.285,177.734,0
1505772174.578,-966.797,-967.285,-966.797,-967.285,178.223,0
1505772174.582,-966.797,-967.285,-967.285,-967.285,176.758,0
1505772174.586,-967.285,-966.797,-966.797,-967.285,156.250,0
1505772174.590,-966.797,-967.285,-966.797,-966.797,129.883,0
1505772174.594,-967.285,-967.285,-967.285,-967.285,115.723,0
1505772174.598,-967.285,-966.797,-966.797,-967.285,163.086,0
1505772174.602,-966.797,-967.285,-967.285,-967.285,171.875,0
1505772174.606,-967.285,-967.285,-967.285,-967.285,118.652,0
1505772174.610,-967.285,-967.285,-967.285,-967.285,111.816,0
1505772174.614,-966.797,-967.285,-967.285,-967.285,144.043,0
1505772174.617,-966.797,-966.797,-967.285,-967.285,152.344,0
1505772174.621,-967.285,-967.285,-967.285,-967.285,134.766,0
1505772174.625,-967.285,-967.285,-967.285,-966.797,151.367,0
1505772174.629,-967.285,-967.285,-967.285,-967.285,160.645,0
1505772174.633,-967.285,-967.285,-967.285,-967.285,163.574,0
1505772174.637,-967.285,-967.285,-967.285,-967.285,167.969,0
1505772174.641,-967.285,-967.285,-967.285,-967.285,172.363,0
1505772174.645,-967.285,-966.797,-967.285,-966.797,193.848,0
1505772174.649,-967.285,-966.797,-967.285,-966.797,156.738,0
1505772174.653,-967.285,-967.285,-967.285,-967.285,115.723,0
1505772174.656,-966.797,-967.285,-967.285,-967.285,136.719,0
1505772174.660,-966.797,-966.797,-967.285,-967.285,169.922,0
1505772174.664,-966.797,-966.797,-967.285,-967.285,133.789,0
1505772174.668,-966.797,-967.285,-967.285,-967.285,129.883,0
1505772174.672,-966.797,-966.797,-966.797,-967.285,189.941,0
1505772174.676,-966.797,-967.285,-967.285,-966.797,209.961,0
1505772174.680,-967.285,-967.285,-967.285,-966.797,193.848,0
1505772174.684,-967.285,-967.285,-967.285,-967.285,176.758,0
1505772174.688,-967.285,-967.285,-967.285,-967.285,154.785,0
1505772174.692,-967.285,-967.285,-967.285,-967.285,191.406,0
1505772174.696,-967.285,-967.285,-967.285,-966.797,219.727,0
1505772174.699,-967.285,-966.797,-967.285,-966.797,171.875,0
1505772174.703,-967.285,-967.285,-967.285,-967.285,177.734,0
1505772174.707,-967.285,-967.773,-967.285,-967.285,197.754,0
1505772174.711,-967.285,-965.332,-967.773,-967.285,179.688,0
1505772174.715,-967.285,-958.984,-965.820,-967.285,185.059,0
1505772174.719,-966.797,-981.934,-964.355,-967.285,221.191,0
1505772174.723,-967.285,-791.504,-969.727,-967.285,215.332,0
1505772174.727,-967.285,-539.551,-898.926,-967.285,205.566,0
1505772174.731,-964.355,-477.539,-775.391,-965.820,205.078,0
1505772174.735,-971.191,-410.645,-750.000,-967.773,191.406,0
1505772174.739,-954.590,-342.773,-714.844,-969.727,212.891,0
1505772174.742,-890.625,-308.105,-652.832,-926.758,212.891,0
1505772174.746,-914.062,-339.844,-703.125,-942.871,201.660,0
1505772174.750,-933.594,-343.262,-715.820,-973.633,224.121,0
1505772174.754,-863.770,-263.184,-645.996,-907.715,198.730,0
1505772174.758,-890.625,-261.230,-678.711,-916.992,197.754,0
1505772174.762,-946.289,-325.195,-738.770,-964.355,220.703,0
1505772174.766,-901.855,-268.066,-678.711,-932.617,244.629,0
1505772174.770,-912.598,-319.336,-778.809,-934.570,220.215,0
1505772174.774,-970.703,-651.367,-969.727,-969.238,170.410,0
1505772174.778,-967.285,-804.688,-968.262,-967.285,147.461,0
1505772174.781,-965.820,-740.723,-961.914,-966.309,133.301,0
1505772174.785,-967.285,-643.066,-968.262,-967.285,154.785,0
1505772174.789,-966.797,-645.020,-966.309,-967.285,168.945,0
1505772174.793,-967.285,-642.090,-968.262,-967.285,159.668,0
1505772174.797,-967.285,-524.414,-964.355,-967.285,139.648,0
1505772174.801,-967.773,-494.141,-953.125,-967.773,127.441,0
1505772174.805,-964.844,-497.559,-946.777,-964.844,143.066,0
1505772174.809,-966.797,-501.953,-949.219,-967.285,155.762,0
1505772174.813,-965.820,-420.898,-885.742,-965.820,175.293,0
1505772174.817,-870.605,-258.789,-734.375,-876.465,179.688,0
1505772174.821,-775.391,-230.469,-693.359,-795.898,193.359,0
1505772174.824,-699.707,-186.523,-645.020,-734.863,208.496,0
1505772174.828,-558.105,-70.312,-516.602,-599.121,184.570,0
1505772174.832,-450.195,48.340,-395.508,-470.215,178.711,0
1505772174.836,-458.496,28.320,-409.668,-467.285,206.543,0
1505772174.840,-316.895,127.441,-311.523,-334.961,199.707,0
1505772174.844,-62.988,405.273,-18.555,-59.570,160.645,0
1505772174.848,3.906,486.328,69.336,25.879,152.832,0
1505772174.852,31.738,494.141,62.500,52.246,179.688,0
1505772174.856,193.848,626.465,206.543,207.520,202.148,0
1505772174.860,251.953,692.383,253.418,277.832,182.617,0
1505772174.864,368.164,756.836,346.191,383.301,171.387,0
1505772174.867,866.211,955.078,852.051,857.910,194.336,0
1505772174.871,-964.355,-986.816,-961.426,-963.867,173.340,0
1505772174.875,975.098,989.258,974.609,976.074,181.641,0
1505772174.879,-995.605,-998.047,-995.605,-996.094,206.055,0
1505772174.883,999.512,999.512,999.512,999.512,188.477,0
1505772174.887,999.512,999.512,999.512,999.512,200.684,0
1505772174.891,999.512,999.512,999.512,999.512,184.570,0
1505772174.895,999.512,999.512,999.512,999.512,135.742,0
1505772174.899,999.512,999.512,999.512,999.512,154.785,0
1505772174.903,999.512,999.512,999.512,999.512,183.594,0
1505772174.906,999.512,999.512,999.512,999.512,163.086,0
1505772174.910,999.512,999.512,999.512,999.512,157.227,0
1505772174.914,999.512,999.512,999.512,999.512,165.039,0
1505772174.918,999.512,999.512,999.512,999.512,153.320,0
1505772174.922,999.512,999.512,999.512,999.512,161.621,0
1505772174.926,999.512,999.512,999.512,999.512,177.734,0
1505772174.930,999.512,999.512,999.512,999.512,174.316,0
1505772174.934,999.512,999.512,999.023,999.512,155.273,0
1505772174.938,999.512,999.512,998.047,999.512,144.531,0
1505772174.942,999.512,999.512,-993.652,999.512,138.184,0
1505772174.946,999.512,999.512,959.961,999.512,163.574,0
1505772174.949,999.512,999.512,962.402,999.512,156.250,0
1505772174.953,999.512,999.512,-993.164,999.512,121.094,0
1505772174.957,999.512,999.512,997.559,999.512,149.902,0
1505772174.961,999.512,999.512,999.023,999.512,165.527,0
1505772174.965,999.512,999.512,999.512,999.512,139.648,0
1505772174.969,999.512,999.512,999.512,999.512,125.977,0
1505772174.973,999.512,999.512,999.512,999.512,181.152,0
1505772174.977,999.512,999.512,999.512,999.512,229.004,0
1505772174.981,999.512,999.512,999.512,999.512,158.691,0
1505772174.985,999.512,999.512,999.512,999.512,99.609,0
1505772174.989,999.512,999.512,999.512,999.512,136.719,0
1505772174.992,999.512,999.512,999.512,999.512,141.602,0
1505772174.996,999.512,999.512,999.512,999.512,122.559,0
1505772175.000,999.512,999.512,999.512,999.512,136.230,0
1505772175.004,999.512,999.512,999.512,999.512,131.836,0
1505772175.008,999.512,999.512,999.512,999.512,114.746,0
1505772175.012,999.512,999.512,999.512,999.512,94.238,0
1505772175.016,999.512,999.512,999.512,999.512,102.051,0
1505772175.020,999.512,999.512,999.512,999.512,123.535,0
1505772175.024,999.512,999.512,999.512,999.512,141.602,0
1505772175.028,999.512,999.512,999.512,999.512,128.906,0
1505772175.031,999.512,999.512,999.512,999.512,102.539,0
1505772175.035,999.512,999.512,-1000.000,999.512,110.840,0
1505772175.039,999.512,999.512,997.559,999.512,107.422,0
1505772175.043,999.512,999.512,999.023,999.512,107.422,0
1505772175.047,999.512,999.512,997.559,999.512,131.836,0
1505772175.051,999.512,999.512,928.711,999.512,125.000,0
1505772175.055,998.047,-1000.000,846.191,998.535,97.656,0
1505772175.059,998.535,996.094,827.637,997.070,87.891,0
1505772175.063,991.211,-996.582,827.637,-999.023,111.816,0
1505772175.067,919.922,978.516,758.301,941.406,154.297,0
1505772175.071,821.289,886.230,661.133,841.797,150.391,0
1505772175.074,798.828,841.309,634.277,807.129,112.793,0
1505772175.078,866.699,883.301,695.312,856.445,83.984,0
1505772175.082,858.887,861.328,687.988,841.309,82.520,0
1505772175.086,810.547,816.406,630.371,795.898,114.746,0
1505772175.090,936.523,939.453,811.523,931.152,123.535,0
1505772175.094,-989.258,-989.258,947.754,-988.770,88.379,0
1505772175.098,991.211,989.746,881.348,990.723,65.918,0
1505772175.102,999.512,-996.582,864.746,999.512,94.727,0
1505772175.106,991.211,975.586,848.145,991.699,100.586,0
1505772175.110,878.906,841.309,722.656,877.930,112.793,0
1505772175.114,752.441,740.723,599.609,753.418,147.949,0
1505772175.117,702.637,701.172,565.918,707.031,154.785,0
1505772175.121,667.480,645.508,547.363,672.852,124.512,0
1505772175.125,658.691,631.836,528.809,656.738,125.977,0
1505772175.129,701.172,675.781,562.988,690.918,123.535,0
1505772175.133,714.355,693.359,593.750,714.844,104.004,0
1505772175.137,686.523,678.711,572.266,689.941,103.516,0
1505772175.141,657.227,654.297,552.246,676.270,103.516,0
1505772175.145,646.973,630.371,541.016,670.898,99.609,0
1505772175.149,652.832,620.117,543.457,668.945,95.703,0
1505772175.153,612.305,576.172,518.066,631.836,107.910,0
1505772175.156,574.707,544.922,480.957,589.844,99.609,0
1505772175.160,607.910,573.242,502.441,621.094,94.238,0
1505772175.164,615.723,563.965,509.766,628.418,101.074,0
1505772175.168,604.004,561.035,518.555,620.117,76.172,0
1505772175.172,634.766,588.379,547.363,647.461,88.867,0
1505772175.176,674.805,625.977,585.938,687.988,99.609,0
1505772175.180,719.727,659.668,627.930,734.375,92.773,0
1505772175.184,756.836,705.078,663.086,775.879,98.633,0
1505772175.188,778.320,747.070,707.520,799.805,90.820,0
1505772175.192,799.316,760.742,726.074,806.641,84.961,0
1505772175.196,804.688,760.742,719.238,806.641,87.402,0
1505772175.199,781.250,736.328,708.496,789.551,76.660,0
1505772175.203,772.461,727.051,699.707,770.508,54.688,0
1505772175.207,765.625,715.820,683.594,756.836,100.586,0
1505772175.211,744.629,686.523,654.785,729.492,123.535,0
1505772175.215,754.883,690.430,654.297,730.469,92.773,0
1505772175.219,781.250,713.867,674.316,745.117,59.082,0
1505772175.223,770.996,706.543,662.598,726.562,21.973,0
1505772175.227,722.168,663.574,622.070,690.918,29.297,0
1505772175.231,702.148,644.043,608.398,683.594,47.363,0
1505772175.235,696.289,635.254,607.910,684.570,37.109,0
1505772175.239,684.570,618.652,603.027,683.594,32.227,0
1505772175.242,657.227,600.098,581.543,665.039,49.316,0
1505772175.246,630.859,566.895,547.852,634.277,56.152,0
1505772175.250,622.070,554.199,526.855,625.488,24.414,0
1505772175.254,609.863,546.875,524.414,616.211,1.465,0
1505772175.258,570.801,510.254,508.301,588.867,25.391,0
1505772175.262,532.227,471.191,469.238,552.734,32.715,0
1505772175.266,520.020,452.148,448.730,530.273,18.555,0
1505772175.270,519.531,446.289,443.848,535.645,12.695,0
1505772175.274,533.691,446.777,452.637,553.223,4.395,0
1505772175.278,562.012,463.379,485.352,580.078,2.930,0
1505772175.281,576.660,468.262,499.512,590.332,-3.906,0
1505772175.285,593.262,489.746,518.066,614.746,-28.809,0
1505772175.289,608.887,511.719,546.875,635.742,-20.020,0
1505772175.293,597.656,500.488,537.109,621.582,-22.949,0
1505772175.297,586.914,484.863,521.484,615.234,-43.945,0
1505772175.301,581.543,479.004,520.020,615.723,-34.180,0
1505772175.305,558.594,453.613,493.652,588.379,-32.715,0
1505772175.309,531.250,423.340,471.680,565.918,-44.922,0
1505772175.313,531.738,425.781,479.004,573.242,-76.660,0
1505772175.317,523.926,402.832,460.449,553.223,-92.773,0
1505772175.321,498.535,359.375,429.688,516.113,-75.684,0
1505772175.324,478.516,339.355,422.363,506.348,-83.984,0
1505772175.328,436.523,291.504,384.277,471.191,-102.051,0
1505772175.332,380.859,231.445,326.660,412.598,-106.445,0
1505772175.336,355.957,211.426,296.387,378.906,-93.750,0
1505772175.340,358.887,214.844,292.969,377.930,-111.816,0
1505772175.344,343.262,207.031,289.551,372.559,-123.535,0
1505772175.348,311.035,170.898,262.207,347.656,-115.723,0
1505772175.352,293.457,147.949,241.699,329.102,-105.957,0
1505772175.356,312.988,178.711,263.184,346.680,-128.418,0
1505772175.360,317.871,191.895,262.695,348.633,-147.461,0
1505772175.364,305.664,181.152,243.652,333.496,-133.301,0
1505772175.367,367.676,230.469,300.293,391.113,-153.809,0
1505772175.371,446.289,300.293,359.375,465.332,-191.406,0
1505772175.375,441.895,311.523,373.535,465.820,-205.078,0
1505772175.379,404.785,288.574,359.375,435.547,-187.500,0
1505772175.383,387.695,265.137,326.660,419.434,-180.176,0
1505772175.387,221.680,90.332,153.320,250.000,-213.867,0
1505772175.391,-9.766,-148.438,-88.867,15.137,-249.512,0
1505772175.395,-108.398,-255.859,-196.777,-86.426,-237.793,0
1505772175.399,-144.043,-280.273,-238.770,-124.023,-208.008,0
1505772175.403,-156.250,-296.387,-253.906,-143.066,-239.258,0
1505772175.406,-160.156,-319.824,-261.719,-156.738,-265.137,0
1505772175.410,-155.273,-307.129,-251.465,-147.461,-254.395,0
1505772175.414,-116.211,-255.371,-198.242,-98.633,-288.574,0
1505772175.418,-84.473,-222.656,-159.180,-59.570,-298.340,0
1505772175.422,-56.152,-195.312,-124.023,-23.438,-268.066,0
1505772175.426,40.039,-108.887,-26.367,68.359,-243.164,0
1505772175.430,111.816,-35.645,42.969,127.441,-255.371,0
1505772175.434,139.648,-0.488,64.453,149.902,-223.633,0
1505772175.438,160.645,1.953,87.402,174.316,-217.285,0
1505772175.442,192.383,22.461,118.652,201.660,-190.430,0
1505772175.446,246.582,87.402,172.852,252.930,-180.664,0
1505772175.449,259.766,116.699,193.359,276.855,-242.188,0
1505772175.453,260.254,113.770,196.289,278.809,-226.562,0
1505772175.457,275.879,118.652,202.148,288.086,-188.965,0
1505772175.461,312.012,144.531,216.309,307.129,-199.219,0
1505772175.465,352.051,183.105,261.230,333.496,-206.543,0
1505772175.469,350.586,197.754,283.203,345.703,-198.242,0
1505772175.473,354.980,201.660,288.574,353.027,-177.734,0
1505772175.477,381.348,230.469,312.500,382.324,-195.801,0
1505772175.481,395.020,243.652,324.707,395.508,-195.801,0
1505772175.485,388.672,239.258,316.406,387.207,-142.090,0
1505772175.489,378.418,239.746,313.477,380.859,-108.887,0
1505772175.492,381.348,232.910,313.477,383.789,-136.230,0
1505772175.496,375.977,213.867,295.898,370.117,-173.828,0
1505772175.500,366.211,212.891,285.156,357.910,-126.465,0
1505772175.504,374.023,234.375,304.688,376.465,-130.371,0
1505772175.508,376.953,235.352,307.617,388.184,-161.133,0
1505772175.512,366.699,216.309,291.504,375.000,-108.398,0
1505772175.516,362.305,207.520,290.527,367.676,-58.105,0
1505772175.520,362.305,216.797,299.316,372.070,-62.012,0
1505772175.524,362.305,214.844,296.387,365.723,-54.688,0
1505772175.528,337.402,185.059,275.391,345.215,-19.043,0
1505772175.531,310.059,177.246,254.883,334.473,-38.574,0
1505772175.535,317.383,193.359,253.906,338.867,-37.598,0
1505772175.539,320.312,177.734,255.859,336.914,0.488,0
1505772175.543,304.688,157.227,246.094,325.684,17.578,0
1505772175.547,312.012,165.039,252.441,326.660,45.898,0
1505772175.551,328.125,173.828,269.531,339.355,5.859,0
1505772175.555,321.289,160.645,262.207,334.961,8.301,0
1505772175.559,304.688,142.578,254.395,322.754,49.316,0
1505772175.563,293.945,141.113,249.023,313.477,53.711,0
1505772175.567,300.293,150.391,249.023,322.754,85.938,0
1505772175.571,319.824,167.969,282.227,340.332,104.004,0
1505772175.574,319.336,163.086,281.250,333.496,123.047,0
1505772175.578,308.594,158.203,264.648,329.590,121.094,0
1505772175.582,316.406,159.180,270.996,334.473,134.766,0
1505772175.586,326.172,147.949,263.672,334.961,167.480,0
1505772175.590,326.660,149.902,261.719,339.844,162.598,0
1505772175.594,336.914,169.922,292.969,360.352,150.391,0
1505772175.598,336.426,180.664,298.828,354.492,122.559,0
1505772175.602,338.867,180.176,280.762,333.496,127.441,0
1505772175.606,359.375,197.754,290.039,353.516,161.133,0
1505772175.610,378.418,215.820,303.223,379.883,151.367,0
1505772175.614,394.531,221.191,307.129,389.648,147.461,0
1505772175.617,398.438,224.609,303.223,390.137,181.641,0
1505772175.621,403.809,233.398,309.570,395.020,198.242,0
1505772175.625,408.691,239.258,310.059,392.090,169.434,0
1505772175.629,404.297,233.398,303.223,392.090,190.430,0
1505772175.633,399.902,224.609,297.852,395.996,224.609,0
1505772175.637,406.738,228.027,299.316,394.043,187.988,0
1505772175.641,401.367,218.750,293.457,387.207,162.598,0
1505772175.645,360.352,164.062,251.953,350.098,178.223,0
1505772175.649,309.082,118.652,205.566,308.594,185.059,0
1505772175.653,307.617,131.836,203.125,301.270,170.410,0
1505772175.656,321.289,149.414,214.355,297.363,176.270,0
1505772175.660,295.898,130.859,206.055,288.086,178.711,0
1505772175.664,287.598,125.488,200.684,284.180,178.223,0
1505772175.668,287.109,127.930,196.777,277.344,169.434,0
1505772175.672,291.016,125.000,199.707,280.273,146.973,0
1505772175.676,292.969,127.441,205.566,284.180,166.016,0
1505772175.680,289.062,130.859,200.684,276.855,189.941,0
1505772175.684,297.363,135.254,200.195,290.039,155.273,0
1505772175.688,310.547,153.809,226.562,309.570,121.094,0
1505772175.692,305.176,156.738,241.699,303.711,114.746,0
1505772175.696,311.035,145.996,238.770,307.129,133.789,0
1505772175.699,314.453,156.738,240.234,314.941,152.832,0
1505772175.703,290.039,165.039,234.375,304.688,166.016,0
1505772175.707,275.391,147.461,216.309,286.133,170.898,0
1505772175.711,279.785,141.113,212.402,286.133,175.293,0
1505772175.715,298.828,149.902,225.098,301.270,171.875,0
1505772175.719,293.457,148.926,226.562,307.129,172.363,0
1505772175.723,291.504,136.230,224.609,304.199,199.219,0
1505772175.727,286.621,139.160,224.121,294.922,223.145,0
1505772175.731,293.457,163.574,235.840,307.617,210.449,0
1505772175.735,308.105,169.922,236.816,315.918,175.293,0
1505772175.739,300.781,157.715,227.051,308.105,183.105,0
1505772175.742,305.176,150.879,234.375,311.035,215.332,0
1505772175.746,302.734,143.066,237.793,313.477,202.148,0
1505772175.750,298.828,136.719,233.887,306.641,171.387,0
1505772175.754,311.035,153.809,234.375,308.594,187.500,0
1505772175.758,324.219,169.434,250.000,323.730,195.312,0
1505772175.762,319.336,157.715,234.375,321.289,216.797,0
1505772175.766,322.266,154.785,213.379,318.359,234.863,0
1505772175.770,365.234,197.754,270.020,354.004,227.539,0
1505772175.774,384.277,218.262,301.758,371.094,224.609,0
1505772175.778,381.836,208.984,292.480,367.188,166.992,0
1505772175.781,381.836,206.055,291.992,363.770,147.949,0
1505772175.785,369.629,208.008,295.410,364.746,160.156,0
1505772175.789,383.301,231.445,316.406,375.488,127.930,0
1505772175.793,386.230,235.352,314.453,370.605,124.023,0
1505772175.797,361.816,224.609,293.457,354.492,150.391,0
1505772175.801,371.094,233.887,302.246,360.352,152.344,0
1505772175.805,365.723,239.746,309.570,371.582,175.293,0
1505772175.809,372.559,251.953,316.406,375.977,170.898,0
1505772175.813,397.461,264.648,340.332,395.508,159.180,0
1505772175.817,399.902,258.789,354.492,406.738,198.730,0
1505772175.821,407.715,266.113,352.539,401.855,202.637,0
1505772175.824,409.180,258.301,342.773,399.902,174.316,0
1505772175.828,381.348,230.957,320.312,376.465,170.410,0
1505772175.832,351.074,237.793,311.035,351.562,169.922,0
1505772175.836,368.164,271.484,337.402,378.418,156.738,0
1505772175.840,359.863,251.465,318.359,368.164,147.949,0
1505772175.844,281.738,167.969,245.117,294.922,170.410,0
1505772175.848,246.094,148.438,223.145,267.090,169.922,0
1505772175.852,274.414,170.898,243.164,287.109,144.043,0
1505772175.856,298.828,180.176,265.625,312.500,145.996,0
1505772175.860,299.316,189.453,270.020,322.754,163.574,0
1505772175.864,313.477,206.055,267.578,340.820,180.176,0
1505772175.867,320.312,207.520,283.203,354.004,200.195,0
1505772175.871,324.219,196.289,293.945,352.539,188.477,0
1505772175.875,321.777,185.059,290.039,350.098,151.855,0
1505772175.879,314.453,185.547,282.715,340.820,159.180,0
1505772175.883,320.801,187.500,273.438,332.031,164.062,0
1505772175.887,302.246,178.223,252.441,314.453,143.555,0
1505772175.891,288.086,184.082,252.930,311.035,145.508,0
1505772175.895,303.711,196.289,281.738,333.008,138.672,0
1505772175.899,324.219,201.660,282.227,346.680,125.977,0
1505772175.903,318.848,187.012,265.625,334.961,146.484,0
1505772175.906,313.965,181.641,262.695,321.289,148.926,0
1505772175.910,327.148,192.871,268.066,325.684,149.902,0
1505772175.914,313.965,185.059,257.324,314.453,141.113,0
1505772175.918,290.527,174.805,235.352,298.828,153.320,0
1505772175.922,298.340,180.176,233.887,303.711,152.832,0
1505772175.926,306.152,177.734,237.305,303.223,134.277,0
1505772175.930,312.012,173.340,240.723,303.711,157.715,0
1505772175.934,314.941,182.617,244.141,303.711,157.227,0
1505772175.938,317.383,183.594,242.676,303.711,161.621,0
1505772175.942,318.359,177.246,234.863,302.246,173.828,0
1505772175.946,314.453,167.969,231.445,287.598,179.688,0
1505772175.949,321.777,169.922,229.492,293.457,157.715,0
1505772175.953,323.730,169.434,224.121,308.594,134.277,0
1505772175.957,317.871,142.578,234.375,298.828,177.246,0
1505772175.961,322.266,139.160,247.559,294.922,192.871,0
1505772175.965,313.477,167.480,247.070,295.898,160.156,0
1505772175.969,319.336,170.898,237.793,291.992,159.180,0
1505772175.973,323.730,161.621,238.770,291.504,122.070,0
1505772175.977,296.875,137.207,223.633,277.344,132.324,0
1505772175.981,286.621,133.301,221.191,277.344,187.012,0
1505772175.985,294.922,148.438,231.445,293.457,163.574,0
1505772175.989,284.668,137.207,219.238,293.457,158.691,0
1505772175.992,281.738,126.953,208.008,285.645,187.988,0
1505772175.996,285.645,130.371,209.961,285.645,172.363,0
1505772176.000,297.852,151.367,233.398,305.176,148.438,0
1505772176.004,305.176,161.133,245.605,309.570,179.199,0
1505772176.008,286.133,147.461,231.445,291.992,176.758,0
1505772176.012,266.113,140.137,222.168,284.668,161.621,0
1505772176.016,274.414,154.785,233.887,303.223,155.273,0
1505772176.020,269.043,149.902,230.957,301.270,133.301,0
1505772176.024,250.000,120.605,207.031,276.855,133.789,0
1505772176.028,259.277,113.281,206.055,275.391,154.785,0
1505772176.031,271.973,129.883,208.496,279.785,150.391,0
1505772176.035,254.395,132.812,209.473,277.832,154.785,0
1505772176.039,249.023,129.395,216.309,283.691,177.734,0
1505772176.043,253.906,128.906,197.266,283.203,166.992,0
1505772176.047,260.742,135.254,182.617,276.367,133.789,0
1505772176.051,255.859,140.625,206.543,268.066,152.344,0
1505772176.055,231.934,132.812,212.402,263.184,171.875,0
1505772176.059,233.887,125.977,213.867,268.066,172.363,0
1505772176.063,252.441,134.766,218.262,270.020,136.230,0
1505772176.067,255.371,129.883,210.938,264.648,104.980,0
1505772176.071,251.465,125.000,206.543,253.906,127.930,0
1505772176.074,264.160,131.348,209.961,261.719,111.816,0
1505772176.078,265.137,121.094,207.031,262.207,99.121,0
1505772176.082,261.230,115.234,191.895,243.652,109.863,0
1505772176.086,255.371,121.582,196.777,244.629,120.605,0
1505772176.090,236.816,114.746,201.172,247.070,126.953,0
1505772176.094,226.074,111.328,191.406,238.770,101.562,0
1505772176.098,250.000,125.977,205.566,251.465,97.656,0
1505772176.102,267.090,125.000,215.332,264.648,150.879,0
1505772176.106,265.625,125.000,212.402,268.555,129.395,0
1505772176.110,259.277,127.441,206.543,263.672,70.312,0
1505772176.114,238.770,117.676,191.406,243.164,117.676,0
1505772176.117,228.027,106.934,189.941,244.141,164.551,0
1505772176.121,222.656,105.957,194.824,247.559,115.234,0
1505772176.125,222.168,107.910,193.848,245.605,111.328,0
1505772176.129,228.516,89.844,191.895,247.559,134.277,0
1505772176.133,235.352,92.773,197.754,252.441,100.098,0
1505772176.137,236.816,114.746,194.824,257.324,116.211,0
1505772176.141,243.652,123.535,185.059,257.812,109.863,0
1505772176.145,255.859,129.395,178.223,260.254,144.531,0
1505772176.149,249.512,116.211,186.523,254.395,163.086,0
1505772176.153,247.559,106.445,209.473,255.859,114.746,0
1505772176.156,223.633,104.492,197.754,246.582,111.328,0
1505772176.160,200.684,105.957,179.199,226.074,130.859,0
1505772176.164,226.074,118.652,192.383,236.328,121.094,0
1505772176.168,222.168,117.188,190.918,235.352,102.051,0
1505772176.172,206.543,106.445,180.664,225.586,115.234,0
1505772176.176,209.473,103.027,182.617,232.422,118.652,0
1505772176.180,209.473,104.492,182.617,234.863,104.004,0
1505772176.184,205.078,100.586,176.270,222.656,99.121,0
1505772176.188,194.824,91.309,168.945,216.309,116.211,0
1505772176.192,197.266,92.285,173.340,218.750,134.766,0
1505772176.196,192.383,93.262,169.434,209.961,136.230,0
1505772176.199,200.195,98.145,170.898,212.402,120.117,0
1505772176.203,185.059,89.355,157.227,208.496,127.441,0
1505772176.207,153.809,76.660,133.301,184.082,122.559,0
1505772176.211,157.227,82.031,136.719,176.758,89.844,0
1505772176.215,159.668,73.242,132.324,176.758,90.820,0
1505772176.219,160.156,62.500,125.488,171.387,100.098,0
1505772176.223,169.434,70.312,133.301,181.641,89.844,0
1505772176.227,197.754,90.820,157.227,203.613,73.730,0
1505772176.231,203.125,82.520,158.691,203.613,66.895,0
1505772176.235,192.871,72.266,147.949,202.148,63.965,0
1505772176.239,192.871,79.590,154.297,213.379,90.820,0
1505772176.242,198.242,89.355,164.062,225.098,123.047,0
1505772176.246,201.660,101.562,161.133,226.074,104.980,0
1505772176.250,195.312,96.191,159.668,221.680,96.680,0
1505772176.254,198.730,100.098,177.734,231.934,77.637,0
1505772176.258,208.496,116.211,178.223,239.746,71.289,0
1505772176.262,220.215,129.395,181.641,243.652,106.934,0
1505772176.266,220.215,115.723,189.941,239.746,123.535,0
1505772176.270,205.078,106.445,190.918,222.656,95.215,0
1505772176.274,196.777,105.469,191.406,225.098,66.895,0
1505772176.278,197.266,94.238,184.570,224.121,108.887,0
1505772176.281,212.402,99.121,183.105,228.027,124.512,0
1505772176.285,227.539,110.840,185.547,238.281,108.398,0
1505772176.289,214.844,100.098,166.504,224.609,122.070,0
1505772176.293,189.941,85.449,145.020,200.195,106.445,0
1505772176.297,190.918,100.586,153.320,199.707,116.211,0
1505772176.301,208.984,107.910,167.969,218.750,104.980,0
1505772176.305,207.031,105.469,166.504,218.262,65.918,0
1505772176.309,185.547,96.191,150.391,196.777,107.910,0
1505772176.313,189.453,86.426,148.438,195.801,133.789,0
1505772176.317,194.824,82.520,144.531,202.148,115.234,0
1505772176.321,192.383,78.125,148.926,202.148,104.492,0
1505772176.324,169.434,62.988,134.277,175.781,110.840,0
1505772176.328,144.043,52.246,122.559,153.809,120.117,0
1505772176.332,141.113,58.594,143.555,170.410,138.672,0
1505772176.336,152.832,58.594,143.066,180.176,167.969,0
1505772176.340,168.945,57.129,139.648,180.664,142.578,0
1505772176.344,178.711,65.918,144.043,191.895,98.145,0
1505772176.348,183.105,74.219,145.508,194.336,76.172,0
1505772176.352,168.945,70.312,150.879,189.941,83.984,0
1505772176.356,165.527,68.359,152.344,190.430,107.910,0
1505772176.360,184.082,75.684,161.621,197.754,100.098,0
1505772176.364,184.082,75.195,167.480,202.637,83.984,0
1505772176.367,173.828,61.523,158.203,202.637,101.074,0
1505772176.371,185.059,65.918,162.598,209.961,154.785,0
1505772176.375,207.031,64.453,174.316,225.586,142.090,0
1505772176.379,199.219,67.871,156.250,221.680,111.816,0
1505772176.383,176.758,84.961,137.207,196.289,141.113,0
1505772176.387,172.852,82.520,137.695,191.895,124.023,0
1505772176.391,189.453,82.031,150.879,206.055,95.703,0
1505772176.395,198.730,77.637,144.043,209.961,77.148,0
1505772176.399,181.152,73.242,130.859,192.383,88.379,0
1505772176.403,173.828,83.496,134.766,181.152,110.840,0
1505772176.406,161.133,82.520,131.348,180.176,112.793,0
1505772176.410,166.016,83.008,138.672,181.641,101.074,0
1505772176.414,175.781,79.590,146.973,179.688,104.980,0
1505772176.418,174.805,76.172,139.160,173.340,99.609,0
1505772176.422,169.922,71.289,130.859,166.504,83.496,0
1505772176.426,164.062,69.336,131.348,170.898,111.328,0
1505772176.430,164.062,70.801,134.766,176.270,152.832,0
1505772176.434,172.852,63.477,136.719,181.641,148.926,0
1505772176.438,176.270,61.523,137.207,189.941,91.309,0
1505772176.442,168.457,61.035,126.953,185.059,92.285,0
1505772176.446,169.434,66.895,120.117,180.176,136.230,0
1505772176.449,159.180,64.941,127.930,172.363,115.723,0
1505772176.453,162.109,55.176,129.395,168.945,105.469,0
1505772176.457,156.250,40.527,120.605,160.645,111.328,0
1505772176.461,145.020,38.574,113.281,153.809,113.281,0
1505772176.465,155.273,44.922,115.234,163.574,106.445,0
1505772176.469,163.574,47.363,123.535,182.617,114.746,0
1505772176.473,167.969,49.805,126.465,184.082,167.480,0
1505772176.477,160.156,40.527,125.000,179.688,175.293,0
1505772176.481,179.688,46.875,134.277,194.824,113.770,0
1505772176.485,196.777,59.570,142.090,204.590,72.754,0
1505772176.489,188.965,71.289,144.531,209.473,107.422,0
1505772176.492,185.547,68.359,143.066,209.473,141.113,0
1505772176.496,177.734,57.617,136.719,197.754,130.371,0
1505772176.500,168.457,57.129,132.324,191.895,107.910,0
1505772176.504,166.992,48.828,127.441,198.730,121.094,0
1505772176.508,168.457,57.129,123.047,191.895,123.535,0
1505772176.512,169.434,54.199,110.352,177.246,104.004,0
1505772176.516,156.250,34.180,101.562,166.992,72.266,0
1505772176.520,143.555,22.949,96.680,165.039,121.582,0
1505772176.524,139.648,32.227,91.797,159.668,162.598,0
1505772176.528,156.250,39.062,101.074,166.016,113.770,0
1505772176.531,157.715,30.762,95.703,168.457,115.723,0
1505772176.535,132.324,20.508,77.637,144.043,111.328,0
1505772176.539,141.602,20.996,86.914,141.113,90.820,0
1505772176.543,160.156,38.574,98.633,150.879,99.121,0
1505772176.547,156.738,39.062,99.121,147.949,116.699,0
1505772176.551,158.691,35.645,106.934,158.691,112.305,0
1505772176.555,163.086,59.570,100.098,168.457,83.496,0
1505772176.559,158.691,62.988,109.375,161.133,95.703,0
1505772176.563,149.902,45.410,121.582,153.320,110.840,0
1505772176.567,134.766,30.762,114.746,142.090,127.441,0
1505772176.571,140.625,29.785,117.188,143.066,113.770,0
1505772176.574,139.160,39.551,111.816,148.438,61.523,0
1505772176.578,130.859,35.645,101.074,145.020,95.703,0
1505772176.582,152.832,37.109,108.887,151.367,113.770,0
1505772176.586,156.738,33.691,109.375,145.020,83.496,0
1505772176.590,143.066,26.855,106.934,143.555,102.051,0
1505772176.594,152.344,38.086,121.094,159.668,110.840,0
1505772176.598,165.039,51.758,120.605,154.297,110.352,0
1505772176.602,148.926,51.270,106.934,139.160,103.027,0
1505772176.606,137.207,39.551,95.215,129.883,98.633,0
1505772176.610,139.648,32.227,89.844,122.559,118.164,0
1505772176.614,141.602,41.504,89.844,135.254,142.578,0
1505772176.617,142.090,30.762,90.820,143.555,143.066,0
1505772176.621,129.395,14.648,82.520,134.766,106.934,0
1505772176.625,124.512,14.160,70.312,131.836,108.887,0
1505772176.629,140.137,19.531,76.172,146.484,106.445,0
1505772176.633,137.695,18.555,79.102,147.949,112.305,0
1505772176.637,126.465,18.066,79.590,145.996,95.215,0
1505772176.641,133.301,25.879,88.379,150.391,86.426,0
1505772176.645,147.461,33.691,97.656,153.809,87.891,0
1505772176.649,146.484,29.297,96.191,157.227,82.031,0
1505772176.653,140.137,15.137,84.473,152.832,83.496,0
1505772176.656,137.695,17.090,81.543,155.273,111.816,0
1505772176.660,155.762,35.156,98.145,166.504,125.000,0
1505772176.664,156.250,33.691,95.215,161.621,102.539,0
1505772176.668,136.230,21.484,71.289,147.461,86.426,0
1505772176.672,140.137,15.137,73.242,147.461,93.262,0
1505772176.676,156.250,22.461,102.539,166.504,95.215,0
1505772176.680,160.645,37.598,114.746,169.434,76.660,0
1505772176.684,153.809,34.180,104.492,158.203,87.891,0
1505772176.688,161.621,29.297,106.934,163.574,94.727,0
1505772176.692,158.691,31.738,115.234,168.457,69.824,0
1505772176.696,150.391,41.016,114.258,167.480,68.359,0
1505772176.699,148.926,38.086,104.980,164.551,80.078,0
1505772176.703,154.785,35.156,102.051,166.504,62.988,0
1505772176.707,165.039,39.062,110.352,172.852,93.750,0
1505772176.711,170.410,34.668,108.398,172.852,123.047,0
1505772176.715,175.781,31.738,104.980,169.922,99.121,0
1505772176.719,181.641,28.809,113.281,171.387,73.242,0
1505772176.723,176.758,32.227,117.188,166.504,68.848,0
1505772176.727,166.504,43.457,108.887,151.855,103.027,0
1505772176.731,166.992,56.152,108.398,151.855,106.445,0
1505772176.735,157.227,58.105,116.211,156.250,93.750,0
1505772176.739,138.672,42.969,119.141,149.902,67.871,0
1505772176.742,128.906,28.809,115.234,142.578,67.383,0
1505772176.746,139.648,33.203,110.352,156.250,100.098,0
1505772176.750,156.738,41.016,117.188,169.434,86.426,0
1505772176.754,149.902,46.387,114.746,165.039,100.098,0
1505772176.758,132.812,36.621,98.633,150.391,104.980,0
1505772176.762,124.023,31.250,98.145,143.066,72.754,0
1505772176.766,133.301,49.805,103.516,146.973,66.406,0
1505772176.770,137.207,36.133,93.262,133.301,91.797,0
1505772176.774,105.469,15.137,77.637,113.281,83.984,0
1505772176.778,94.727,24.414,79.590,122.559,50.781,0
1505772176.781,115.723,38.574,97.656,145.508,46.387,0
1505772176.785,125.488,41.992,101.562,147.461,50.781,0
1505772176.789,121.582,37.109,93.750,144.043,62.012,0
1505772176.793,133.301,45.410,98.633,152.832,59.082,0
1505772176.797,139.648,55.664,99.121,153.809,73.242,0
1505772176.801,136.719,53.711,95.703,159.180,88.379,0
1505772176.805,129.395,42.969,90.820,157.715,145.020,0
1505772176.809,125.000,35.645,91.797,148.438,132.324,0
1505772176.813,129.883,29.297,97.168,153.320,69.824,0
1505772176.817,128.418,6.348,92.285,149.902,75.195,0
1505772176.821,122.070,12.207,90.332,141.602,81.055,0
1505772176.824,126.465,33.203,99.121,144.531,94.238,0
1505772176.828,127.930,26.855,83.496,146.973,86.426,0
1505772176.832,121.582,19.043,71.777,137.695,96.191,0
1505772176.836,126.465,27.832,85.938,136.719,122.070,0
1505772176.840,145.996,41.016,100.098,153.809,50.781,0
1505772176.844,154.297,48.340,107.910,164.551,28.320,0
1505772176.848,148.926,47.363,103.516,161.133,78.613,0
1505772176.852,143.555,37.109,97.168,154.297,115.234,0
1505772176.856,152.832,47.852,105.469,161.133,97.656,0
1505772176.860,154.785,58.594,108.887,163.574,46.875,0
1505772176.864,138.672,33.203,97.168,151.855,51.270,0
1505772176.867,141.113,31.738,105.469,150.391,74.707,0
1505772176.871,143.066,45.410,109.863,145.508,64.941,0
1505772176.875,142.578,43.457,105.469,149.902,53.711,0
1505772176.879,153.809,42.969,108.398,156.738,64.941,0
1505772176.883,162.109,43.945,118.652,158.203,81.055,0
1505772176.887,177.734,58.105,137.207,173.340,105.957,0
1505772176.891,188.965,64.941,142.090,181.641,100.098,0
1505772176.895,181.641,54.199,133.789,174.805,116.699,0
1505772176.899,138.672,19.043,98.145,137.695,125.977,0
1505772176.903,102.051,-15.625,64.453,98.145,56.641,0
1505772176.906,97.656,-24.902,53.223,91.797,39.062,0
1505772176.910,86.426,-19.531,49.805,83.008,55.176,0
1505772176.914,82.031,-2.441,57.617,88.379,65.430,0
1505772176.918,82.520,-2.930,63.477,97.168,44.922,0
1505772176.922,78.613,-10.742,62.500,86.426,56.152,0
1505772176.926,87.402,-8.789,65.430,93.262,79.102,0
1505772176.930,94.727,-3.418,71.777,112.305,56.641,0
1505772176.934,96.191,-1.953,71.777,123.047,80.566,0
1505772176.938,109.863,0.977,81.543,132.324,87.402,0
1505772176.942,105.469,10.254,89.844,132.324,89.355,0
1505772176.946,102.051,13.672,89.844,130.859,109.863,0
1505772176.949,102.539,11.719,91.309,132.812,61.523,0
1505772176.953,98.145,11.719,88.379,120.117,54.199,0
1505772176.957,100.586,13.184,88.379,119.141,77.637,0
1505772176.961,106.934,16.113,89.355,125.000,70.801,0
1505772176.965,98.145,13.184,83.496,118.652,50.293,0
1505772176.969,84.961,9.277,73.242,114.258,74.707,0
1505772176.973,88.379,16.602,76.660,119.629,104.980,0
1505772176.977,91.797,31.738,80.078,117.188,116.211,0
1505772176.981,92.285,35.156,73.242,110.840,86.914,0
1505772176.985,97.656,19.531,53.711,116.211,59.082,0
1505772176.989,96.191,11.230,54.199,120.117,83.984,0
1505772176.992,88.379,7.324,69.824,116.699,75.195,0
1505772176.996,83.984,13.184,64.453,106.445,55.176,0
1505772177.000,90.820,29.297,63.965,106.934,86.914,0
1505772177.004,114.258,40.527,83.008,129.883,82.520,0
1505772177.008,125.977,42.969,84.961,134.277,58.594,0
1505772177.012,117.676,31.250,70.312,117.676,46.875,0
1505772177.016,122.070,29.297,72.754,119.629,68.848,0
1505772177.020,133.301,35.645,84.961,135.254,71.777,0
1505772177.024,136.719,33.203,84.473,132.324,58.594,0
1505772177.028,123.535,25.391,76.660,118.164,96.191,0
1505772177.031,119.141,29.785,76.660,118.164,95.215,0
1505772177.035,129.883,47.363,86.426,130.859,102.539,0
1505772177.039,126.465,43.945,89.844,126.953,112.793,0
1505772177.043,110.352,20.508,82.520,118.164,88.379,0
1505772177.047,118.164,32.715,89.844,128.906,75.684,0
1505772177.051,116.211,35.645,92.773,125.977,49.316,0
1505772177.055,113.281,17.578,92.285,123.047,79.102,0
1505772177.059,124.023,31.250,100.586,130.859,104.004,0
1505772177.063,129.883,50.293,112.305,139.160,87.402,0
1505772177.067,126.953,57.129,120.117,141.602,55.664,0
1505772177.071,118.652,54.199,111.816,134.766,51.758,0
1505772177.074,120.605,51.270,104.980,142.090,88.379,0
1505772177.078,124.023,46.387,114.746,146.973,83.008,0
1505772177.082,128.906,48.340,120.605,143.555,99.609,0
1505772177.086,113.281,40.039,110.352,133.301,145.020,0
1505772177.090,101.562,34.668,105.469,136.230,122.559,0
1505772177.094,102.539,32.715,110.352,143.555,101.562,0
1505772177.098,99.121,33.203,107.422,140.625,60.059,0
1505772177.102,88.379,29.785,91.797,128.418,47.852,0
1505772177.106,91.797,19.043,88.379,129.883,98.145,0
1505772177.110,106.934,44.434,99.121,140.625,95.215,0
1505772177.114,102.539,57.129,102.051,145.020,71.777,0
1505772177.117,95.215,37.109,96.680,143.555,88.379,0
1505772177.121,94.727,32.715,85.449,137.207,87.402,0
1505772177.125,98.145,44.434,81.055,136.719,96.680,0
1505772177.129,95.215,49.805,96.191,137.207,120.117,0
1505772177.133,94.238,43.945,100.098,130.371,116.699,0
1505772177.137,102.539,41.016,101.562,132.324,103.027,0
1505772177.141,120.117,53.223,106.445,142.090,84.473,0
1505772177.145,122.559,58.105,95.703,136.719,50.781,0
1505772177.149,104.004,57.129,84.961,126.465,73.242,0
1505772177.153,101.562,60.059,92.773,134.277,84.961,0
1505772177.156,109.863,61.035,95.703,141.113,57.617,0
1505772177.160,114.746,59.082,93.262,133.789,54.199,0
1505772177.164,114.258,58.105,97.656,132.812,63.477,0
1505772177.168,107.910,53.223,103.516,131.836,69.336,0
1505772177.172,106.445,42.480,104.492,127.441,76.660,0
1505772177.176,113.281,44.434,108.398,130.371,104.004,0
1505772177.180,116.699,49.805,104.492,131.836,117.676,0
1505772177.184,115.723,55.664,97.656,128.418,105.957,0
1505772177.188,118.652,63.477,105.469,123.535,61.035,0
1505772177.192,109.375,51.758,100.098,113.281,32.227,0
1505772177.196,105.957,47.852,94.238,116.699,62.988,0
1505772177.199,113.281,62.012,105.957,128.906,82.520,0
1505772177.203,113.770,49.805,108.398,126.465,79.590,0
1505772177.207,100.586,38.574,101.562,124.023,82.031,0
1505772177.211,99.121,42.969,103.516,128.906,78.125,0
1505772177.215,106.445,44.434,108.887,126.953,74.707,0
1505772177.219,113.770,45.898,108.887,127.441,63.965,0
1505772177.223,113.770,53.711,105.469,127.441,89.844,0
1505772177.227,103.027,44.922,98.633,119.141,122.559,0
1505772177.231,110.352,45.410,108.887,127.930,87.891,0
1505772177.235,121.094,48.340,114.746,133.789,53.711,0
1505772177.239,128.906,39.062,110.840,128.906,69.824,0
1505772177.242,140.625,44.922,118.164,139.160,102.051,0
1505772177.246,134.766,49.805,114.746,148.926,98.633,0
1505772177.250,129.395,56.152,95.215,144.531,63.477,0
1505772177.254,134.277,62.012,87.402,139.648,72.266,0
1505772177.258,141.113,62.988,104.492,152.344,103.516,0
1505772177.262,142.578,51.270,109.375,151.855,117.188,0
1505772177.266,140.137,49.316,112.793,150.879,95.215,0
1505772177.270,143.555,58.105,121.094,154.297,93.262,0
1505772177.274,144.531,51.270,122.070,151.367,97.656,0
1505772177.278,141.113,45.410,109.863,154.785,88.867,0
1505772177.281,132.812,41.992,102.539,151.855,93.750,0
1505772177.285,126.953,41.016,110.352,150.391,95.215,0
1505772177.289,127.930,47.852,115.234,156.738,101.562,0
1505772177.293,136.719,55.176,118.652,161.621,91.797,0
1505772177.297,136.719,51.758,116.211,159.668,72.754,0
1505772177.301,127.930,38.086,104.492,150.879,121.094,0
1505772177.305,128.906,37.109,104.004,153.809,117.188,0
1505772177.309,136.230,52.246,119.141,165.039,80.566,0
1505772177.313,152.344,68.359,132.812,169.434,75.684,0
1505772177.317,173.340,71.289,142.090,179.199,95.703,0
1505772177.321,162.109,59.082,130.371,173.828,125.488,0
1505772177.324,138.672,70.801,111.328,162.598,94.727,0
1505772177.328,137.695,80.078,112.793,159.668,84.961,0
1505772177.332,149.414,72.754,124.512,159.668,103.027,0
1505772177.336,155.762,73.730,136.230,170.898,65.430,0
1505772177.340,157.715,89.355,150.391,175.781,40.039,0
1505772177.344,178.223,101.074,163.574,188.965,54.199,0
1505772177.348,198.730,108.887,180.664,210.449,69.824,0
1505772177.352,196.289,109.375,183.105,204.102,50.293,0
1505772177.356,186.523,105.469,174.316,189.941,43.945,0
1505772177.360,182.617,102.051,175.293,188.477,76.660,0
1505772177.364,181.641,103.027,178.711,191.895,107.910,0
1505772177.367,171.387,99.121,186.035,190.430,87.891,0
1505772177.371,156.250,89.355,178.223,184.082,80.566,0
1505772177.375,160.156,89.844,168.945,184.570,101.562,0
1505772177.379,171.387,85.938,169.922,189.453,63.965,0
1505772177.383,161.621,80.566,158.691,185.059,59.570,0
1505772177.387,162.598,82.520,153.320,177.734,84.473,0
1505772177.391,167.969,75.684,155.762,177.246,78.613,0
1505772177.395,156.250,69.336,150.879,177.246,59.082,0
1505772177.399,142.090,58.105,132.324,170.410,44.434,0
1505772177.403,126.465,47.363,128.906,164.551,43.457,0
1505772177.406,125.488,48.340,133.789,159.180,53.223,0
1505772177.410,135.254,50.781,136.719,164.062,74.707,0
1505772177.414,129.395,42.969,130.859,166.504,69.824,0
1505772177.418,118.164,28.809,116.211,156.738,45.898,0
1505772177.422,125.977,28.320,115.723,162.598,67.871,0
1505772177.426,146.484,44.922,126.465,171.387,53.223,0
1505772177.430,145.020,40.527,121.094,160.156,37.598,0
1505772177.434,124.023,23.926,99.609,145.508,56.641,0
1505772177.438,126.465,24.414,96.191,144.043,68.848,0
1505772177.442,135.254,31.250,102.539,148.438,56.641,0
1505772177.446,143.555,48.828,104.980,154.297,64.453,0
1505772177.449,146.973,50.293,102.539,154.785,73.730,0
1505772177.453,147.461,45.898,104.980,159.180,93.750,0
1505772177.457,152.344,51.758,111.328,163.086,95.215,0
1505772177.461,144.531,57.129,107.422,150.391,120.605,0
1505772177.465,132.324,57.617,98.633,133.301,125.488,0
1505772177.469,133.301,58.105,102.051,128.906,77.148,0
1505772177.473,132.324,57.617,112.793,130.859,41.016,0
1505772177.477,124.023,44.922,97.656,110.840,56.152,0
1505772177.481,113.770,38.574,83.008,88.379,85.938,0
1505772177.485,113.281,44.922,86.426,84.961,67.383,0
1505772177.489,104.492,33.691,84.473,76.660,72.754,0
1505772177.492,82.520,20.508,69.824,59.570,78.125,0
1505772177.496,75.684,21.484,66.406,56.641,70.801,0
1505772177.500,71.777,28.809,70.801,61.523,68.359,0
1505772177.504,67.871,37.598,73.242,66.895,68.359,0
1505772177.508,62.012,35.156,77.148,67.383,82.520,0
1505772177.512,56.641,19.531,71.289,55.664,100.098,0
1505772177.516,62.012,19.531,73.242,59.570,69.336,0
1505772177.520,54.199,20.020,71.289,62.988,56.641,0
1505772177.524,40.039,5.371,64.453,59.082,88.379,0
1505772177.528,56.641,15.137,78.613,77.637,105.469,0
1505772177.531,70.312,23.926,82.031,87.402,91.309,0
1505772177.535,75.684,20.020,80.078,91.797,61.035,0
1505772177.539,72.754,15.137,79.590,93.750,91.797,0
1505772177.543,70.801,16.602,78.613,91.309,95.703,0
1505772177.547,73.730,16.602,79.590,94.727,44.922,0
1505772177.551,66.895,4.883,82.520,97.168,64.941,0
1505772177.555,70.312,3.906,70.801,92.773,101.562,0
1505772177.559,84.473,13.672,55.664,101.074,74.707,0
1505772177.563,103.516,20.020,77.148,115.723,37.598,0
1505772177.567,98.145,15.137,87.891,108.398,42.969,0
1505772177.571,87.402,21.484,86.426,106.934,80.566,0
1505772177.574,88.867,34.180,93.750,114.746,68.848,0
1505772177.578,92.773,22.461,88.867,110.352,75.684,0
1505772177.582,99.121,11.719,85.449,107.910,85.938,0
1505772177.586,102.051,21.973,85.938,106.445,77.148,0
1505772177.590,104.004,32.715,83.984,105.469,73.730,0
1505772177.594,99.121,38.574,79.590,104.004,52.246,0
1505772177.598,109.375,41.504,76.660,111.328,88.867,0
1505772177.602,114.746,41.016,70.312,112.305,116.211,0
1505772177.606,125.977,51.270,81.543,119.141,67.871,0
1505772177.610,136.719,62.500,89.844,130.371,31.250,0
1505772177.614,136.719,47.363,79.590,127.441,57.617,0
1505772177.617,145.508,38.574,84.473,131.836,79.590,0
1505772177.621,153.320,53.223,93.262,134.766,37.598,0
1505772177.625,142.090,46.875,87.891,127.930,29.297,0
1505772177.629,127.441,41.504,83.496,125.000,79.102,0
1505772177.633,138.184,44.434,88.867,132.324,83.496,0
1505772177.637,133.789,36.621,83.984,122.559,72.266,0
1505772177.641,123.535,38.086,85.938,113.281,75.684,0
1505772177.645,119.141,37.598,86.914,108.887,73.242,0
1505772177.649,117.676,33.203,84.473,102.051,57.617,0
1505772177.653,122.559,36.133,88.867,110.352,59.082,0
1505772177.656,103.516,32.227,83.008,109.375,80.078,0
1505772177.660,89.844,25.879,79.590,98.145,99.609,0
1505772177.664,114.258,20.508,76.172,110.840,81.055,0
1505772177.668,110.840,19.043,71.777,112.305,71.289,0
1505772177.672,87.402,20.020,79.102,96.680,80.566,0
1505772177.676,85.449,18.066,77.148,88.867,79.590,0
1505772177.680,85.938,24.414,75.195,95.215,43.945,0
1505772177.684,77.637,20.020,64.941,91.309,32.227,0
1505772177.688,76.660,16.602,52.734,79.102,61.035,0
1505772177.692,79.102,16.602,51.270,81.543,97.168,0
1505772177.696,80.078,17.578,54.199,88.867,93.750,0
1505772177.699,83.984,23.438,50.781,83.984,41.504,0
1505772177.703,77.637,22.949,35.645,72.266,50.293,0
1505772177.707,80.566,29.785,37.109,78.125,51.758,0
1505772177.711,86.426,26.855,43.457,76.172,29.785,0
1505772177.715,81.055,18.555,40.527,63.965,69.336,0
1505772177.719,72.266,21.484,32.227,62.500,74.219,0
1505772177.723,69.824,32.227,27.344,64.941,44.434,0
1505772177.727,69.824,33.691,27.832,57.129,42.969,0
1505772177.731,63.477,25.391,25.391,55.664,62.988,0
1505772177.735,64.941,29.297,27.832,60.547,63.477,0
1505772177.739,74.219,33.203,37.109,70.801,87.891,0
1505772177.742,80.566,41.992,44.434,78.613,82.031,0
1505772177.746,78.125,46.875,39.062,74.707,38.574,0
1505772177.750,78.613,36.621,32.715,68.359,63.965,0
1505772177.754,87.402,36.133,37.109,72.266,53.711,0
1505772177.758,83.496,38.574,35.156,74.219,47.363,0
1505772177.762,74.219,40.039,32.227,75.195,52.734,0
1505772177.766,89.844,38.574,39.062,83.008,53.223,0
1505772177.770,103.027,47.852,53.711,94.238,64.453,0
1505772177.774,103.027,66.406,65.918,108.398,73.730,0
1505772177.778,102.539,58.594,59.570,105.957,72.266,0
1505772177.781,106.445,51.758,55.176,103.027,44.434,0
1505772177.785,120.117,54.688,66.406,115.234,86.914,0
1505772177.789,107.422,48.340,64.941,112.305,90.332,0
1505772177.793,84.473,31.738,52.246,98.145,42.480,0
1505772177.797,83.984,23.438,54.688,93.262,52.246,0
1505772177.801,85.449,26.367,63.477,95.703,30.273,0
1505772177.805,80.566,30.273,64.453,96.680,30.273,0
1505772177.809,76.172,19.043,60.059,93.262,69.336,0
1505772177.813,79.102,14.648,56.641,94.238,67.383,0
1505772177.817,75.684,27.832,54.688,96.680,62.500,0
1505772177.821,77.148,28.320,63.477,103.516,83.496,0
1505772177.824,75.684,19.531,57.129,98.633,68.848,0
1505772177.828,74.219,11.719,52.734,94.238,73.242,0
1505772177.832,78.125,7.812,75.195,102.539,97.656,0
1505772177.836,76.172,-3.906,79.102,105.957,107.422,0
1505772177.840,66.895,-15.625,76.660,103.516,98.633,0
1505772177.844,61.523,-9.766,75.684,98.145,104.980,0
1505772177.848,63.965,-5.859,76.172,106.445,66.895,0
1505772177.852,50.781,-24.414,67.383,93.750,55.176,0
1505772177.856,48.828,-32.715,63.477,83.984,104.980,0
1505772177.860,57.129,-20.020,72.754,97.168,80.566,0
1505772177.864,55.176,-21.484,68.848,92.773,59.082,0
1505772177.867,47.852,-32.715,57.617,82.520,71.777,0
1505772177.871,45.898,-30.762,65.918,85.938,96.191,0
1505772177.875,60.547,-26.367,71.289,95.703,105.957,0
1505772177.879,63.965,-30.273,62.500,103.516,117.676,0
1505772177.883,59.082,-38.574,55.664,99.609,113.281,0
1505772177.887,59.082,-43.945,57.129,91.797,68.848,0
1505772177.891,58.105,-40.039,57.617,95.215,58.105,0
1505772177.895,48.828,-46.875,48.340,91.309,80.078,0
1505772177.899,43.945,-61.523,46.875,82.031,78.613,0
1505772177.903,58.105,-51.270,49.316,86.914,65.918,0
1505772177.906,66.406,-36.133,48.828,91.309,55.664,0
1505772177.910,64.453,-45.898,37.598,83.496,38.086,0
1505772177.914,59.082,-56.641,24.414,74.219,48.340,0
1505772177.918,68.848,-44.434,34.668,85.449,72.266,0
1505772177.922,73.242,-50.781,42.480,89.844,73.242,0
1505772177.926,75.684,-55.664,41.016,85.449,84.961,0
1505772177.930,61.523,-42.969,36.621,75.684,95.215,0
1505772177.934,49.805,-31.250,24.902,67.871,84.473,0
1505772177.938,51.270,-27.344,13.672,64.453,47.363,0
1505772177.942,33.691,-48.828,20.020,44.922,59.570,0
1505772177.946,28.809,-55.664,30.273,38.574,84.961,0
1505772177.949,31.250,-37.109,41.992,52.246,71.289,0
1505772177.953,37.109,-31.250,43.457,55.176,71.777,0
1505772177.957,32.227,-36.621,26.367,42.480,68.848,0
1505772177.961,23.926,-32.715,27.832,46.875,81.543,0
1505772177.965,32.227,-26.855,38.574,61.035,77.148,0
1505772177.969,34.668,-30.273,41.992,65.918,70.312,0
1505772177.973,30.762,-41.016,47.363,63.477,83.984,0
1505772177.977,28.320,-41.992,33.691,58.105,98.633,0
1505772177.981,29.785,-35.645,30.762,66.406,82.520,0
1505772177.985,35.156,-29.297,38.086,59.570,53.223,0
1505772177.989,37.598,-20.996,36.133,50.781,78.613,0
1505772177.992,51.270,-7.324,46.875,63.965,76.660,0
1505772177.996,55.176,5.859,47.363,68.848,73.242,0
1505772178.000,51.758,4.395,44.434,73.242,85.449,0
1505772178.004,42.969,-5.371,41.016,69.824,75.195,0
1505772178.008,46.875,0.488,44.922,71.289,62.012,0
1505772178.012,49.805,4.395,43.457,73.730,78.613,0
1505772178.016,47.852,0.488,41.016,75.684,75.195,0
1505772178.020,54.199,-3.418,48.340,83.984,95.215,0
1505772178.024,57.617,-2.930,44.434,86.426,114.258,0
1505772178.028,72.266,11.230,56.152,96.191,55.176,0
1505772178.031,74.219,8.301,48.828,89.844,39.062,0
1505772178.035,72.266,10.742,33.203,83.984,77.637,0
1505772178.039,86.426,31.738,43.457,96.191,68.848,0
1505772178.043,82.520,34.180,38.574,94.238,42.969,0
1505772178.047,64.941,16.602,22.949,81.055,61.035,0
1505772178.051,60.059,13.672,21.484,77.637,77.148,0
1505772178.055,68.848,18.066,27.344,82.031,71.289,0
1505772178.059,76.172,16.602,28.320,81.543,65.430,0
1505772178.063,78.125,16.113,33.203,84.961,67.871,0
1505772178.067,83.496,23.438,33.691,89.355,124.512,0
1505772178.071,86.426,32.715,32.227,87.891,119.629,0
1505772178.074,87.402,33.691,27.832,84.961,29.297,0
1505772178.078,86.914,28.809,17.578,77.637,52.734,0
1505772178.082,90.820,30.273,16.602,73.242,101.074,0
1505772178.086,98.145,29.297,22.949,77.148,74.707,0
1505772178.090,109.375,24.902,32.227,87.891,81.055,0
1505772178.094,105.469,35.645,31.250,83.008,71.777,0
1505772178.098,100.098,51.758,31.250,79.102,61.523,0
1505772178.102,111.816,60.547,45.898,91.309,65.918,0
1505772178.106,119.629,64.453,53.223,95.215,49.805,0
1505772178.110,121.582,58.105,51.758,94.238,63.477,0
1505772178.114,122.070,59.082,48.828,104.004,86.426,0
1505772178.117,122.070,60.059,49.805,111.328,61.523,0
1505772178.121,108.398,46.875,44.922,103.516,30.273,0
1505772178.125,97.656,36.621,37.598,97.656,65.430,0
1505772178.129,95.703,28.320,38.086,102.051,82.520,0
1505772178.133,89.355,16.602,30.273,96.191,51.758,0
1505772178.137,89.355,13.672,29.297,94.727,56.641,0
1505772178.141,87.891,17.090,34.180,94.238,75.684,0
1505772178.145,91.797,20.996,39.551,101.074,50.293,0
1505772178.149,83.984,19.531,35.156,102.539,34.180,0
1505772178.153,70.801,8.301,28.809,88.379,52.734,0
1505772178.156,73.730,-3.418,38.086,85.449,64.941,0
1505772178.160,86.914,12.207,46.875,98.633,76.660,0
1505772178.164,89.844,17.578,40.039,98.633,81.543,0
1505772178.168,77.148,11.230,23.926,77.637,44.922,0
1505772178.172,69.824,13.672,19.043,75.195,52.734,0
1505772178.176,83.496,21.973,33.203,89.844,62.012,0
1505772178.180,95.215,23.926,34.180,92.285,59.570,0
1505772178.184,97.168,27.344,34.668,94.238,58.594,0
1505772178.188,101.074,41.016,45.898,102.051,75.195,0
1505772178.192,99.609,29.785,40.527,93.750,86.426,0
1505772178.196,92.285,25.391,34.668,90.332,76.660,0
1505772178.199,86.914,40.039,36.621,90.820,101.562,0
1505772178.203,96.191,45.410,39.551,89.355,96.191,0
1505772178.207,95.215,39.062,44.434,93.750,95.703,0
1505772178.211,82.520,35.156,42.480,94.727,110.840,0
1505772178.215,85.938,38.574,36.621,88.867,84.473,0
1505772178.219,91.309,41.504,37.598,75.684,71.289,0
1505772178.223,95.215,47.852,40.039,76.660,98.633,0
1505772178.227,102.051,56.641,45.898,86.914,98.145,0
1505772178.231,109.863,64.453,54.199,88.379,66.406,0
1505772178.235,111.816,73.242,69.824,96.191,48.340,0
1505772178.239,108.887,57.617,79.102,98.145,29.297,0
1505772178.242,87.402,40.039,69.824,84.961,46.387,0
1505772178.246,71.777,52.734,68.359,82.031,81.055,0
1505772178.250,72.754,58.594,73.730,84.473,75.195,0
1505772178.254,70.312,53.711,73.242,83.984,87.891,0
1505772178.258,55.176,38.574,63.477,76.172,86.426,0
1505772178.262,56.152,32.715,67.383,76.660,86.914,0
1505772178.266,70.312,44.434,76.660,83.496,69.336,0
1505772178.270,66.406,42.969,73.242,79.590,49.316,0
1505772178.274,66.406,29.785,67.383,74.707,65.918,0
1505772178.278,64.453,23.438,61.035,74.219,62.012,0
1505772178.281,60.547,22.949,57.617,79.102,56.641,0
1505772178.285,70.801,28.320,64.453,88.379,69.336,0
1505772178.289,64.941,28.320,62.500,87.402,86.914,0
1505772178.293,59.082,20.996,55.176,81.543,57.129,0
1505772178.297,66.406,20.996,58.594,86.914,59.082,0
1505772178.301,75.684,25.391,59.082,100.098,84.961,0
1505772178.305,79.590,26.855,59.082,101.074,93.750,0
1505772178.309,80.566,27.344,48.828,97.168,115.723,0
1505772178.313,85.938,33.691,49.805,106.445,60.059,0
1505772178.317,77.637,27.832,64.941,104.004,14.648,0
1505772178.321,68.359,18.555,60.059,89.355,64.453,0
1505772178.324,82.031,18.066,60.059,96.191,70.801,0
1505772178.328,92.773,9.277,59.570,101.562,44.922,0
1505772178.332,87.402,-4.395,48.828,92.285,60.547,0
1505772178.336,79.102,-5.371,48.340,89.844,72.754,0
1505772178.340,77.637,0.977,55.176,93.750,62.988,0
1505772178.344,72.754,-0.977,56.641,97.168,52.246,0
1505772178.348,71.289,-11.719,53.223,94.238,66.895,0
1505772178.352,70.801,-21.484,52.734,86.426,85.938,0
1505772178.356,67.383,-22.949,67.383,87.402,51.758,0
1505772178.360,67.871,-26.855,69.824,95.703,9.277,0
1505772178.364,64.941,-26.855,61.523,90.820,75.684,0
1505772178.367,68.848,-22.949,64.453,80.566,87.402,0
1505772178.371,80.566,-17.578,64.941,83.496,26.855,0
1505772178.375,72.266,-26.367,63.477,83.984,30.273,0
1505772178.379,43.945,-50.293,45.410,60.547,66.406,0
1505772178.383,38.574,-53.223,35.645,47.363,94.727,0
1505772178.387,36.133,-51.270,31.738,42.969,57.129,0
1505772178.391,36.133,-49.316,25.879,37.109,51.270,0
1505772178.395,45.410,-44.922,24.414,46.387,79.102,0
1505772178.399,46.875,-49.316,22.461,45.898,80.078,0
1505772178.403,47.852,-43.945,30.273,50.781,34.180,0
1505772178.406,42.969,-53.223,20.508,50.781,21.484,0
1505772178.410,42.969,-62.500,15.137,45.898,69.824,0
1505772178.414,56.152,-48.828,32.715,61.523,66.895,0
1505772178.418,67.383,-49.805,37.109,62.012,70.312,0
1505772178.422,64.941,-51.758,29.297,62.012,89.355,0
1505772178.426,69.824,-39.062,25.391,72.754,84.961,0
1505772178.430,79.590,-22.949,31.738,78.125,81.543,0
1505772178.434,73.730,-19.531,37.598,74.707,72.266,0
1505772178.438,70.312,-22.461,41.016,75.195,77.637,0
1505772178.442,86.426,-16.113,42.969,84.473,106.445,0
1505772178.446,94.727,-7.812,40.527,84.473,90.332,0
1505772178.449,89.844,-10.742,36.621,84.473,20.996,0
1505772178.453,79.590,-19.531,27.344,69.824,30.762,0
1505772178.457,87.402,1.953,40.039,78.613,62.012,0
1505772178.461,107.910,21.973,61.523,105.469,16.113,0
1505772178.465,100.586,12.695,49.805,96.191,1.465,0
1505772178.469,92.773,1.953,40.527,85.938,57.129,0
1505772178.473,103.516,10.254,44.922,96.680,37.598,0
1505772178.477,95.215,3.906,39.062,92.773,10.742,0
1505772178.481,88.867,-4.883,23.926,85.938,43.945,0
1505772178.485,89.355,0.000,23.438,84.473,70.312,0
1505772178.489,90.332,-8.301,51.270,81.055,86.914,0
1505772178.492,86.914,-20.020,53.711,75.684,63.965,0
1505772178.496,73.242,-26.855,31.738,63.477,41.992,0
1505772178.500,69.336,-21.973,27.832,55.176,60.059,0
1505772178.504,65.430,-8.789,38.574,62.012,60.547,0
1505772178.508,59.570,-9.766,38.574,55.664,17.578,0
1505772178.512,53.223,-14.648,28.809,49.316,14.160,0
1505772178.516,64.453,-5.859,32.715,57.617,57.129,0
1505772178.520,72.266,5.859,45.898,63.477,72.266,0
1505772178.524,65.430,0.000,40.527,58.105,56.641,0
1505772178.528,56.152,-14.648,28.320,45.410,47.852,0
1505772178.531,51.758,-10.254,29.785,44.434,41.504,0
1505772178.535,55.664,-7.324,35.156,53.223,79.102,0
1505772178.539,50.781,-10.254,35.156,49.805,78.613,0
1505772178.543,51.270,-8.789,33.203,42.480,45.898,0
1505772178.547,52.246,-11.719,32.715,45.898,66.406,0
1505772178.551,48.340,-6.348,43.945,53.711,67.871,0
1505772178.555,56.641,7.812,60.059,62.012,61.035,0
1505772178.559,60.547,13.184,62.012,69.824,95.703,0
1505772178.563,76.660,19.531,65.430,80.078,73.730,0
1505772178.567,83.008,18.555,73.242,87.402,33.203,0
1505772178.571,79.102,25.391,79.102,89.844,67.871,0
1505772178.574,74.219,40.527,77.148,86.914,71.777,0
1505772178.578,79.102,52.246,81.055,96.191,62.500,0
1505772178.582,88.379,53.223,90.820,102.539,79.590,0
1505772178.586,81.543,37.598,83.008,92.773,75.195,0
1505772178.590,81.543,29.297,74.219,88.379,78.613,0
1505772178.594,94.238,38.574,74.707,94.238,86.426,0
1505772178.598,88.867,37.109,72.266,95.703,57.617,0
1505772178.602,74.219,24.414,59.082,85.938,61.523,0
1505772178.606,74.219,24.902,46.387,76.172,83.496,0
1505772178.610,84.961,28.320,57.129,83.984,95.215,0
1505772178.614,76.172,22.949,56.641,80.078,94.238,0
1505772178.617,64.941,15.625,41.504,70.801,74.219,0
1505772178.621,80.078,15.625,46.387,75.195,72.266,0
1505772178.625,76.660,15.137,45.898,72.754,79.590,0
1505772178.629,69.824,10.254,36.621,69.336,91.797,0
1505772178.633,69.336,10.254,30.762,61.035,101.074,0
1505772178.637,66.406,12.695,30.762,56.152,77.148,0
1505772178.641,72.754,14.648,33.691,58.594,43.457,0
1505772178.645,69.336,11.719,33.691,57.617,46.387,0
1505772178.649,59.570,6.836,32.227,52.734,66.406,0
1505772178.653,62.012,11.719,40.039,52.734,83.496,0
1505772178.656,63.477,10.742,44.922,50.781,93.750,0
1505772178.660,60.547,10.254,46.387,54.688,87.891,0
1505772178.664,68.359,12.207,46.387,55.664,85.938,0
1505772178.668,75.195,5.859,54.199,60.059,89.355,0
1505772178.672,74.219,9.766,60.547,71.777,61.035,0
1505772178.676,76.172,28.320,57.617,75.195,56.152,0
1505772178.680,76.660,21.973,48.828,72.266,87.402,0
1505772178.684,71.289,6.836,42.480,64.941,90.820,0
1505772178.688,74.707,10.742,53.711,65.430,51.758,0
1505772178.692,66.895,-1.953,49.316,59.570,31.738,0
1505772178.696,52.246,-11.230,42.480,52.734,73.242,0
1505772178.699,62.988,-1.953,54.199,62.500,66.895,0
1505772178.703,73.242,-7.812,57.129,69.824,39.062,0
1505772178.707,60.059,-19.043,46.875,62.500,56.641,0
1505772178.711,37.109,-21.973,34.180,47.363,86.914,0
1505772178.715,25.879,-15.625,34.668,42.969,58.594,0
1505772178.719,26.855,-17.090,32.715,42.480,72.754,0
1505772178.723,31.250,-18.555,28.809,42.480,115.234,0
1505772178.727,25.879,-16.602,30.273,43.945,100.586,0
1505772178.731,31.738,-2.930,37.598,53.711,71.777,0
1505772178.735,42.480,5.371,43.945,59.082,42.969,0
1505772178.739,41.016,5.371,41.504,56.641,32.227,0
1505772178.742,45.898,12.207,41.504,57.129,57.617,0
1505772178.746,47.363,15.137,40.039,52.734,76.172,0
1505772178.750,43.457,14.160,32.715,44.922,67.871,0
1505772178.754,44.434,20.996,24.902,42.480,77.637,0
1505772178.758,49.316,34.668,30.273,43.457,73.242,0
1505772178.762,53.223,39.551,29.297,42.480,82.520,0
1505772178.766,54.688,42.969,28.320,53.223,75.684,0
1505772178.770,51.758,43.457,28.320,50.293,98.633,0
1505772178.774,54.688,38.574,26.367,50.781,123.047,0
1505772178.778,51.758,35.156,21.973,52.246,86.914,0
1505772178.781,47.852,25.879,15.137,46.387,75.684,0
1505772178.785,62.012,16.113,14.160,49.805,89.355,0
1505772178.789,68.848,26.367,23.438,52.246,61.523,0
1505772178.793,55.176,30.273,26.855,45.898,17.090,0
1505772178.797,41.504,15.137,16.113,31.738,42.969,0
1505772178.801,46.387,15.625,22.949,34.668,61.035,0
1505772178.805,60.059,30.762,35.645,48.828,52.246,0
1505772178.809,63.965,36.621,39.062,57.129,37.598,0
1505772178.813,65.918,25.391,32.715,55.176,72.754,0
1505772178.817,66.406,24.414,29.785,56.641,103.516,0
1505772178.821,60.547,20.996,33.691,57.617,98.633,0
1505772178.824,65.918,15.137,36.621,53.223,36.133,0
1505772178.828,64.453,11.230,29.297,45.898,26.855,0
1505772178.832,65.430,9.277,34.180,52.734,82.031,0
1505772178.836,72.266,6.836,41.992,61.035,69.336,0
1505772178.840,76.172,11.719,40.527,63.477,61.523,0
1505772178.844,83.008,7.812,49.316,66.895,82.520,0
1505772178.848,95.703,11.719,50.781,78.613,72.754,0
1505772178.852,99.609,25.391,51.758,85.449,53.223,0
1505772178.856,103.027,25.391,64.453,81.055,58.594,0
1505772178.860,97.168,28.809,67.383,84.473,70.312,0
1505772178.864,94.727,33.691,73.730,92.285,93.262,0
1505772178.867,109.375,37.109,82.031,98.633,71.777,0
1505772178.871,106.934,28.809,73.242,95.703,47.852,0
1505772178.875,92.285,12.207,62.500,92.285,82.520,0
1505772178.879,110.352,19.531,66.406,106.934,76.660,0
1505772178.883,126.465,25.879,65.430,106.445,62.500,0
1505772178.887,112.305,18.555,63.477,101.562,69.336,0
1505772178.891,105.957,19.531,73.730,111.816,69.824,0
1505772178.895,117.676,30.762,86.914,128.906,59.082,0
1505772178.899,111.328,30.273,83.008,121.094,66.406,0
1505772178.903,93.750,17.578,64.453,97.168,66.406,0
1505772178.906,94.238,20.508,55.664,92.285,50.781,0
1505772178.910,99.121,32.715,56.152,91.309,65.918,0
1505772178.914,86.914,29.297,47.363,80.566,57.129,0
1505772178.918,77.637,24.414,41.016,71.777,40.039,0
1505772178.922,79.590,29.785,41.992,72.266,77.637,0
1505772178.926,78.613,33.203,42.480,74.219,56.152,0
1505772178.930,72.754,25.879,34.668,66.895,25.879,0
1505772178.934,66.895,15.137,23.926,51.270,58.105,0
1505772178.938,68.848,20.020,29.785,52.246,78.613,0
1505772178.942,56.641,17.578,26.855,48.340,65.430,0
1505772178.946,47.852,14.160,26.855,38.086,55.664,0
1505772178.949,53.711,11.719,27.832,34.668,49.316,0
1505772178.953,60.059,8.789,27.832,36.621,53.711,0
1505772178.957,67.383,19.531,33.203,43.945,66.406,0
1505772178.961,56.641,18.066,26.367,35.645,97.656,0
1505772178.965,52.246,7.324,21.484,23.438,90.820,0
1505772178.969,58.105,13.672,34.668,24.414,48.828,0
1505772178.973,58.594,22.461,52.734,27.832,20.996,0
1505772178.977,38.086,9.766,44.434,19.043,24.902,0
1505772178.981,22.949,4.395,32.715,12.695,54.199,0
1505772178.985,24.414,10.254,37.109,20.508,61.035,0
1505772178.989,15.625,4.395,35.156,19.043,33.203,0
1505772178.992,6.348,-0.977,32.227,6.836,36.621,0
1505772178.996,1.953,0.488,38.086,14.160,48.340,0
1505772179.000,8.301,-6.348,53.711,35.645,42.480,0
1505772179.004,17.090,-6.348,59.082,34.668,74.707,0
1505772179.008,-2.930,-13.672,41.504,18.066,84.473,0
1505772179.012,-13.184,-25.879,33.203,17.090,88.867,0
1505772179.016,-5.371,-15.625,41.504,37.109,79.102,0
1505772179.020,-10.742,-22.461,41.016,40.527,56.641,0
1505772179.024,-16.113,-38.086,33.691,24.902,74.707,0
1505772179.028,-13.184,-36.133,38.086,28.320,87.891,0
1505772179.031,0.488,-25.879,43.457,45.898,60.059,0
1505772179.035,3.418,-18.066,40.039,46.875,44.922,0
1505772179.039,-3.418,-29.785,29.297,43.457,58.594,0
1505772179.043,8.789,-26.855,33.691,56.641,62.988,0
1505772179.047,33.203,-4.883,54.199,74.219,56.152,0
1505772179.051,54.199,17.090,64.453,90.332,47.852,0
1505772179.055,72.266,26.855,74.707,96.680,71.289,0
1505772179.059,78.125,28.809,82.520,99.121,70.801,0
1505772179.063,83.984,40.039,83.984,111.328,37.109,0
1505772179.067,79.102,35.156,77.637,101.562,22.461,0
1505772179.071,72.266,31.738,72.754,96.680,50.781,0
1505772179.074,81.543,37.598,81.543,107.422,52.734,0
1505772179.078,83.496,34.668,85.449,100.586,50.293,0
1505772179.082,72.266,32.227,80.078,104.004,56.641,0
1505772179.086,76.172,37.109,74.219,106.934,30.762,0
1505772179.090,94.727,49.805,82.520,104.492,44.434,0
1505772179.094,88.379,47.363,83.496,107.910,54.199,0
1505772179.098,78.125,41.016,74.219,92.285,67.871,0
1505772179.102,72.754,43.457,60.547,78.613,79.590,0
1505772179.106,72.754,49.316,56.641,86.426,37.109,0
1505772179.110,73.242,44.434,57.617,87.402,20.996,0
1505772179.114,68.848,31.738,38.086,81.055,27.832,0
1505772179.117,63.965,32.715,44.434,85.938,46.875,0
1505772179.121,54.199,28.320,59.570,78.125,45.410,0
1505772179.125,47.852,20.508,59.082,70.312,41.992,0
1505772179.129,28.320,5.371,55.176,56.641,80.078,0
1505772179.133,29.785,1.953,51.758,45.410,103.027,0
1505772179.137,24.414,0.000,49.316,45.898,83.984,0
1505772179.141,7.324,-7.812,41.504,37.109,48.828,0
1505772179.145,7.324,-5.859,37.109,22.949,78.613,0
1505772179.149,0.488,-7.324,24.414,14.648,106.445,0
1505772179.153,-13.672,-14.160,19.043,11.719,60.547,0
1505772179.156,-31.738,-31.250,14.648,-2.441,42.969,0
1505772179.160,-32.227,-38.086,15.137,-15.137,55.664,0
1505772179.164,-40.527,-32.227,24.414,-15.137,57.129,0
1505772179.168,-58.105,-43.457,20.996,-15.625,67.383,0
1505772179.172,-62.988,-47.852,15.625,-21.484,72.266,0
1505772179.176,-58.594,-38.574,22.949,-17.578,77.148,0
1505772179.180,-44.922,-30.762,32.227,-11.230,62.500,0
1505772179.184,-51.270,-35.156,24.902,-19.531,42.480,0
1505772179.188,-58.105,-38.574,11.230,-20.996,56.641,0
1505772179.192,-48.828,-26.367,13.672,-19.531,71.289,0
1505772179.196,-46.387,-31.738,6.348,-22.949,81.055,0
1505772179.199,-59.082,-37.598,-8.301,-27.344,69.336,0
1505772179.203,-66.895,-37.109,-13.672,-39.551,42.969,0
1505772179.207,-58.105,-33.691,-7.812,-39.062,39.062,0
1505772179.211,-48.828,-20.996,-0.488,-31.738,28.809,0
1505772179.215,-62.500,-30.762,-14.648,-46.875,24.902,0
1505772179.219,-65.430,-41.992,-27.832,-54.688,43.457,0
1505772179.223,-51.758,-27.344,-19.043,-45.898,59.082,0
1505772179.227,-51.758,-16.602,-11.719,-44.922,66.406,0
1505772179.231,-42.969,-5.371,-5.859,-39.551,72.754,0
1505772179.235,-46.875,0.977,-1.953,-35.645,68.848,0
1505772179.239,-53.223,-5.371,0.000,-33.203,96.191,0
1505772179.242,-39.551,-5.371,7.324,-33.203,94.238,0
1505772179.246,-41.992,-4.883,-1.465,-37.598,46.875,0
1505772179.250,-45.410,-20.020,-12.207,-37.598,68.359,0
1505772179.254,-40.527,-13.672,-7.812,-28.320,71.289,0
1505772179.258,-36.621,2.930,-6.348,-19.043,33.691,0
1505772179.262,-38.086,-4.395,-14.160,-22.461,26.855,0
1505772179.266,-39.062,-14.160,-17.578,-22.461,47.852,0
1505772179.270,-31.738,-7.812,-12.207,-12.695,47.363,0
1505772179.274,-32.715,-3.906,-19.043,-12.695,42.480,0
1505772179.278,-60.547,-40.527,-58.105,-48.340,53.711,0
1505772179.281,-75.684,-67.871,-84.473,-73.242,53.711,0
1505772179.285,-72.266,-61.523,-76.172,-68.848,79.102,0
1505772179.289,-77.637,-55.176,-69.824,-65.430,101.074,0
1505772179.293,-99.609,-75.195,-96.680,-83.008,86.426,0
1505772179.297,-121.582,-102.539,-128.906,-115.723,78.125,0
1505772179.301,-112.305,-95.215,-117.188,-110.352,72.266,0
