timestamps,TP9,AF7,AF8,TP10,Right AUX,Marker0
1505860749.654,62.500,67.871,28.809,40.039,-7.812,0
1505860749.658,56.152,63.477,17.578,32.715,-4.395,0
1505860749.662,45.898,50.293,5.371,29.785,21.973,0
1505860749.666,46.875,45.898,-0.488,33.691,15.625,0
1505860749.670,51.270,43.457,-1.953,33.691,46.875,0
1505860749.674,51.270,49.805,-0.977,30.273,55.176,0
1505860749.678,38.086,55.176,0.488,21.973,43.945,0
1505860749.682,30.273,51.270,4.395,13.672,39.062,0
1505860749.686,31.738,52.734,9.766,16.113,-5.371,0
1505860749.690,30.762,49.805,14.648,21.484,-1.953,0
1505860749.693,29.785,40.039,20.508,23.926,49.316,0
1505860749.697,27.344,32.227,18.555,20.508,23.438,0
1505860749.701,25.879,45.898,10.254,14.648,11.719,0
1505860749.705,18.066,53.223,-3.906,12.695,35.645,0
1505860749.709,19.531,36.621,-20.996,14.648,44.434,0
1505860749.713,32.715,32.715,-9.277,20.508,48.828,0
1505860749.717,22.461,40.039,8.301,17.090,20.020,0
1505860749.721,10.742,48.828,0.488,10.742,60.547,0
1505860749.725,14.648,59.082,-6.836,14.648,76.172,0
1505860749.729,17.090,80.566,-1.953,17.090,36.133,0
1505860749.733,21.484,93.750,4.883,9.277,20.508,0
1505860749.736,28.809,102.051,11.719,14.160,31.250,0
1505860749.740,23.438,116.211,19.531,12.207,40.527,0
1505860749.744,23.926,109.375,22.461,7.812,34.180,0
1505860749.748,43.457,107.910,30.273,19.531,42.480,0
1505860749.752,49.805,110.840,40.039,31.738,68.359,0
1505860749.756,48.340,110.840,42.969,36.133,58.594,0
1505860749.760,46.875,104.004,36.621,28.320,22.461,0
1505860749.764,35.156,93.262,31.250,20.508,7.812,0
1505860749.768,29.785,95.703,31.250,25.391,56.641,0
1505860749.772,23.926,89.355,12.207,17.578,99.121,0
1505860749.775,24.414,84.961,21.973,12.695,45.410,0
1505860749.779,31.250,92.773,50.781,21.484,23.926,0
1505860749.783,34.180,103.027,50.781,26.855,56.152,0
1505860749.787,35.156,101.562,44.434,25.879,37.598,0
1505860749.791,39.062,86.426,39.062,28.320,37.109,0
1505860749.795,43.945,78.125,30.273,26.855,45.898,0
1505860749.799,35.156,76.172,26.367,22.461,59.570,0
1505860749.803,42.969,90.820,41.504,38.574,55.664,0
1505860749.807,51.270,100.586,50.781,45.898,19.531,0
1505860749.811,39.062,83.008,40.039,31.738,42.969,0
1505860749.815,34.668,75.195,40.527,29.785,76.172,0
1505860749.818,37.109,78.613,42.969,42.480,71.777,0
1505860749.822,37.598,73.242,32.715,37.109,48.340,0
1505860749.826,28.809,63.477,24.414,22.949,52.734,0
1505860749.830,26.367,63.477,24.414,25.391,59.570,0
1505860749.834,37.109,67.383,32.715,31.250,25.879,0
1505860749.838,37.109,62.012,27.344,31.738,13.672,0
1505860749.842,39.551,61.523,22.461,36.133,41.504,0
1505860749.846,41.504,62.500,35.156,35.156,78.613,0
1505860749.850,41.504,58.105,46.875,29.785,67.871,0
1505860749.854,42.480,48.340,42.480,24.902,35.156,0
1505860749.858,31.738,51.758,31.250,19.531,37.598,0
1505860749.861,16.113,39.551,32.715,17.578,73.242,0
1505860749.865,17.578,37.598,38.086,22.949,89.844,0
1505860749.869,28.320,55.664,38.086,35.645,54.688,0
1505860749.873,29.785,59.570,43.945,37.109,59.570,0
1505860749.877,32.715,53.223,47.363,29.785,55.664,0
1505860749.881,46.387,46.387,41.016,31.738,28.320,0
1505860749.885,38.574,43.945,38.086,24.902,41.016,0
1505860749.889,29.297,39.551,37.598,16.113,75.195,0
1505860749.893,33.203,31.250,24.902,25.391,47.852,0
1505860749.897,33.691,34.668,5.859,21.484,29.297,0
1505860749.900,34.668,44.434,11.230,13.184,37.109,0
1505860749.904,42.969,52.734,30.273,26.855,46.387,0
1505860749.908,49.805,58.105,39.062,38.574,74.219,0
1505860749.912,41.016,42.969,39.062,33.203,42.480,0
1505860749.916,39.062,36.133,39.062,29.297,25.879,0
1505860749.920,42.480,36.621,39.062,32.227,61.523,0
1505860749.924,46.875,41.016,39.062,32.715,29.297,0
1505860749.928,47.852,59.082,45.898,36.133,22.949,0
1505860749.932,47.363,64.453,45.898,36.621,52.734,0
1505860749.936,58.594,57.617,46.387,35.645,63.965,0
1505860749.940,65.918,55.664,54.688,43.945,49.316,0
1505860749.943,61.523,47.363,53.223,46.875,46.875,0
1505860749.947,54.688,39.551,52.734,51.270,65.918,0
1505860749.951,50.781,47.363,63.965,51.270,56.641,0
1505860749.955,50.293,53.223,59.082,45.410,83.008,0
1505860749.959,48.828,46.387,42.969,41.016,96.680,0
1505860749.963,49.316,42.969,59.570,39.062,67.383,0
1505860749.967,49.316,47.363,75.195,42.480,55.176,0
1505860749.971,48.340,57.129,64.941,41.504,32.715,0
1505860749.975,50.781,54.688,56.641,35.645,38.086,0
1505860749.979,56.152,53.223,59.082,33.203,83.984,0
1505860749.983,62.500,55.176,43.945,33.691,73.242,0
1505860749.986,58.594,50.293,33.203,38.574,37.109,0
1505860749.990,42.480,55.176,39.551,38.574,55.664,0
1505860749.994,42.480,58.594,38.086,37.598,61.523,0
1505860749.998,38.086,50.781,35.645,34.180,52.246,0
1505860750.002,32.227,42.480,39.062,21.484,71.289,0
1505860750.006,36.133,43.457,29.785,20.508,91.797,0
1505860750.010,33.203,49.805,32.227,26.855,86.426,0
1505860750.014,31.738,55.664,54.688,21.973,32.227,0
1505860750.018,32.715,46.387,46.875,14.160,-8.789,0
1505860750.022,32.227,40.039,34.668,7.812,25.391,0
1505860750.025,31.250,35.645,27.832,12.207,33.691,0
1505860750.029,34.668,32.715,17.090,22.949,35.156,0
1505860750.033,38.086,35.156,17.578,14.160,41.504,0
1505860750.037,25.879,30.273,11.230,0.000,60.059,0
1505860750.041,18.066,31.250,0.488,-4.883,49.805,0
1505860750.045,21.484,36.621,3.906,4.395,40.527,0
1505860750.049,26.367,41.992,12.207,9.766,78.125,0
1505860750.053,29.297,33.203,18.555,16.602,79.102,0
1505860750.057,37.109,32.715,26.367,30.273,79.102,0
1505860750.061,40.527,50.293,19.531,35.156,40.527,0
1505860750.065,38.086,51.270,27.832,46.387,24.902,0
1505860750.068,53.223,41.992,58.594,58.594,68.848,0
1505860750.072,63.477,31.738,58.594,73.730,67.871,0
1505860750.076,60.547,27.344,47.363,76.660,47.363,0
1505860750.080,59.570,21.973,41.016,65.430,66.406,0
1505860750.084,64.453,24.902,38.574,65.430,73.730,0
1505860750.088,75.684,33.203,39.551,73.242,53.711,0
1505860750.092,76.172,30.273,32.715,77.148,60.059,0
1505860750.096,72.266,31.250,27.344,76.172,76.660,0
1505860750.100,75.195,33.691,31.250,83.008,93.750,0
1505860750.104,77.637,38.086,45.410,85.938,70.312,0
1505860750.108,78.125,35.645,50.781,81.543,60.547,0
1505860750.111,69.336,21.484,31.250,73.730,51.758,0
1505860750.115,61.035,5.371,29.297,65.430,27.344,0
1505860750.119,62.988,2.930,43.945,68.848,20.996,0
1505860750.123,59.082,7.812,36.621,64.941,43.945,0
1505860750.127,53.223,11.719,27.344,56.641,55.664,0
1505860750.131,62.988,25.879,25.879,60.059,45.410,0
1505860750.135,60.547,27.344,30.273,57.129,41.992,0
1505860750.139,53.223,10.742,36.133,54.199,6.348,0
1505860750.143,46.875,2.441,24.414,47.363,57.617,0
1505860750.147,43.457,4.395,27.832,43.457,82.031,0
1505860750.150,44.434,12.695,35.645,46.875,-2.441,0
1505860750.154,37.598,19.043,34.668,45.410,20.508,0
1505860750.158,38.086,22.461,31.738,36.133,53.711,0
1505860750.162,44.434,23.926,37.109,40.527,37.598,0
1505860750.166,42.480,21.484,41.992,46.387,61.035,0
1505860750.170,29.297,14.648,29.297,35.156,63.965,0
1505860750.174,26.855,3.418,24.414,29.297,48.340,0
1505860750.178,39.062,10.254,31.250,42.480,26.855,0
1505860750.182,54.199,28.320,41.016,54.688,21.484,0
1505860750.186,55.664,36.133,58.594,51.270,37.598,0
1505860750.190,53.711,34.180,58.105,52.734,52.734,0
1505860750.193,54.688,37.109,53.711,58.105,67.383,0
1505860750.197,47.363,39.551,53.223,45.898,11.719,0
1505860750.201,44.922,40.527,41.016,34.180,23.926,0
1505860750.205,45.898,42.480,36.133,35.156,65.918,0
1505860750.209,45.898,49.805,47.852,34.668,41.992,0
1505860750.213,52.734,49.805,43.945,40.527,21.973,0
1505860750.217,53.711,43.457,48.340,41.504,22.461,0
1505860750.221,59.082,49.316,71.777,43.945,38.086,0
1505860750.225,51.270,41.504,68.359,37.109,64.941,0
1505860750.229,42.969,34.180,50.293,28.809,67.383,0
1505860750.233,46.387,36.133,37.109,34.180,56.641,0
1505860750.236,45.410,39.062,44.922,41.504,77.637,0
1505860750.240,44.922,45.410,64.453,44.434,65.918,0
1505860750.244,45.410,49.316,62.012,39.551,34.668,0
1505860750.248,51.270,51.758,48.828,33.691,35.156,0
1505860750.252,58.105,60.059,44.922,34.668,15.137,0
1505860750.256,62.500,65.918,41.992,37.109,14.160,0
1505860750.260,66.406,63.965,38.086,34.180,17.090,0
1505860750.264,63.965,48.828,27.344,35.645,6.836,0
1505860750.268,64.941,40.039,21.973,40.527,15.137,0
1505860750.272,65.918,50.781,24.414,40.527,16.602,0
1505860750.275,61.035,56.152,18.066,41.016,14.648,0
1505860750.279,51.270,60.059,24.902,38.574,26.367,0
1505860750.283,39.551,52.734,45.898,29.785,52.246,0
1505860750.287,27.832,41.992,43.457,18.066,51.270,0
1505860750.291,22.461,42.969,35.156,12.695,33.203,0
1505860750.295,20.996,45.898,37.598,12.207,42.969,0
1505860750.299,27.832,44.434,41.504,15.625,38.086,0
1505860750.303,35.645,32.715,41.504,17.578,22.461,0
1505860750.307,37.109,27.344,40.527,25.391,40.527,0
1505860750.311,37.109,32.715,41.992,38.086,47.852,0
1505860750.315,46.387,41.504,38.086,44.922,28.320,0
1505860750.318,56.152,45.410,33.691,48.828,9.766,0
1505860750.322,55.664,39.551,36.133,42.969,39.551,0
1505860750.326,51.270,33.203,46.387,36.621,33.203,0
1505860750.330,44.922,43.457,41.992,32.227,73.242,0
1505860750.334,45.898,58.594,35.156,30.273,105.469,0
1505860750.338,46.387,50.781,48.828,25.391,64.453,0
1505860750.342,42.969,42.480,51.270,20.020,60.059,0
1505860750.346,46.875,50.781,52.246,32.715,23.926,0
1505860750.350,47.363,51.270,45.410,30.273,-1.465,0
1505860750.354,39.551,41.992,36.621,17.090,30.762,0
1505860750.358,49.805,46.387,47.363,33.203,41.992,0
1505860750.361,59.082,43.945,50.781,41.992,24.414,0
1505860750.365,47.852,27.344,37.598,20.020,17.090,0
1505860750.369,41.504,30.762,28.809,15.625,43.457,0
1505860750.373,42.969,39.062,25.391,19.043,32.715,0
1505860750.377,46.387,41.504,19.043,18.066,46.387,0
1505860750.381,47.363,38.086,25.879,25.391,54.199,0
1505860750.385,51.270,36.621,30.762,28.809,46.387,0
1505860750.389,61.035,32.715,36.621,42.480,55.664,0
1505860750.393,58.594,21.973,49.805,45.410,6.836,0
1505860750.397,47.363,22.461,52.246,28.320,21.973,0
1505860750.400,59.570,37.109,61.523,37.598,64.941,0
1505860750.404,58.594,35.645,52.734,46.875,51.270,0
1505860750.408,33.691,20.508,28.809,26.367,31.738,0
1505860750.412,18.555,3.418,20.020,8.301,40.039,0
1505860750.416,21.484,6.836,22.461,7.324,46.387,0
1505860750.420,27.832,19.531,29.785,10.742,15.625,0
1505860750.424,23.438,17.090,31.738,6.836,31.250,0
1505860750.428,30.762,17.578,32.715,17.578,50.293,0
1505860750.432,48.340,26.855,37.109,30.762,33.691,0
1505860750.436,52.246,36.133,30.762,34.668,27.344,0
1505860750.440,39.551,42.969,21.973,24.414,20.020,0
1505860750.443,38.574,42.480,37.109,19.043,50.293,0
1505860750.447,53.711,44.922,49.316,27.344,61.035,0
1505860750.451,51.270,49.805,47.363,17.578,62.012,0
1505860750.455,44.922,53.711,36.621,9.277,79.102,0
1505860750.459,46.875,55.176,32.227,17.090,61.523,0
1505860750.463,37.598,49.316,35.645,19.043,35.156,0
1505860750.467,35.156,44.922,37.598,20.020,48.340,0
1505860750.471,40.527,50.781,44.434,26.855,65.430,0
1505860750.475,37.598,51.270,42.480,21.484,77.637,0
1505860750.479,33.691,45.898,42.480,21.484,57.617,0
1505860750.483,31.250,44.434,26.367,23.926,19.043,0
1505860750.486,30.273,41.504,12.207,13.672,45.898,0
1505860750.490,37.109,38.086,25.879,12.207,69.824,0
1505860750.494,41.504,40.527,27.344,11.719,38.086,0
1505860750.498,39.551,35.645,16.602,5.371,34.180,0
1505860750.502,37.109,41.016,12.695,10.254,70.312,0
1505860750.506,34.180,46.875,14.648,12.695,93.262,0
1505860750.510,31.738,28.809,20.996,14.160,61.523,0
1505860750.514,32.715,23.926,27.344,19.043,44.922,0
1505860750.518,29.785,37.109,28.809,16.113,57.617,0
1505860750.522,20.508,35.645,24.414,11.719,77.148,0
1505860750.525,24.414,40.039,24.414,11.230,44.434,0
1505860750.529,28.320,48.828,29.297,13.672,25.391,0
1505860750.533,28.809,47.852,28.320,10.254,42.480,0
1505860750.537,37.109,48.828,33.203,11.230,64.453,0
1505860750.541,47.852,58.105,38.086,20.996,57.617,0
1505860750.545,53.223,53.223,41.016,23.926,38.086,0
1505860750.549,53.223,32.227,36.133,28.809,44.434,0
1505860750.553,48.828,20.020,20.508,29.785,37.598,0
1505860750.557,39.551,21.484,20.508,19.043,49.316,0
1505860750.561,42.480,33.691,21.973,22.949,46.387,0
1505860750.565,48.340,32.227,26.855,30.273,49.805,0
1505860750.568,40.039,17.090,27.344,24.414,59.082,0
1505860750.572,31.738,22.949,22.949,19.531,39.062,0
1505860750.576,35.645,42.480,25.879,18.066,27.344,0
1505860750.580,38.086,55.664,33.203,18.066,46.387,0
1505860750.584,45.410,53.711,48.340,32.715,40.039,0
1505860750.588,46.875,37.598,53.711,32.227,32.227,0
1505860750.592,34.668,23.926,38.086,24.414,57.129,0
1505860750.596,31.738,25.391,30.273,26.367,59.570,0
1505860750.600,27.344,37.109,36.133,29.297,67.383,0
1505860750.604,29.297,40.039,45.898,32.715,52.246,0
1505860750.608,42.480,52.734,50.781,47.852,47.852,0
1505860750.611,45.898,63.477,51.270,53.711,111.816,0
1505860750.615,42.969,57.617,47.852,41.992,106.934,0
1505860750.619,40.039,43.945,32.227,39.062,26.367,0
1505860750.623,39.062,36.133,33.203,37.598,22.461,0
1505860750.627,37.109,53.223,41.016,33.203,19.043,0
1505860750.631,31.250,54.199,33.691,25.391,33.203,0
1505860750.635,33.691,48.828,36.133,26.855,72.754,0
1505860750.639,32.715,48.828,34.668,33.203,71.289,0
1505860750.643,23.438,48.340,24.902,30.762,77.148,0
1505860750.647,20.996,51.758,17.578,28.320,62.500,0
1505860750.650,23.438,45.898,7.324,28.320,41.504,0
1505860750.654,34.180,48.340,11.719,29.785,51.758,0
1505860750.658,46.387,55.176,44.922,41.992,62.012,0
1505860750.662,47.363,44.434,51.758,45.898,35.645,0
1505860750.666,37.598,34.180,30.762,36.133,19.531,0
1505860750.670,41.016,41.992,27.344,39.062,28.320,0
1505860750.674,47.363,40.039,14.648,37.598,36.133,0
1505860750.678,41.992,39.062,-1.953,28.320,29.297,0
1505860750.682,44.434,49.805,15.625,27.344,29.297,0
1505860750.686,54.688,45.410,30.762,35.156,59.082,0
1505860750.690,64.453,35.645,30.762,37.598,64.453,0
1505860750.693,69.336,54.199,33.691,36.133,48.340,0
1505860750.697,71.777,64.941,26.855,29.785,54.199,0
1505860750.701,60.547,65.918,23.926,17.578,71.777,0
1505860750.705,57.617,64.941,38.574,23.438,73.730,0
1505860750.709,60.059,59.082,39.551,27.344,75.684,0
1505860750.713,54.199,63.477,41.992,31.738,61.523,0
1505860750.717,53.223,65.918,47.852,44.434,55.176,0
1505860750.721,48.828,61.035,38.086,37.598,60.059,0
1505860750.725,46.875,56.152,31.738,27.344,52.246,0
1505860750.729,54.688,56.152,34.668,28.320,54.688,0
1505860750.733,57.129,59.082,43.945,30.273,39.551,0
1505860750.736,57.617,53.711,58.105,35.156,30.762,0
1505860750.740,54.688,46.875,65.430,40.527,48.340,0
1505860750.744,43.945,45.410,55.664,32.227,40.527,0
1505860750.748,51.270,51.270,53.711,33.203,41.504,0
1505860750.752,64.941,51.758,52.734,42.969,70.312,0
1505860750.756,54.688,45.898,38.574,41.992,40.527,0
1505860750.760,41.992,46.387,42.480,32.715,39.062,0
1505860750.764,42.480,48.340,46.875,23.926,42.480,0
1505860750.768,34.668,39.062,38.086,17.578,12.695,0
1505860750.772,27.832,37.109,26.367,12.695,23.438,0
1505860750.775,30.762,46.387,32.227,13.184,42.969,0
1505860750.779,34.180,48.340,44.922,27.344,10.742,0
1505860750.783,33.203,42.969,55.176,31.738,8.301,0
1505860750.787,28.809,33.203,55.664,27.344,63.477,0
1505860750.791,20.020,25.391,46.387,19.531,71.777,0
1505860750.795,13.672,21.973,52.734,17.090,40.527,0
1505860750.799,23.926,33.691,66.895,30.762,49.316,0
1505860750.803,41.016,49.316,70.801,36.133,75.684,0
1505860750.807,52.734,48.340,61.035,32.715,65.430,0
1505860750.811,56.641,42.969,55.176,38.574,26.367,0
1505860750.815,57.617,39.062,33.203,34.668,20.020,0
1505860750.818,56.641,48.340,21.973,26.367,44.922,0
1505860750.822,59.570,62.500,36.133,31.738,42.480,0
1505860750.826,64.453,64.941,36.133,32.227,16.602,0
1505860750.830,55.664,61.035,30.273,28.320,20.508,0
1505860750.834,52.734,59.082,43.945,36.621,43.457,0
1505860750.838,51.270,49.805,45.410,40.527,35.156,0
1505860750.842,38.086,35.156,25.879,24.414,39.062,0
1505860750.846,31.738,35.645,26.367,20.996,59.082,0
1505860750.850,30.273,34.668,30.273,20.996,50.781,0
1505860750.854,21.484,34.180,32.715,20.020,15.625,0
1505860750.858,25.879,30.273,32.715,22.461,13.184,0
1505860750.861,36.621,31.738,32.227,21.484,1.953,0
1505860750.865,39.551,40.039,44.434,37.109,0.000,0
1505860750.869,39.551,29.297,48.828,48.340,20.996,0
1505860750.873,42.969,25.391,44.922,41.992,47.852,0
1505860750.877,41.992,30.762,31.738,36.621,47.363,0
1505860750.881,41.504,36.621,25.879,35.156,34.180,0
1505860750.885,44.434,41.504,43.457,40.039,31.738,0
1505860750.889,47.852,38.574,43.457,45.898,33.691,0
1505860750.893,53.711,28.320,37.109,45.410,46.387,0
1505860750.897,57.129,31.738,36.621,33.691,48.340,0
1505860750.900,60.547,41.504,34.668,29.785,20.508,0
1505860750.904,54.688,39.062,28.809,27.832,8.301,0
1505860750.908,41.992,34.180,18.555,14.160,25.879,0
1505860750.912,38.086,28.320,15.625,14.648,30.273,0
1505860750.916,41.016,38.086,20.508,24.414,41.504,0
1505860750.920,41.992,53.711,18.555,30.762,50.781,0
1505860750.924,37.598,52.246,14.648,34.668,41.992,0
1505860750.928,43.945,48.828,20.020,47.363,32.715,0
1505860750.932,55.176,53.711,21.973,58.105,15.625,0
1505860750.936,57.617,46.387,20.020,55.176,43.457,0
1505860750.940,55.664,40.527,18.066,49.805,54.688,0
1505860750.943,49.316,45.410,14.160,40.527,47.363,0
1505860750.947,41.016,42.480,14.160,29.785,27.832,0
1505860750.951,39.551,38.574,3.418,20.020,20.996,0
1505860750.955,43.457,44.434,20.020,29.297,36.621,0
1505860750.959,47.363,48.340,51.270,44.434,21.484,0
1505860750.963,54.688,53.223,45.410,45.410,9.766,0
1505860750.967,61.523,68.848,44.434,53.223,33.203,0
1505860750.971,61.035,75.684,45.410,57.129,44.434,0
1505860750.975,57.129,61.523,39.062,49.316,41.504,0
1505860750.979,49.316,53.711,36.133,49.316,46.875,0
1505860750.983,39.062,58.105,24.902,41.992,30.273,0
1505860750.986,43.945,59.570,18.555,38.086,42.969,0
1505860750.990,52.246,73.730,35.645,41.504,57.617,0
1505860750.994,42.969,66.406,51.270,38.574,36.621,0
1505860750.998,38.086,52.734,38.086,31.738,58.594,0
1505860751.002,36.621,50.781,29.785,30.762,57.129,0
1505860751.006,40.039,43.945,33.203,33.691,11.719,0
1505860751.010,42.480,47.852,36.621,30.273,37.109,0
1505860751.014,37.109,50.781,29.785,25.391,68.848,0
1505860751.018,37.598,46.387,22.461,27.832,40.527,0
1505860751.022,36.621,38.086,32.227,29.297,38.086,0
1505860751.025,27.832,32.715,38.574,21.973,35.645,0
1505860751.029,24.902,21.484,33.691,15.625,50.293,0
1505860751.033,34.180,31.250,42.480,30.762,76.660,0
1505860751.037,41.992,46.875,51.758,31.250,68.848,0
1505860751.041,50.293,39.062,50.293,22.949,54.199,0
1505860751.045,58.594,47.852,53.223,34.668,26.367,0
1505860751.049,57.129,53.223,40.527,34.668,-11.719,0
1505860751.053,47.852,39.062,25.391,18.555,2.441,0
1505860751.057,37.598,31.250,20.508,15.137,39.551,0
1505860751.061,43.457,46.387,28.809,33.203,32.227,0
1505860751.065,54.688,58.594,39.062,41.992,-3.418,0
1505860751.068,51.270,50.293,34.668,37.109,4.395,0
1505860751.072,47.852,38.574,27.832,31.738,37.598,0
1505860751.076,59.082,40.039,29.785,39.551,46.387,0
1505860751.080,59.570,50.781,21.973,47.852,41.992,0
1505860751.084,57.129,36.133,23.926,50.781,50.293,0
1505860751.088,56.641,24.414,24.902,48.828,32.715,0
1505860751.092,52.246,40.039,17.090,49.805,-2.441,0
1505860751.096,60.059,53.711,16.602,60.547,15.137,0
1505860751.100,67.383,50.781,13.672,57.617,35.156,0
1505860751.104,70.312,39.551,20.020,53.711,35.156,0
1505860751.108,61.523,35.156,28.809,60.547,30.762,0
1505860751.111,46.875,28.320,27.344,52.734,38.086,0
1505860751.115,37.598,17.578,24.414,34.668,31.738,0
1505860751.119,37.598,18.066,33.203,31.250,26.367,0
1505860751.123,40.039,25.879,41.504,29.785,47.363,0
1505860751.127,41.016,31.738,40.527,25.879,49.805,0
1505860751.131,40.039,24.902,34.180,22.461,24.414,0
1505860751.135,38.086,20.996,18.555,9.766,45.410,0
1505860751.139,40.039,34.180,8.789,16.113,26.855,0
1505860751.143,38.086,35.645,26.367,21.973,-3.418,0
1505860751.147,37.109,24.902,41.992,15.137,17.578,0
1505860751.150,42.480,31.738,47.363,25.391,30.273,0
1505860751.154,38.086,30.273,48.828,26.855,15.137,0
1505860751.158,32.227,21.484,44.922,22.461,0.488,0
1505860751.162,32.715,28.320,38.086,24.902,9.766,0
1505860751.166,32.227,40.039,31.250,27.832,19.043,0
1505860751.170,45.410,50.781,26.855,38.086,31.250,0
1505860751.174,52.246,46.875,27.344,43.457,55.664,0
1505860751.178,42.480,45.410,21.973,38.574,55.176,0
1505860751.182,31.250,48.828,9.766,29.785,20.020,0
1505860751.186,30.273,47.852,10.254,19.043,2.930,0
1505860751.190,28.809,43.457,12.695,16.113,5.859,0
1505860751.193,31.738,46.387,18.066,24.902,10.254,0
1505860751.197,30.762,48.340,17.578,21.484,6.348,0
1505860751.201,24.414,41.992,4.883,14.160,6.348,0
1505860751.205,35.645,35.645,20.020,16.602,12.207,0
1505860751.209,37.109,34.668,34.668,20.020,31.250,0
1505860751.213,33.691,41.016,25.391,24.414,31.250,0
1505860751.217,28.320,31.738,12.695,17.578,26.367,0
1505860751.221,21.484,30.762,15.625,6.348,66.406,0
1505860751.225,27.344,40.527,33.203,15.137,82.520,0
1505860751.229,38.574,45.898,41.504,26.367,49.316,0
1505860751.233,47.852,54.199,41.504,26.367,26.855,0
1505860751.236,47.363,54.688,35.645,24.902,25.879,0
1505860751.240,44.434,58.105,33.203,28.809,29.297,0
1505860751.244,50.781,52.734,34.668,33.203,9.766,0
1505860751.248,44.922,20.996,32.227,25.391,1.465,0
1505860751.252,38.086,20.020,28.320,21.973,49.805,0
1505860751.256,46.387,38.574,34.180,28.809,62.988,0
1505860751.260,45.410,31.738,39.551,28.320,50.293,0
1505860751.264,36.621,27.344,34.180,27.344,27.344,0
1505860751.268,32.227,35.156,29.785,27.832,60.059,0
1505860751.272,31.738,37.598,35.156,20.508,86.914,0
1505860751.275,29.297,32.227,37.598,18.555,-1.953,0
1505860751.279,25.391,28.809,26.367,16.113,-1.465,0
1505860751.283,34.668,41.992,28.320,24.414,44.922,0
1505860751.287,33.691,38.574,41.504,30.762,35.156,0
1505860751.291,25.391,32.715,40.527,21.973,44.922,0
1505860751.295,29.297,46.875,44.922,18.555,60.547,0
1505860751.299,30.273,53.711,43.457,20.020,64.453,0
1505860751.303,23.438,56.152,36.621,20.508,43.457,0
1505860751.307,16.602,54.688,32.715,14.648,39.062,0
1505860751.311,17.090,52.246,30.273,18.555,39.062,0
1505860751.315,22.461,44.922,33.203,31.250,56.152,0
1505860751.318,26.855,43.457,38.086,29.297,91.797,0
1505860751.322,31.250,43.945,45.898,28.809,41.992,0
1505860751.326,26.855,38.086,41.504,27.344,24.414,0
1505860751.330,31.250,37.598,36.621,22.949,41.992,0
1505860751.334,31.738,35.645,40.527,20.020,24.414,0
1505860751.338,25.879,38.086,38.574,20.020,42.969,0
1505860751.342,32.227,41.016,21.973,24.902,79.102,0
1505860751.346,38.574,38.086,31.250,31.250,42.480,0
1505860751.350,35.156,33.203,49.805,26.855,14.160,0
1505860751.354,34.668,31.738,48.828,19.043,24.414,0
1505860751.358,37.109,38.086,48.828,17.090,23.926,0
1505860751.361,34.668,41.016,40.527,17.578,67.383,0
1505860751.365,40.039,43.457,32.715,25.391,60.547,0
1505860751.369,42.969,48.340,27.832,24.902,17.578,0
1505860751.373,41.016,44.922,22.949,11.230,32.715,0
1505860751.377,44.434,45.410,31.738,12.207,31.250,0
1505860751.381,36.621,46.387,25.879,14.160,39.062,0
1505860751.385,30.762,44.434,17.578,7.324,46.387,0
1505860751.389,29.785,47.852,29.297,15.137,41.992,0
1505860751.393,28.320,46.387,30.273,13.672,30.762,0
1505860751.397,35.645,41.504,25.391,7.324,26.367,0
1505860751.400,31.250,38.086,25.391,7.324,18.555,0
1505860751.404,29.785,38.086,33.203,10.254,49.316,0
1505860751.408,38.574,49.805,51.758,26.367,72.266,0
1505860751.412,31.250,45.410,30.762,30.762,54.199,0
1505860751.416,22.461,37.109,5.371,21.973,43.945,0
1505860751.420,22.461,47.363,23.926,25.879,39.551,0
1505860751.424,35.156,62.500,43.457,43.945,29.785,0
1505860751.428,40.039,70.801,39.551,41.992,24.902,0
1505860751.432,31.250,62.988,28.320,26.367,38.574,0
1505860751.436,28.809,58.105,26.367,28.809,34.668,0
1505860751.440,32.227,53.711,27.344,32.227,49.805,0
1505860751.443,29.785,49.316,28.809,31.250,48.828,0
1505860751.447,21.973,51.758,28.320,33.691,45.410,0
1505860751.451,24.902,52.246,26.367,32.715,62.988,0
1505860751.455,41.504,58.105,26.855,30.273,74.219,0
1505860751.459,53.711,65.430,29.297,34.180,95.215,0
1505860751.463,54.199,49.316,35.156,38.086,68.359,0
1505860751.467,53.711,44.922,40.039,43.945,56.152,0
1505860751.471,47.363,47.363,38.574,39.551,33.203,0
1505860751.475,47.852,38.086,33.691,39.062,14.160,0
1505860751.479,51.758,44.922,27.832,39.062,42.969,0
1505860751.483,50.781,44.922,26.855,34.668,33.203,0
1505860751.486,46.875,41.016,13.672,30.762,27.832,0
1505860751.490,41.504,45.410,14.648,29.297,19.043,0
1505860751.494,43.457,42.969,31.250,34.180,22.949,0
1505860751.498,52.734,43.457,38.086,45.898,17.090,0
1505860751.502,52.246,44.434,34.180,50.781,58.105,0
1505860751.506,52.246,43.945,30.762,53.223,77.637,0
1505860751.510,53.223,44.434,29.785,49.805,50.781,0
1505860751.514,48.340,54.688,31.250,43.457,14.648,0
1505860751.518,35.645,57.129,33.203,32.715,8.301,0
1505860751.522,22.461,47.363,32.227,21.484,42.480,0
1505860751.525,28.320,51.270,44.922,35.156,59.082,0
1505860751.529,39.062,57.617,50.293,41.504,22.461,0
1505860751.533,38.086,55.664,35.645,32.227,17.578,0
1505860751.537,22.461,46.387,8.301,16.113,62.500,0
1505860751.541,14.648,35.156,-3.418,4.395,67.871,0
1505860751.545,22.461,29.785,15.137,16.113,57.617,0
1505860751.549,28.320,31.738,24.902,21.484,65.430,0
1505860751.553,23.438,33.691,14.648,10.742,74.707,0
1505860751.557,13.184,34.180,2.441,7.812,70.312,0
1505860751.561,15.625,32.227,1.953,4.883,17.578,0
1505860751.565,16.602,24.902,-1.465,0.000,4.883,0
1505860751.568,26.855,41.504,3.418,12.695,57.129,0
1505860751.572,37.598,63.477,19.043,31.250,54.688,0
1505860751.576,36.133,48.828,22.949,26.367,27.344,0
1505860751.580,41.504,36.621,24.902,25.391,18.555,0
1505860751.584,46.875,41.016,32.227,39.551,60.547,0
1505860751.588,50.293,43.945,37.109,43.457,58.105,0
1505860751.592,51.270,49.316,41.992,39.062,41.992,0
1505860751.596,49.316,56.152,45.410,39.062,57.129,0
1505860751.600,53.711,53.711,44.434,44.922,80.566,0
1505860751.604,62.012,57.129,56.641,50.293,76.172,0
1505860751.608,70.312,59.570,51.270,46.875,18.555,0
1505860751.611,68.848,54.688,23.926,37.598,50.293,0
1505860751.615,62.500,58.594,41.016,43.457,71.777,0
1505860751.619,63.477,60.059,64.453,55.664,56.641,0
1505860751.623,59.082,52.734,53.711,42.969,54.199,0
1505860751.627,54.688,56.152,52.734,33.203,43.457,0
1505860751.631,54.688,59.570,58.105,40.527,48.828,0
1505860751.635,49.316,46.875,52.246,37.109,41.992,0
1505860751.639,50.781,48.828,57.129,49.316,54.688,0
1505860751.643,55.176,58.105,62.012,60.059,64.941,0
1505860751.647,52.246,57.129,50.781,47.363,68.848,0
1505860751.650,46.875,49.316,38.086,43.457,53.223,0
1505860751.654,41.504,41.016,29.297,41.992,22.949,0
1505860751.658,52.734,45.898,23.438,44.922,42.480,0
1505860751.662,51.270,60.547,20.996,44.922,40.527,0
1505860751.666,39.551,56.152,19.043,34.180,27.344,0
1505860751.670,37.598,49.316,14.648,22.461,30.762,0
1505860751.674,27.344,48.340,14.160,21.973,49.316,0
1505860751.678,29.297,58.594,35.156,29.785,50.293,0
1505860751.682,33.203,58.594,47.363,23.926,43.457,0
1505860751.686,23.926,40.527,35.156,19.043,41.992,0
1505860751.690,21.973,37.109,29.297,21.484,64.453,0
1505860751.693,22.461,47.363,26.855,19.531,71.777,0
1505860751.697,15.625,48.828,13.672,9.277,29.297,0
1505860751.701,14.160,47.852,12.695,6.348,33.691,0
1505860751.705,22.949,59.082,31.250,5.859,69.336,0
1505860751.709,31.250,62.012,49.316,5.371,38.574,0
1505860751.713,33.203,58.594,47.363,9.277,4.395,0
1505860751.717,35.645,62.012,32.227,4.883,29.785,0
1505860751.721,30.762,55.176,21.973,-4.395,41.504,0
1505860751.725,20.508,58.594,20.020,-9.766,27.344,0
1505860751.729,27.832,68.848,23.926,-3.906,48.340,0
1505860751.733,28.809,64.941,21.973,5.371,46.875,0
1505860751.736,25.391,54.199,19.531,12.207,58.105,0
1505860751.740,37.598,45.410,1.953,27.832,37.109,0
1505860751.744,54.199,52.246,-14.648,39.551,8.301,0
1505860751.748,61.035,61.523,-9.277,34.180,54.688,0
1505860751.752,71.777,72.266,-1.465,37.109,43.945,0
1505860751.756,78.613,71.777,10.742,37.598,17.578,0
1505860751.760,79.102,65.430,16.602,33.691,38.086,0
1505860751.764,86.426,62.500,17.090,40.527,67.383,0
1505860751.768,81.543,61.035,11.719,37.109,42.969,0
1505860751.772,71.289,61.523,10.742,30.273,22.949,0
1505860751.775,61.523,48.828,10.742,27.344,75.195,0
1505860751.779,57.617,42.480,5.371,33.691,69.336,0
1505860751.783,47.852,43.945,3.906,42.480,43.945,0
1505860751.787,32.715,40.527,5.859,39.551,57.617,0
1505860751.791,37.598,35.156,8.301,32.715,43.945,0
1505860751.795,51.270,38.574,19.043,44.434,45.898,0
1505860751.799,46.875,41.992,10.742,44.922,22.461,0
1505860751.803,37.598,40.527,14.160,33.203,24.902,0
1505860751.807,33.691,36.621,34.668,24.414,28.809,0
1505860751.811,21.484,24.902,23.926,17.578,22.461,0
1505860751.815,21.973,22.461,10.254,22.949,39.551,0
1505860751.818,32.227,31.250,17.090,24.902,48.828,0
1505860751.822,27.832,33.691,22.949,21.973,60.547,0
1505860751.826,31.738,31.738,25.879,33.691,52.734,0
1505860751.830,34.180,33.691,29.785,42.969,44.922,0
1505860751.834,22.949,34.668,23.438,31.250,74.219,0
1505860751.838,20.508,37.598,18.066,24.902,71.777,0
1505860751.842,20.020,41.992,23.438,32.227,57.129,0
1505860751.846,27.832,47.363,24.414,40.527,20.020,0
1505860751.850,41.992,57.129,23.438,45.410,-11.230,0
1505860751.854,45.410,62.500,15.625,44.434,41.016,0
1505860751.858,44.922,76.172,11.230,46.387,75.195,0
1505860751.861,52.246,72.754,21.484,40.527,44.434,0
1505860751.865,43.457,48.340,14.160,27.344,27.344,0
1505860751.869,29.785,47.852,1.465,22.461,46.387,0
1505860751.873,32.227,61.035,8.789,26.855,56.641,0
1505860751.877,40.527,67.383,18.555,35.645,69.824,0
1505860751.881,45.898,68.848,24.414,42.480,56.641,0
1505860751.885,56.152,76.172,39.551,57.129,57.617,0
1505860751.889,61.035,75.684,46.387,68.848,19.531,0
1505860751.893,52.246,59.082,43.457,59.082,-19.043,0
1505860751.897,53.711,45.898,37.598,42.969,4.395,0
1505860751.900,59.082,41.992,34.180,39.062,42.969,0
1505860751.904,50.293,34.180,44.434,40.039,20.020,0
1505860751.908,41.504,28.320,46.875,40.527,-6.348,0
1505860751.912,42.969,33.203,36.621,37.598,20.508,0
1505860751.916,39.551,34.668,18.555,33.203,32.715,0
1505860751.920,42.969,41.992,6.836,38.086,30.273,0
1505860751.924,43.945,45.898,5.859,39.551,36.621,0
1505860751.928,41.992,35.156,20.508,33.203,50.781,0
1505860751.932,46.875,30.273,24.414,27.832,40.039,0
1505860751.936,41.992,36.133,12.695,21.484,14.160,0
1505860751.940,40.039,44.434,11.719,20.996,-8.789,0
1505860751.943,46.875,43.457,14.648,29.785,15.137,0
1505860751.947,47.363,34.668,11.230,26.855,9.277,0
1505860751.951,37.598,26.855,4.883,15.137,-9.766,0
1505860751.955,28.320,26.855,4.395,14.160,31.250,0
1505860751.959,35.156,39.551,-5.859,18.555,39.062,0
1505860751.963,43.457,41.992,0.977,22.461,6.836,0
1505860751.967,37.109,36.621,25.879,24.902,6.836,0
1505860751.971,43.457,37.598,29.297,29.297,30.762,0
1505860751.975,50.781,38.574,20.020,33.203,57.617,0
1505860751.979,53.223,50.293,25.391,39.551,22.949,0
1505860751.983,57.617,51.758,29.785,40.039,-22.461,0
1505860751.986,55.176,36.133,14.160,30.762,0.977,0
1505860751.990,47.852,28.320,19.531,29.785,27.344,0
1505860751.994,44.922,25.879,40.527,40.039,33.691,0
1505860751.998,54.688,24.902,44.922,49.805,38.086,0
1505860752.002,52.734,18.555,33.691,44.922,73.730,0
1505860752.006,50.293,13.184,31.738,44.922,55.664,0
1505860752.010,66.895,19.531,36.133,60.547,7.812,0
1505860752.014,80.078,22.949,47.852,69.824,14.160,0
1505860752.018,74.707,31.738,52.246,63.965,32.715,0
1505860752.022,63.965,25.391,40.527,58.105,51.270,0
1505860752.025,62.988,15.137,47.363,60.547,40.527,0
1505860752.029,71.777,30.273,63.477,64.941,12.207,0
1505860752.033,69.824,45.898,63.477,65.918,47.852,0
1505860752.037,64.453,50.293,54.688,66.406,74.219,0
1505860752.041,62.012,54.199,48.828,66.895,46.387,0
1505860752.045,51.758,45.410,37.598,63.477,21.484,0
1505860752.049,57.129,37.109,40.527,66.406,37.598,0
1505860752.053,69.824,42.969,49.805,65.430,30.762,0
1505860752.057,68.848,45.898,49.316,66.895,25.391,0
1505860752.061,63.965,45.410,39.062,62.988,40.039,0
1505860752.065,66.895,41.016,35.156,56.152,23.438,0
1505860752.068,68.359,42.969,38.086,63.965,46.387,0
1505860752.072,59.570,41.992,35.645,58.594,38.574,0
1505860752.076,57.617,40.039,38.574,51.758,29.785,0
1505860752.080,64.453,36.133,46.387,55.176,26.855,0
1505860752.084,64.941,24.902,39.551,47.852,-1.465,0
1505860752.088,58.594,34.668,41.504,45.898,-10.742,0
1505860752.092,47.363,50.293,47.363,39.551,35.156,0
1505860752.096,39.551,49.316,43.457,22.949,65.430,0
1505860752.100,40.527,52.734,40.527,28.809,41.504,0
1505860752.104,46.387,52.734,40.527,37.109,20.508,0
1505860752.108,54.199,53.711,49.805,36.621,23.438,0
1505860752.111,45.410,47.363,38.086,32.715,65.430,0
1505860752.115,33.691,39.551,30.273,34.180,70.801,0
1505860752.119,39.551,43.945,42.480,31.250,24.902,0
1505860752.123,45.410,41.504,46.387,22.461,32.227,0
1505860752.127,46.387,40.527,46.387,27.344,52.734,0
1505860752.131,36.621,36.133,40.039,19.531,16.113,0
1505860752.135,27.832,34.180,33.203,15.137,11.230,0
1505860752.139,34.180,44.922,42.480,34.180,42.480,0
1505860752.143,38.086,37.598,46.387,43.457,25.391,0
1505860752.147,41.504,24.902,47.363,49.316,28.809,0
1505860752.150,42.969,31.738,38.086,52.734,43.945,0
1505860752.154,43.945,40.039,36.621,49.316,34.668,0
1505860752.158,51.758,43.945,58.594,50.293,38.574,0
1505860752.162,50.781,48.828,61.523,54.688,49.805,0
1505860752.166,46.875,41.992,56.641,52.246,54.199,0
1505860752.170,43.457,39.551,56.641,45.898,48.828,0
1505860752.174,50.293,54.688,66.895,59.570,32.715,0
1505860752.178,53.711,44.434,55.176,61.035,29.785,0
1505860752.182,44.922,24.902,27.344,37.109,43.945,0
1505860752.186,50.781,33.203,28.809,39.551,43.457,0
1505860752.190,53.711,47.852,34.180,41.504,27.832,0
1505860752.193,46.387,45.898,28.320,38.086,21.973,0
1505860752.197,44.922,41.016,25.391,41.504,29.785,0
1505860752.201,43.457,32.715,32.227,41.504,42.969,0
1505860752.205,45.898,34.180,40.039,43.945,56.641,0
1505860752.209,47.363,34.668,25.391,41.016,58.594,0
1505860752.213,39.551,24.414,0.488,31.250,43.457,0
1505860752.217,44.434,32.227,17.578,31.250,35.645,0
1505860752.221,47.852,32.715,28.809,32.715,30.762,0
1505860752.225,40.527,23.926,24.414,31.250,34.668,0
1505860752.229,33.203,26.855,28.320,31.738,23.438,0
1505860752.233,19.043,31.250,21.973,22.461,2.441,0
1505860752.236,14.160,33.203,25.391,17.090,19.531,0
1505860752.240,22.949,33.203,31.738,19.043,49.316,0
1505860752.244,22.461,30.273,28.320,12.207,44.434,0
1505860752.248,22.949,37.598,29.297,9.277,24.902,0
1505860752.252,29.297,43.945,35.156,16.113,28.809,0
1505860752.256,24.902,46.387,36.133,16.602,48.828,0
1505860752.260,19.531,39.551,27.832,10.254,26.367,0
1505860752.264,20.020,30.273,33.691,6.836,39.551,0
1505860752.268,20.996,26.367,43.457,11.230,41.992,0
1505860752.272,16.602,22.461,26.367,9.277,35.645,0
1505860752.275,12.695,25.391,23.438,4.883,50.293,0
1505860752.279,22.949,28.320,41.504,13.672,32.227,0
1505860752.283,37.598,37.109,49.316,28.809,27.832,0
1505860752.287,44.922,40.039,53.711,35.645,41.016,0
1505860752.291,51.270,36.133,53.223,35.645,55.664,0
1505860752.295,48.828,34.668,43.457,35.156,47.852,0
1505860752.299,49.805,27.344,43.945,42.969,38.574,0
1505860752.303,44.922,22.949,30.762,35.645,73.730,0
1505860752.307,31.250,36.133,21.973,26.855,97.656,0
1505860752.311,37.598,40.039,36.621,37.109,30.273,0
1505860752.315,42.969,41.504,41.504,42.480,20.508,0
1505860752.318,40.039,47.852,24.414,31.250,62.012,0
1505860752.322,33.203,41.504,9.766,27.344,48.828,0
1505860752.326,28.320,47.363,14.160,28.809,39.062,0
1505860752.330,28.320,47.852,11.719,23.926,65.430,0
1505860752.334,38.574,43.457,16.113,29.297,57.129,0
1505860752.338,41.016,51.758,20.508,30.273,28.809,0
1505860752.342,38.574,59.082,20.508,28.320,44.434,0
1505860752.346,44.922,66.406,23.926,39.062,83.008,0
1505860752.350,48.828,62.500,26.367,41.992,84.961,0
1505860752.354,50.293,47.852,31.250,36.621,52.734,0
1505860752.358,43.945,34.180,25.879,32.227,37.598,0
1505860752.361,33.691,31.250,22.461,25.391,23.926,0
1505860752.365,30.273,34.180,30.762,31.250,30.762,0
1505860752.369,39.062,42.480,32.227,41.504,24.902,0
1505860752.373,42.480,45.410,38.574,44.434,34.668,0
1505860752.377,36.621,46.875,46.387,39.062,53.223,0
1505860752.381,30.273,52.246,31.738,36.133,53.711,0
1505860752.385,27.344,46.875,6.836,26.367,56.152,0
1505860752.389,31.738,48.340,22.949,25.391,30.762,0
1505860752.393,32.227,44.922,34.180,25.391,45.898,0
1505860752.397,28.320,41.504,25.391,16.113,77.637,0
1505860752.400,28.809,40.039,33.691,17.090,43.457,0
1505860752.404,24.902,29.785,30.762,14.648,18.066,0
1505860752.408,24.902,27.832,28.809,12.695,43.945,0
1505860752.412,28.320,29.297,39.062,13.672,48.340,0
1505860752.416,25.879,37.598,34.180,4.883,46.387,0
1505860752.420,31.250,52.734,35.645,5.371,37.598,0
1505860752.424,41.992,63.477,56.152,25.879,33.691,0
1505860752.428,41.016,57.129,60.059,31.738,24.902,0
1505860752.432,36.133,53.223,37.109,17.090,14.648,0
1505860752.436,44.922,59.082,46.875,22.949,-0.977,0
1505860752.440,59.570,60.059,80.566,41.016,41.992,0
1505860752.443,63.965,60.547,78.125,48.828,61.035,0
1505860752.447,55.176,60.059,63.477,42.969,-10.254,0
1505860752.451,48.340,47.363,46.875,34.668,-6.348,0
1505860752.455,56.641,50.293,43.457,47.363,50.781,0
1505860752.459,57.129,58.594,53.711,56.641,30.273,0
1505860752.463,57.129,54.688,56.152,51.270,29.297,0
1505860752.467,68.848,57.617,57.617,61.523,55.664,0
1505860752.471,78.613,52.246,62.012,74.707,30.273,0
1505860752.475,76.660,49.805,67.383,67.383,48.340,0
1505860752.479,59.082,57.129,60.547,59.082,48.340,0
1505860752.483,55.664,55.664,52.246,54.199,23.926,0
1505860752.486,59.082,58.594,48.828,51.758,55.664,0
1505860752.490,61.523,66.406,46.387,55.176,71.777,0
1505860752.494,53.711,58.594,27.344,47.363,25.391,0
1505860752.498,45.898,51.270,31.250,44.922,31.250,0
1505860752.502,48.828,46.875,51.270,45.898,44.434,0
1505860752.506,51.758,40.039,48.828,34.668,17.578,0
1505860752.510,48.828,38.086,53.223,36.621,26.855,0
1505860752.514,36.133,30.762,52.734,33.203,21.973,0
1505860752.518,27.344,27.344,41.992,20.996,4.395,0
1505860752.522,35.156,37.598,45.410,26.855,33.203,0
1505860752.525,37.598,48.828,49.805,36.621,50.781,0
1505860752.529,41.016,53.223,51.758,35.156,42.969,0
1505860752.533,43.457,45.898,52.734,25.391,66.406,0
1505860752.537,33.203,42.969,45.410,15.137,40.527,0
1505860752.541,30.762,35.645,30.762,7.324,17.578,0
1505860752.545,30.762,32.715,24.414,17.578,48.828,0
1505860752.549,30.762,48.340,47.363,27.832,46.875,0
1505860752.553,37.598,57.129,62.988,25.391,43.457,0
1505860752.557,44.922,61.035,61.035,27.832,39.062,0
1505860752.561,47.852,57.129,58.594,31.738,45.410,0
1505860752.565,50.293,47.363,65.430,34.180,20.508,0
1505860752.568,47.363,52.246,54.688,31.738,13.672,0
1505860752.572,33.203,57.129,35.156,23.926,39.062,0
1505860752.576,29.297,53.223,28.809,20.020,40.527,0
1505860752.580,27.344,51.758,24.414,20.996,28.320,0
1505860752.584,23.438,46.875,29.785,22.949,32.715,0
1505860752.588,34.180,47.852,34.180,29.297,59.570,0
1505860752.592,46.875,51.270,42.969,37.598,54.199,0
1505860752.596,43.945,45.410,35.645,39.062,27.344,0
1505860752.600,50.781,48.340,34.668,44.434,26.855,0
1505860752.604,56.152,56.641,58.594,43.945,50.781,0
1505860752.608,48.828,64.941,65.918,39.062,39.062,0
1505860752.611,45.410,63.477,62.012,40.527,17.578,0
1505860752.615,57.617,56.152,55.664,43.457,40.039,0
1505860752.619,60.059,50.781,44.922,47.363,47.852,0
1505860752.623,51.270,49.805,40.039,41.504,46.387,0
1505860752.627,62.012,52.246,43.457,36.621,55.176,0
1505860752.631,70.312,45.898,44.434,31.250,75.195,0
1505860752.635,66.406,47.852,49.316,34.180,72.266,0
1505860752.639,53.223,49.805,45.410,32.227,32.715,0
1505860752.643,44.434,42.969,37.598,27.344,49.316,0
1505860752.647,44.922,45.410,42.969,32.227,51.270,0
1505860752.650,43.457,47.852,51.758,41.504,55.664,0
1505860752.654,41.504,47.852,67.871,42.480,33.691,0
1505860752.658,34.668,47.852,70.312,38.574,-2.441,0
1505860752.662,29.785,42.969,53.711,30.762,52.734,0
1505860752.666,36.133,46.875,52.734,29.297,65.918,0
1505860752.670,41.992,50.293,54.199,32.715,15.137,0
1505860752.674,37.109,42.969,26.855,30.273,21.973,0
1505860752.678,32.715,34.668,0.000,25.391,61.523,0
1505860752.682,36.133,33.203,15.625,24.902,52.734,0
1505860752.686,46.875,40.527,33.691,30.762,-6.836,0
1505860752.690,54.688,53.711,30.273,31.738,3.906,0
1505860752.693,48.828,54.199,22.461,30.273,47.852,0
1505860752.697,44.922,48.340,19.531,30.762,21.484,0
1505860752.701,50.293,45.898,25.879,30.273,18.555,0
1505860752.705,58.594,51.270,39.551,39.551,41.504,0
1505860752.709,50.293,46.875,35.156,40.527,58.594,0
1505860752.713,44.434,38.086,38.086,41.992,29.785,0
1505860752.717,45.410,51.270,56.641,43.457,30.762,0
1505860752.721,41.016,61.523,50.293,34.180,54.199,0
1505860752.725,35.645,53.711,37.598,29.785,79.590,0
1505860752.729,41.016,50.781,29.297,36.621,55.664,0
1505860752.733,47.852,62.988,18.066,45.898,7.812,0
1505860752.736,46.875,65.430,25.391,46.387,26.367,0
1505860752.740,50.293,62.012,40.527,53.711,54.688,0
1505860752.744,57.617,63.477,45.410,62.988,47.363,0
1505860752.748,54.688,61.035,36.133,61.035,21.484,0
1505860752.752,44.434,49.316,28.320,57.617,36.133,0
1505860752.756,49.316,41.992,32.227,56.152,48.828,0
1505860752.760,65.918,51.758,36.133,55.176,18.066,0
1505860752.764,63.477,54.688,32.227,46.875,26.855,0
1505860752.768,50.293,56.641,33.691,39.551,75.195,0
1505860752.772,46.875,50.781,34.668,36.621,67.383,0
1505860752.775,39.551,39.551,16.602,22.461,36.133,0
1505860752.779,30.762,46.387,8.301,14.648,18.066,0
1505860752.783,39.062,42.480,18.066,21.973,38.574,0
1505860752.787,41.504,38.086,31.738,26.855,26.367,0
1505860752.791,23.926,36.621,46.387,21.484,-14.160,0
1505860752.795,15.137,33.691,49.316,17.090,-9.766,0
1505860752.799,25.879,38.086,49.316,20.020,13.184,0
1505860752.803,30.762,40.527,50.781,23.926,14.648,0
1505860752.807,28.809,41.992,47.852,15.625,5.859,0
1505860752.811,24.414,42.969,34.180,9.277,31.250,0
1505860752.815,26.855,48.340,33.691,15.625,61.035,0
1505860752.818,33.691,47.363,40.039,10.742,75.684,0
1505860752.822,33.203,47.363,46.875,14.648,30.762,0
1505860752.826,34.180,48.828,57.617,20.508,30.762,0
1505860752.830,31.250,41.504,52.734,9.277,41.016,0
1505860752.834,26.855,39.062,44.434,9.766,4.395,0
1505860752.838,23.438,45.410,28.809,15.625,-5.371,0
1505860752.842,26.367,44.922,33.691,22.461,21.973,0
1505860752.846,35.156,40.527,44.922,28.320,38.574,0
1505860752.850,39.062,47.363,35.156,25.391,27.344,0
1505860752.854,39.551,37.109,21.484,26.855,23.438,0
1505860752.858,45.410,26.367,19.531,32.227,27.344,0
1505860752.861,51.758,34.668,26.855,32.227,49.805,0
1505860752.865,52.246,42.969,31.738,35.645,42.480,0
1505860752.869,44.434,48.828,26.367,37.598,2.441,0
1505860752.873,38.086,41.016,21.484,35.645,13.184,0
1505860752.877,43.945,37.109,27.832,41.992,34.668,0
1505860752.881,60.059,46.387,23.438,53.711,40.527,0
1505860752.885,62.988,50.293,15.137,51.270,47.363,0
1505860752.889,54.688,37.109,22.461,41.992,60.059,0
1505860752.893,46.387,34.668,25.879,40.039,35.645,0
1505860752.897,49.316,36.133,25.879,41.992,0.488,0
1505860752.900,41.992,19.531,13.672,28.809,27.832,0
1505860752.904,30.762,23.438,15.137,29.785,35.156,0
1505860752.908,42.480,35.156,33.203,36.133,29.785,0
1505860752.912,39.062,36.621,34.668,26.367,24.414,0
1505860752.916,32.227,35.645,34.180,20.020,2.441,0
1505860752.920,42.969,40.039,42.969,26.367,12.207,0
1505860752.924,37.598,44.922,39.551,33.691,3.418,0
1505860752.928,36.621,47.852,19.531,30.762,-14.648,0
1505860752.932,32.715,40.039,15.137,21.484,-0.977,0
1505860752.936,14.160,32.715,24.414,13.184,26.855,0
1505860752.940,26.855,42.480,23.438,12.695,12.695,0
1505860752.943,38.086,44.922,16.113,8.789,25.879,0
1505860752.947,33.691,42.969,19.043,2.930,42.480,0
1505860752.951,33.691,36.133,27.344,0.488,14.160,0
1505860752.955,37.109,40.039,37.109,10.742,5.371,0
1505860752.959,40.039,44.434,43.945,21.973,16.602,0
1505860752.963,51.270,49.316,51.270,23.926,32.715,0
1505860752.967,48.340,50.781,49.805,29.297,16.113,0
1505860752.971,33.203,38.086,39.551,22.949,-13.672,0
1505860752.975,28.320,41.504,29.297,14.648,-1.953,0
1505860752.979,19.043,43.945,30.762,15.625,15.137,0
1505860752.983,3.418,38.574,46.387,14.648,10.742,0
1505860752.986,-0.977,31.738,40.039,11.230,16.113,0
1505860752.990,-4.395,20.996,31.738,5.859,24.902,0
1505860752.994,-3.418,15.137,24.902,1.465,23.438,0
1505860752.998,3.418,24.414,15.625,0.977,23.926,0
1505860753.002,3.906,35.645,16.602,-4.395,54.199,0
1505860753.006,2.930,29.785,16.602,-6.348,45.410,0
1505860753.010,2.441,20.020,9.766,-4.883,26.367,0
1505860753.014,9.277,27.832,20.996,-1.465,-1.465,0
1505860753.018,6.836,33.203,25.391,-4.395,-30.273,0
1505860753.022,9.277,34.180,24.902,-16.113,1.465,1
1505860753.025,10.742,40.039,18.555,-20.508,18.555,0
1505860753.029,10.254,41.992,2.930,-30.273,3.906,0
1505860753.033,-15.625,40.039,13.672,-55.176,9.277,0
1505860753.037,-37.598,37.598,24.902,-75.195,39.551,0
1505860753.041,-48.828,37.109,11.719,-92.285,26.855,0
1505860753.045,-70.801,28.809,-0.488,-110.840,2.441,0
1505860753.049,-75.684,20.996,6.348,-118.652,26.367,0
1505860753.053,-74.219,24.414,10.254,-131.348,56.152,0
1505860753.057,-82.520,24.414,7.324,-135.254,30.762,0
1505860753.061,-85.449,29.297,12.695,-124.512,4.883,0
1505860753.065,-80.566,46.387,24.902,-128.906,18.555,0
1505860753.068,-85.938,31.738,16.602,-145.996,27.832,0
1505860753.072,-92.285,16.602,-9.766,-151.367,32.227,0
1505860753.076,-98.145,29.785,-14.160,-154.297,30.762,0
1505860753.080,-107.422,35.156,-10.742,-161.133,27.832,0
1505860753.084,-105.957,35.645,-18.066,-168.457,43.457,0
1505860753.088,-104.004,45.410,-12.695,-165.527,20.996,0
1505860753.092,-105.957,52.246,-5.371,-151.855,-36.133,0
1505860753.096,-98.145,49.805,-15.625,-146.484,-1.953,0
1505860753.100,-77.148,64.453,-10.254,-136.719,51.270,0
1505860753.104,-71.777,72.754,-12.695,-122.070,27.344,0
1505860753.108,-68.359,69.336,-14.160,-105.469,11.230,0
1505860753.111,-69.336,48.828,2.441,-107.422,29.297,0
1505860753.115,-68.359,42.969,-9.766,-114.746,19.043,0
1505860753.119,-50.781,62.988,-10.254,-103.516,2.441,0
1505860753.123,-37.598,80.566,-1.953,-80.078,7.812,0
1505860753.127,-34.668,84.473,-19.043,-81.055,41.016,0
1505860753.131,-36.133,82.031,-28.320,-91.309,45.898,0
1505860753.135,-29.785,88.867,-9.766,-85.938,37.109,0
1505860753.139,-17.578,89.844,-13.672,-70.801,20.996,0
1505860753.143,-2.441,86.914,-20.020,-63.477,16.602,0
1505860753.147,-2.441,77.148,-7.324,-73.730,23.438,0
1505860753.150,4.395,62.500,-6.348,-62.500,26.855,0
1505860753.154,11.719,63.477,-20.996,-49.316,14.648,0
1505860753.158,30.273,82.520,-26.367,-34.668,11.230,0
1505860753.162,56.152,89.355,-13.184,-11.230,33.691,0
1505860753.166,46.875,75.195,-9.766,-1.953,5.371,0
1505860753.170,44.922,76.660,0.000,5.859,0.977,0
1505860753.174,48.828,80.078,-5.859,7.812,14.160,0
1505860753.178,50.293,66.406,-3.906,19.043,35.645,0
1505860753.182,73.730,77.148,20.020,32.715,56.641,0
1505860753.186,74.707,90.820,19.043,31.738,13.184,0
1505860753.190,55.664,79.102,-7.324,20.020,-8.789,0
1505860753.193,62.012,72.754,-22.949,21.973,3.418,0
1505860753.197,75.195,80.078,-24.902,33.691,11.719,0
1505860753.201,76.660,86.426,-9.277,41.992,12.207,0
1505860753.205,96.191,83.008,22.461,58.105,11.719,0
1505860753.209,100.586,78.613,26.855,63.477,14.648,0
1505860753.213,67.871,70.312,15.625,46.875,-8.789,0
1505860753.217,59.570,69.336,5.371,33.203,-40.527,0
1505860753.221,60.547,65.918,11.719,25.879,-37.598,0
1505860753.225,50.781,56.641,22.949,31.738,-3.418,0
1505860753.229,45.898,52.246,16.602,31.738,31.250,0
1505860753.233,55.664,57.617,23.926,29.785,-9.277,0
1505860753.236,67.383,64.941,39.551,40.527,-35.645,0
1505860753.240,69.824,61.035,47.363,50.781,-14.648,0
1505860753.244,67.871,49.316,42.969,42.480,0.488,0
1505860753.248,59.082,44.922,28.320,26.367,4.883,0
1505860753.252,56.641,46.387,19.531,25.879,3.906,0
1505860753.256,61.523,52.734,20.508,34.668,-21.973,0
1505860753.260,62.012,61.523,25.879,39.062,-38.086,0
1505860753.264,53.223,41.504,25.879,26.367,-15.137,0
1505860753.268,56.641,39.062,32.227,24.902,-45.410,0
1505860753.272,60.547,62.012,29.785,33.691,-57.617,0
1505860753.275,55.664,55.664,20.508,37.109,-6.836,0
1505860753.279,47.852,38.086,7.812,22.949,0.000,0
1505860753.283,50.781,37.598,13.672,25.391,-2.930,0
1505860753.287,55.176,50.781,37.598,48.340,16.602,0
1505860753.291,56.641,48.340,23.926,54.199,7.812,0
1505860753.295,66.895,28.320,21.484,53.223,-18.066,0
1505860753.299,87.891,30.273,52.734,66.895,-15.137,0
1505860753.303,96.680,39.551,52.734,80.078,-11.230,0
1505860753.307,98.145,39.551,48.340,84.473,-27.344,0
1505860753.311,115.234,52.246,68.848,94.727,-13.672,0
1505860753.315,113.770,46.875,63.965,90.332,-17.578,0
1505860753.318,108.887,31.250,48.340,85.938,-3.906,0
1505860753.322,105.957,19.043,50.781,89.844,10.742,0
1505860753.326,107.422,18.555,67.871,102.539,-7.812,0
1505860753.330,109.375,18.555,61.523,97.168,34.668,0
1505860753.334,105.469,22.461,52.246,80.566,56.641,0
1505860753.338,100.098,32.227,60.547,78.125,22.949,0
1505860753.342,87.402,23.926,54.199,68.359,10.742,0
1505860753.346,88.379,25.391,60.059,67.871,-9.766,0
1505860753.350,86.914,37.109,61.523,69.824,4.395,0
1505860753.354,74.707,37.109,57.617,69.824,36.621,0
1505860753.358,64.941,28.809,56.641,69.336,40.039,0
1505860753.361,61.523,26.855,45.898,61.035,27.344,0
1505860753.365,62.988,27.344,40.039,54.688,21.973,0
1505860753.369,62.500,31.738,50.293,54.199,30.762,0
1505860753.373,55.664,29.297,41.504,57.129,26.367,0
1505860753.377,54.199,24.902,27.344,51.758,30.273,0
1505860753.381,56.641,39.551,31.738,45.898,42.480,0
1505860753.385,50.781,30.762,40.039,51.270,28.809,0
1505860753.389,45.898,30.273,44.434,49.316,8.789,0
1505860753.393,47.363,43.457,33.691,37.598,-1.465,0
1505860753.397,31.250,32.227,13.184,18.066,17.578,0
1505860753.400,19.531,24.902,10.254,11.719,35.645,0
1505860753.404,26.855,37.598,26.367,17.578,11.230,0
1505860753.408,36.133,53.711,30.762,22.949,6.836,0
1505860753.412,27.344,39.551,13.672,20.996,21.973,0
1505860753.416,17.578,18.555,20.020,18.555,41.504,0
1505860753.420,25.879,35.645,46.387,34.180,53.711,0
1505860753.424,30.762,33.203,42.969,41.016,45.410,0
1505860753.428,39.062,28.809,46.387,34.668,59.570,0
1505860753.432,41.504,44.922,48.828,41.504,54.688,0
1505860753.436,42.969,41.504,51.758,62.012,38.086,0
1505860753.440,38.086,31.250,56.152,57.129,14.648,0
1505860753.443,24.414,26.855,45.410,39.551,8.301,0
1505860753.447,29.785,28.320,46.387,45.410,24.414,0
1505860753.451,41.504,38.086,70.312,59.082,34.180,0
1505860753.455,38.574,31.738,54.199,54.199,46.875,0
1505860753.459,43.457,12.207,37.109,43.945,62.012,0
1505860753.463,59.570,14.648,59.570,49.316,44.922,0
1505860753.467,62.988,33.203,60.059,59.082,22.949,0
1505860753.471,60.059,43.457,53.223,63.477,65.918,0
1505860753.475,54.199,39.062,39.551,63.477,93.262,0
1505860753.479,61.523,35.156,30.762,65.430,57.617,0
1505860753.483,61.035,40.039,32.715,58.105,40.039,0
1505860753.486,50.293,24.414,26.855,37.598,46.875,0
1505860753.490,57.129,13.672,21.973,29.785,56.641,0
1505860753.494,54.688,41.992,20.508,41.992,22.461,0
1505860753.498,50.781,45.410,16.113,36.621,-7.812,0
1505860753.502,48.828,27.832,20.996,14.648,32.715,0
1505860753.506,44.922,27.344,23.438,9.766,67.383,0
1505860753.510,52.734,27.832,22.461,16.113,29.297,0
1505860753.514,53.711,38.086,17.090,22.949,11.230,0
1505860753.518,47.852,53.711,10.742,25.391,57.129,0
1505860753.522,28.320,39.062,-0.488,16.113,84.473,0
1505860753.525,27.832,29.785,1.953,9.766,29.297,0
1505860753.529,37.109,23.438,2.441,15.625,-1.465,0
1505860753.533,26.367,15.137,-3.418,21.484,38.574,0
1505860753.537,21.973,41.504,22.949,24.414,55.664,0
1505860753.541,26.367,50.781,32.227,28.809,58.594,0
1505860753.545,26.367,37.598,23.926,24.414,52.734,0
1505860753.549,25.879,34.668,19.043,21.484,48.340,0
1505860753.553,32.715,54.199,35.156,33.691,48.828,0
1505860753.557,20.020,57.129,42.969,33.203,18.066,0
1505860753.561,9.277,33.691,41.504,27.832,27.832,0
1505860753.565,9.277,35.645,37.109,33.203,63.965,0
1505860753.568,-7.812,27.344,15.137,16.602,56.641,0
1505860753.572,-11.230,14.648,19.043,-1.465,24.902,0
1505860753.576,-2.441,18.066,26.367,2.930,17.090,0
1505860753.580,2.930,20.508,25.391,8.789,46.387,0
1505860753.584,-12.207,7.812,26.855,7.812,43.457,0
1505860753.588,-13.672,15.625,38.574,21.973,31.738,0
1505860753.592,-2.441,29.785,59.570,27.832,38.574,0
1505860753.596,-8.301,22.949,60.059,14.648,68.848,0
1505860753.600,0.488,18.555,59.570,16.602,46.875,0
1505860753.604,8.301,11.230,77.148,27.344,17.090,0
1505860753.608,4.395,15.137,66.895,18.555,34.180,0
1505860753.611,-7.812,28.809,53.711,5.371,67.871,0
1505860753.615,-11.719,30.762,60.547,13.672,50.293,0
1505860753.619,13.672,23.926,75.684,30.273,-27.344,0
1505860753.623,6.836,18.066,48.828,17.578,6.348,0
1505860753.627,-23.926,19.531,19.043,-4.395,24.414,0
1505860753.631,-8.789,15.625,29.785,-16.113,20.996,0
1505860753.635,1.465,8.301,29.297,-22.949,36.621,0
1505860753.639,-1.953,14.648,27.832,-15.137,31.738,0
1505860753.643,5.859,20.020,31.738,-4.395,19.043,0
1505860753.647,13.184,25.391,25.879,1.953,39.551,0
1505860753.650,15.137,13.184,7.324,2.930,50.781,0
1505860753.654,17.578,-7.812,-7.324,-1.953,49.805,0
1505860753.658,25.879,18.555,2.930,3.906,61.523,0
1505860753.662,26.367,32.227,10.742,8.301,46.387,0
1505860753.666,22.461,28.809,8.301,11.230,35.156,0
1505860753.670,33.691,32.227,8.789,22.949,49.805,0
1505860753.674,44.922,24.414,9.277,27.344,34.668,0
1505860753.678,28.320,8.301,7.812,20.020,16.113,0
1505860753.682,16.602,0.488,7.324,10.254,30.273,0
1505860753.686,23.438,3.906,1.465,11.230,39.062,0
1505860753.690,19.531,-2.441,2.930,8.301,30.762,0
1505860753.693,24.902,7.812,39.551,14.160,23.438,0
1505860753.697,37.598,32.227,62.988,32.715,25.879,0
1505860753.701,37.109,38.086,50.781,38.574,31.250,0
1505860753.705,39.551,32.227,46.875,43.457,46.875,0
1505860753.709,57.617,46.387,64.941,56.641,71.777,0
1505860753.713,41.504,41.992,55.664,41.992,59.082,0
1505860753.717,17.578,15.625,29.785,23.438,35.645,0
1505860753.721,26.367,-5.859,14.160,27.344,2.441,0
1505860753.725,29.297,10.254,33.691,21.484,0.488,0
1505860753.729,33.203,37.598,58.105,24.414,49.805,0
1505860753.733,37.109,31.738,47.852,33.203,62.500,0
1505860753.736,36.133,26.855,45.898,29.297,18.066,0
1505860753.740,39.062,25.391,44.434,24.414,30.273,0
1505860753.744,41.992,17.578,44.922,23.438,56.641,0
1505860753.748,56.152,28.809,46.875,37.109,45.410,0
1505860753.752,76.172,36.133,44.434,44.434,44.434,0
1505860753.756,59.570,41.016,60.547,41.504,57.129,0
1505860753.760,47.852,61.035,67.383,42.480,77.637,0
1505860753.764,64.453,74.219,55.664,48.828,37.109,0
1505860753.768,69.336,72.266,52.246,53.711,6.836,0
1505860753.772,61.035,55.664,56.641,40.527,70.312,0
1505860753.775,53.711,50.293,62.500,36.133,60.547,0
1505860753.779,37.109,48.340,39.062,21.973,5.859,0
1505860753.783,21.484,28.320,6.836,1.465,-4.883,0
1505860753.787,33.691,33.691,18.555,-1.465,27.832,0
1505860753.791,29.297,45.898,24.902,1.953,48.828,0
1505860753.795,11.230,26.855,8.301,1.953,8.301,0
1505860753.799,7.324,16.113,4.395,-0.977,33.691,0
1505860753.803,4.395,18.066,-2.441,-5.371,55.176,0
1505860753.807,20.020,24.414,13.672,0.488,69.336,0
1505860753.811,30.273,39.551,28.809,13.184,33.203,0
1505860753.815,33.203,32.227,16.602,18.066,3.906,0
1505860753.818,38.086,27.832,31.250,18.555,48.828,0
1505860753.822,21.973,36.133,46.387,11.230,48.828,0
1505860753.826,19.531,39.551,36.133,8.789,40.527,0
1505860753.830,34.180,56.641,35.645,21.484,30.762,0
1505860753.834,29.297,60.547,33.203,26.855,32.715,0
1505860753.838,31.250,51.270,22.461,22.949,48.340,0
1505860753.842,32.715,29.785,6.836,22.949,31.250,0
1505860753.846,34.180,42.480,-6.348,27.832,51.758,0
1505860753.850,43.457,66.895,3.418,30.273,84.473,0
1505860753.854,36.133,55.664,9.766,25.391,47.852,0
1505860753.858,24.902,48.828,2.441,20.508,27.344,0
1505860753.861,21.973,49.316,3.906,26.367,28.320,0
1505860753.865,23.438,49.805,5.859,22.949,26.367,0
1505860753.869,26.855,43.457,5.371,25.879,25.391,0
1505860753.873,32.227,47.363,10.742,29.297,31.250,0
1505860753.877,37.598,61.035,-1.465,18.555,49.316,0
1505860753.881,37.109,58.105,-7.812,18.555,45.898,0
1505860753.885,40.527,61.523,3.418,30.762,64.453,0
1505860753.889,52.246,67.871,6.836,42.969,88.867,0
1505860753.893,58.105,42.480,34.180,46.875,101.562,0
1505860753.897,60.547,42.480,41.016,48.828,111.816,0
1505860753.900,67.871,77.148,30.762,51.270,66.895,0
1505860753.904,69.824,78.613,33.691,47.363,39.062,0
1505860753.908,65.918,78.125,23.926,35.645,57.129,0
1505860753.912,67.383,70.312,18.066,36.621,60.547,0
1505860753.916,58.594,47.363,39.551,39.551,37.598,0
1505860753.920,60.547,50.781,55.664,48.340,32.227,0
1505860753.924,60.059,43.457,42.969,53.711,60.059,0
1505860753.928,59.570,51.270,30.762,49.805,51.758,0
1505860753.932,64.453,46.387,41.016,46.875,50.293,0
1505860753.936,51.270,35.156,39.551,39.062,43.457,0
1505860753.940,58.594,62.500,24.414,39.551,49.316,0
1505860753.943,63.477,60.059,24.414,32.715,54.688,0
1505860753.947,39.062,55.664,21.484,23.926,36.133,0
1505860753.951,28.320,65.918,5.859,23.926,47.363,0
1505860753.955,31.250,57.617,8.301,24.414,52.246,0
1505860753.959,30.273,40.039,17.090,23.438,15.137,0
1505860753.963,30.273,36.621,8.301,27.832,-7.324,0
1505860753.967,33.691,40.527,3.418,24.414,18.066,0
1505860753.971,33.203,40.527,24.414,25.879,28.809,0
1505860753.975,31.250,36.621,33.691,36.133,17.090,0
1505860753.979,43.945,37.598,46.387,50.781,16.113,0
1505860753.983,51.270,50.781,52.246,57.129,32.227,0
1505860753.986,61.523,62.012,44.922,62.500,47.852,0
1505860753.990,52.734,47.363,38.086,59.082,56.641,0
1505860753.994,37.109,34.668,24.902,41.504,20.508,0
1505860753.998,48.828,31.738,22.461,54.688,-6.836,0
1505860754.002,65.918,38.086,19.043,64.453,10.254,0
1505860754.006,55.664,50.781,19.531,49.316,31.250,0
1505860754.010,33.203,52.246,8.301,34.668,37.598,0
1505860754.014,51.758,53.223,14.648,41.504,35.156,0
1505860754.018,66.406,42.969,20.020,54.688,22.949,0
1505860754.022,51.758,34.668,8.789,48.340,4.883,0
1505860754.025,45.410,64.453,20.508,37.598,23.926,0
1505860754.029,42.969,68.848,24.902,43.945,41.016,0
1505860754.033,54.199,57.129,27.344,55.664,51.270,0
1505860754.037,54.688,60.547,13.184,27.344,38.086,0
1505860754.041,54.199,56.641,4.395,17.090,16.602,0
1505860754.045,64.453,64.941,26.855,34.180,24.414,0
1505860754.049,72.754,64.941,48.340,32.227,-5.371,0
1505860754.053,61.035,56.152,51.270,21.973,-19.531,0
1505860754.057,67.871,73.730,38.086,19.531,5.859,0
1505860754.061,76.660,69.336,37.109,26.855,14.648,0
1505860754.065,66.406,64.941,32.715,27.344,-2.441,0
1505860754.068,73.730,75.195,17.578,16.602,16.113,0
1505860754.072,69.336,66.895,12.207,1.465,47.852,0
1505860754.076,76.172,73.242,25.391,4.395,39.062,0
1505860754.080,69.824,68.848,21.484,4.883,50.781,0
1505860754.084,64.941,53.223,16.602,-6.836,67.383,0
1505860754.088,72.754,85.938,29.297,3.906,39.062,0
1505860754.092,66.895,76.172,17.578,3.906,11.719,0
1505860754.096,67.871,69.824,0.488,-7.812,-0.977,0
1505860754.100,53.711,99.609,4.883,-7.324,26.367,0
1505860754.104,46.875,91.309,-0.488,-20.020,59.082,0
1505860754.108,56.641,79.102,-5.371,-21.484,16.602,0
1505860754.111,61.523,68.848,-10.254,5.371,-6.836,0
1505860754.115,68.359,92.285,1.953,23.926,25.879,0
1505860754.119,71.289,103.516,43.945,23.438,31.738,0
1505860754.123,52.246,95.703,30.762,-5.859,14.160,0
1505860754.127,29.785,79.590,-7.812,-28.320,23.438,0
1505860754.131,35.156,82.031,8.789,-23.438,45.410,0
1505860754.135,55.176,91.309,28.320,-11.719,56.641,0
1505860754.139,59.570,97.656,19.531,-1.465,26.855,0
1505860754.143,53.223,113.770,0.000,-15.137,2.441,0
1505860754.147,60.547,107.422,-3.906,-14.160,16.113,0
1505860754.150,49.316,89.844,-8.301,-3.906,23.926,0
1505860754.154,41.992,91.309,-4.395,-7.324,25.879,0
1505860754.158,44.434,81.055,-0.977,-12.695,-1.953,0
1505860754.162,38.574,60.547,0.000,-12.207,-13.672,0
1505860754.166,35.156,72.754,1.953,-11.719,-13.184,0
1505860754.170,37.109,83.008,5.859,-3.418,4.395,0
1505860754.174,53.711,86.426,22.949,5.859,18.555,0
1505860754.178,60.547,100.586,21.484,5.371,23.926,0
1505860754.182,56.641,104.004,12.207,10.742,25.391,0
1505860754.186,59.082,103.027,6.836,17.578,23.926,0
1505860754.190,60.547,87.891,-1.953,-0.488,23.926,0
1505860754.193,48.340,76.172,-9.766,-24.902,9.277,0
1505860754.197,45.898,63.477,0.488,-5.859,4.883,0
1505860754.201,55.664,61.523,13.672,25.879,17.578,0
1505860754.205,67.871,91.797,6.836,27.832,8.789,0
1505860754.209,70.801,89.844,19.531,29.297,26.855,0
1505860754.213,71.777,79.102,26.367,27.344,50.781,0
1505860754.217,86.426,79.590,20.996,24.414,19.043,0
1505860754.221,73.242,56.152,-2.441,18.066,27.344,0
1505860754.225,44.434,40.039,-45.898,2.441,51.758,0
1505860754.229,43.945,51.758,-22.461,11.719,27.832,0
1505860754.233,44.434,67.871,6.836,19.531,-13.672,0
1505860754.236,33.691,67.871,-4.883,13.672,-2.441,0
1505860754.240,40.039,53.711,-9.766,4.883,12.695,0
1505860754.244,48.340,55.176,-12.695,4.395,15.137,0
1505860754.248,47.363,70.801,4.395,12.207,21.973,0
1505860754.252,45.898,58.594,27.832,14.160,27.344,0
1505860754.256,48.340,41.992,40.527,19.043,17.578,0
1505860754.260,59.570,67.871,57.617,35.156,1.953,0
1505860754.264,62.012,85.938,62.500,31.250,1.465,0
1505860754.268,48.828,77.637,44.922,10.742,44.434,0
1505860754.272,33.203,57.129,32.715,19.043,60.059,0
1505860754.275,31.250,43.945,33.203,41.016,-6.836,0
1505860754.279,34.180,39.551,32.715,39.062,-20.020,0
1505860754.283,44.434,32.715,23.926,31.738,18.066,0
1505860754.287,45.898,32.715,18.555,36.133,31.250,0
1505860754.291,33.691,53.223,19.531,38.574,4.883,0
1505860754.295,41.016,58.594,19.043,40.039,-6.836,2
1505860754.299,45.410,46.875,18.066,36.133,6.348,0
1505860754.303,45.898,52.734,14.160,38.086,20.508,0
1505860754.307,41.992,55.664,4.395,40.527,26.367,0
1505860754.311,35.156,54.688,3.418,34.668,15.137,0
1505860754.315,47.852,57.617,10.742,46.875,34.180,0
1505860754.318,59.570,54.199,12.695,49.316,17.090,0
1505860754.322,57.129,49.805,32.227,42.969,-30.273,0
1505860754.326,60.059,50.293,37.598,46.387,-12.695,0
1505860754.330,52.734,36.133,32.227,41.992,16.113,0
1505860754.334,38.086,41.504,18.555,38.574,20.996,0
1505860754.338,47.852,59.082,20.508,45.410,27.344,0
1505860754.342,57.129,59.082,39.551,43.945,53.223,0
1505860754.346,59.570,62.500,39.551,27.832,56.641,0
1505860754.350,61.035,61.523,30.762,18.555,41.992,0
1505860754.354,49.316,65.918,19.043,1.465,37.598,0
1505860754.358,33.691,67.871,25.391,-3.418,21.973,0
1505860754.361,41.992,67.871,25.391,13.672,64.453,0
1505860754.365,70.801,65.918,25.391,30.273,117.676,0
1505860754.369,54.688,41.016,38.086,32.227,62.500,0
1505860754.373,30.273,32.715,34.180,35.156,69.336,0
1505860754.377,29.785,38.574,14.160,34.668,52.246,0
1505860754.381,18.066,34.668,2.930,12.695,23.926,0
1505860754.385,19.531,43.457,17.090,17.578,52.246,0
1505860754.389,21.484,46.875,32.715,17.578,48.340,0
1505860754.393,22.461,49.316,33.691,17.578,33.203,0
1505860754.397,37.109,52.246,42.969,36.133,15.137,0
1505860754.400,27.832,38.086,41.016,47.363,35.156,0
1505860754.404,32.715,47.363,26.367,48.340,56.152,0
1505860754.408,34.668,66.895,23.438,45.898,72.754,0
1505860754.412,15.137,57.617,22.949,28.809,90.820,0
1505860754.416,16.602,43.945,34.668,19.531,53.223,0
1505860754.420,12.695,37.598,39.551,25.879,51.758,0
1505860754.424,18.066,44.922,46.875,41.016,82.031,0
1505860754.428,27.832,67.383,42.969,38.574,64.453,0
1505860754.432,16.602,61.523,27.832,20.020,76.660,0
1505860754.436,6.348,43.457,32.227,8.301,93.750,0
1505860754.440,15.625,47.852,35.156,15.137,76.660,0
1505860754.443,27.344,50.293,36.621,41.016,72.754,0
1505860754.447,31.738,52.246,23.438,38.574,43.457,0
1505860754.451,26.367,63.965,20.020,32.227,60.547,0
1505860754.455,26.367,62.012,37.598,43.457,100.586,0
1505860754.459,34.180,50.781,58.105,58.594,97.656,0
1505860754.463,24.902,43.457,45.898,48.340,79.590,0
1505860754.467,20.020,36.133,18.066,36.621,54.199,0
1505860754.471,30.273,41.504,17.578,50.781,31.250,0
1505860754.475,44.434,51.758,35.645,50.781,56.641,0
1505860754.479,61.035,43.945,51.270,55.664,79.102,0
1505860754.483,48.828,37.598,50.293,75.684,57.129,0
1505860754.486,39.062,38.574,46.875,83.008,39.551,0
1505860754.490,42.480,22.461,43.457,73.730,42.969,0
1505860754.494,36.621,1.953,36.621,67.871,71.289,0
1505860754.498,44.922,-5.859,57.617,78.613,82.031,0
1505860754.502,54.688,17.090,73.730,92.773,66.895,0
1505860754.506,37.598,6.348,53.223,76.172,50.293,0
1505860754.510,36.621,-32.227,28.320,58.594,62.500,0
1505860754.514,41.504,-24.414,47.852,67.871,56.152,0
1505860754.518,33.203,-1.953,68.848,69.336,30.273,0
1505860754.522,25.391,-7.812,47.363,53.223,39.062,0
1505860754.525,18.555,-10.254,51.758,45.410,41.992,0
1505860754.529,34.668,10.254,62.500,58.105,47.852,0
1505860754.533,39.551,23.438,50.781,62.012,35.645,0
1505860754.537,19.531,12.695,34.180,41.992,28.809,0
1505860754.541,16.113,5.859,31.250,37.598,44.434,0
1505860754.545,7.812,0.000,20.996,35.156,14.648,0
1505860754.549,8.789,10.254,-3.418,28.809,-9.766,0
1505860754.553,18.555,32.715,1.953,31.250,34.180,0
1505860754.557,19.043,10.254,25.879,30.273,60.547,0
1505860754.561,19.531,1.465,26.367,34.668,20.508,0
1505860754.565,17.578,14.648,30.762,34.180,20.020,0
1505860754.568,15.137,-6.348,28.809,27.344,69.336,0
1505860754.572,19.531,-4.883,19.531,36.621,71.777,0
1505860754.576,34.668,6.836,32.227,44.434,43.945,0
1505860754.580,43.945,37.109,35.156,47.852,41.504,0
1505860754.584,55.664,55.176,37.109,64.453,67.383,0
1505860754.588,52.734,38.574,53.711,65.918,50.781,0
1505860754.592,51.270,39.062,44.434,57.617,43.945,0
1505860754.596,60.059,27.832,37.598,67.383,76.172,0
1505860754.600,58.105,32.715,50.293,69.336,72.266,0
1505860754.604,66.406,57.617,59.570,81.055,44.434,0
1505860754.608,79.102,52.246,67.871,93.750,27.832,0
1505860754.611,73.242,43.945,61.523,82.520,42.969,0
1505860754.615,70.801,35.645,43.457,77.148,81.055,0
1505860754.619,90.332,39.062,38.086,85.938,49.805,0
1505860754.623,102.051,58.105,51.270,92.285,25.391,0
1505860754.627,83.984,50.781,49.805,77.637,48.828,0
1505860754.631,73.242,46.875,40.527,68.359,49.805,0
1505860754.635,75.195,53.223,23.438,66.895,30.762,0
1505860754.639,69.824,51.758,14.648,59.082,43.945,0
1505860754.643,52.246,44.434,14.648,41.504,50.781,0
1505860754.647,36.133,44.434,10.742,30.762,46.387,0
1505860754.650,52.246,44.434,19.531,45.410,11.719,0
1505860754.654,62.988,46.875,25.879,49.316,-0.977,0
1505860754.658,54.688,55.176,35.645,42.969,35.645,0
1505860754.662,37.109,49.805,29.785,35.645,52.734,0
1505860754.666,21.973,35.645,8.789,27.832,35.156,0
1505860754.670,34.668,26.367,4.883,36.133,15.137,0
1505860754.674,40.527,28.809,14.648,41.504,28.320,0
1505860754.678,32.715,44.434,9.766,29.785,17.090,0
1505860754.682,33.203,33.203,4.883,22.461,14.648,0
1505860754.686,35.156,24.902,20.508,23.926,35.156,0
1505860754.690,40.527,47.363,41.504,32.227,84.473,0
1505860754.693,32.227,54.199,33.691,40.527,81.055,0
1505860754.697,16.113,44.922,14.648,33.691,23.926,0
1505860754.701,10.742,33.203,27.344,23.438,42.480,0
1505860754.705,14.160,31.250,38.574,21.973,62.500,0
1505860754.709,23.438,18.066,30.762,26.367,54.688,0
1505860754.713,27.832,10.742,31.738,22.949,59.570,0
1505860754.717,26.367,34.668,37.598,20.020,54.688,0
1505860754.721,40.527,47.852,30.762,32.715,42.480,0
1505860754.725,51.758,37.598,23.926,43.945,24.414,0
1505860754.729,47.363,41.992,26.367,38.574,-0.977,0
1505860754.733,46.387,47.363,28.320,38.086,4.395,0
1505860754.736,47.852,45.898,15.137,42.480,48.828,0
1505860754.740,54.199,49.805,3.418,45.410,71.289,0
1505860754.744,58.105,48.828,-1.465,52.734,32.227,0
1505860754.748,57.129,54.199,-8.301,65.918,24.902,0
1505860754.752,61.523,49.316,-3.906,71.777,33.203,0
1505860754.756,66.406,35.156,12.695,74.219,17.578,0
1505860754.760,64.453,51.270,21.484,79.590,22.461,0
1505860754.764,68.848,64.941,15.137,71.289,53.223,0
1505860754.768,77.637,70.312,2.930,72.266,37.598,0
1505860754.772,69.824,67.383,7.812,75.195,10.742,0
1505860754.775,55.664,55.664,10.254,61.035,52.734,0
1505860754.779,56.152,56.641,1.465,50.781,65.430,0
1505860754.783,62.988,70.312,7.324,58.105,43.457,0
1505860754.787,62.500,69.336,20.020,62.988,57.617,0
1505860754.791,59.570,45.898,25.879,61.523,51.270,0
1505860754.795,54.688,39.062,16.113,53.223,49.805,3
1505860754.799,48.340,46.875,8.789,49.316,46.875,0
1505860754.803,52.246,48.828,13.184,50.293,36.621,0
1505860754.807,63.477,56.641,17.090,49.805,42.969,0
1505860754.811,56.641,59.570,5.859,44.434,37.109,0
1505860754.815,47.363,48.828,3.418,37.109,34.668,0
1505860754.818,51.758,43.945,25.879,33.203,30.273,0
1505860754.822,43.457,58.105,33.691,27.832,32.715,0
1505860754.826,42.480,73.242,23.926,26.855,36.133,0
1505860754.830,55.176,60.059,17.578,34.180,60.547,0
1505860754.834,56.152,50.293,19.531,37.109,89.355,0
1505860754.838,52.734,49.805,22.461,45.898,72.754,0
1505860754.842,62.012,41.992,22.949,42.480,43.457,0
1505860754.846,62.500,42.969,25.879,43.945,0.977,0
1505860754.850,39.062,32.227,20.996,35.645,-7.324,0
1505860754.854,37.109,21.973,19.531,33.691,49.316,0
1505860754.858,62.012,33.203,34.668,63.477,29.297,0
1505860754.861,64.453,35.156,37.109,68.848,-2.441,0
1505860754.865,63.477,24.414,28.320,62.012,32.715,0
1505860754.869,74.219,12.695,35.645,73.242,17.578,0
1505860754.873,86.426,17.578,51.758,91.309,-5.859,0
1505860754.877,98.145,26.367,60.059,96.680,61.523,0
1505860754.881,107.910,27.344,57.617,101.562,97.168,0
1505860754.885,114.258,32.715,50.781,110.840,81.543,0
1505860754.889,112.793,43.457,46.875,112.305,55.664,0
1505860754.893,110.840,47.363,53.711,115.234,26.855,0
1505860754.897,111.328,45.898,53.223,110.840,46.875,0
1505860754.900,123.535,48.828,55.176,119.629,61.523,0
1505860754.904,136.719,51.758,66.895,136.719,38.574,0
1505860754.908,139.160,62.012,79.102,133.789,22.461,0
1505860754.912,147.461,62.988,84.473,138.672,48.828,0
1505860754.916,158.203,63.965,98.145,149.902,42.480,0
1505860754.920,150.879,62.012,95.703,140.625,29.297,0
1505860754.924,138.672,53.223,80.078,128.418,41.504,0
1505860754.928,128.906,55.664,90.332,125.488,88.379,0
1505860754.932,113.281,53.223,91.309,122.559,98.633,0
1505860754.936,104.980,48.828,85.938,115.723,18.555,0
1505860754.940,105.957,59.570,80.566,104.004,12.207,0
1505860754.943,104.492,56.641,67.871,106.445,62.500,0
1505860754.947,105.469,54.199,70.801,123.535,34.180,0
1505860754.951,122.559,67.871,87.891,125.977,11.230,0
1505860754.955,130.859,67.871,89.844,117.676,29.785,0
1505860754.959,114.258,61.523,81.055,105.957,60.547,0
1505860754.963,109.375,64.453,80.566,98.145,22.949,0
1505860754.967,113.281,65.430,78.613,94.727,0.000,0
1505860754.971,111.328,62.988,67.383,96.191,61.035,0
1505860754.975,104.004,68.848,62.012,99.121,61.035,0
1505860754.979,91.797,72.266,66.406,97.656,17.578,0
1505860754.983,84.473,65.918,62.988,86.914,33.691,0
1505860754.986,77.148,60.059,49.805,72.266,35.645,0
1505860754.990,62.988,60.547,31.250,56.641,38.574,0
1505860754.994,59.570,63.965,19.531,52.246,34.180,0
1505860754.998,62.500,32.715,24.902,60.059,-10.254,0
1505860755.002,50.293,25.879,39.062,50.293,17.090,0
1505860755.006,52.246,68.848,47.852,40.039,51.758,0
1505860755.010,63.965,77.637,57.617,41.016,33.691,0
1505860755.014,65.430,68.359,57.129,46.387,41.504,0
1505860755.018,69.824,69.824,60.059,55.176,78.125,0
1505860755.022,63.965,57.129,69.336,53.711,58.105,0
1505860755.025,55.664,44.922,74.219,53.223,6.348,0
1505860755.029,60.059,45.898,55.664,49.805,19.043,0
1505860755.033,60.059,53.223,45.410,41.992,49.316,0
1505860755.037,44.434,62.988,51.270,46.387,45.898,0
1505860755.041,42.480,61.035,48.828,50.293,35.645,0
1505860755.045,53.711,46.387,56.152,55.176,45.410,0
1505860755.049,47.852,39.551,54.688,56.641,52.734,0
1505860755.053,51.270,47.852,43.457,52.734,40.039,0
1505860755.057,55.664,60.547,44.922,55.664,42.480,0
1505860755.061,48.828,62.988,24.414,53.711,36.133,0
1505860755.065,62.500,57.617,20.020,56.641,46.387,0
1505860755.068,73.242,63.477,46.387,63.965,72.754,0
1505860755.072,77.148,71.777,55.176,70.312,35.645,0
1505860755.076,73.242,63.477,45.898,60.547,43.945,0
1505860755.080,61.035,51.758,26.855,36.621,63.477,0
1505860755.084,55.176,44.434,31.250,40.527,46.387,0
1505860755.088,59.570,52.734,46.387,53.711,52.246,0
1505860755.092,69.336,57.129,39.551,48.828,65.918,0
1505860755.096,76.172,60.059,39.551,50.781,54.688,0
1505860755.100,72.266,58.594,40.527,45.898,53.223,0
1505860755.104,71.289,59.082,42.480,49.316,45.898,0
1505860755.108,67.871,68.359,39.551,53.223,39.062,0
1505860755.111,61.035,69.336,32.715,42.969,66.895,0
1505860755.115,56.152,63.965,31.250,41.504,96.191,0
1505860755.119,50.293,58.594,28.809,39.551,75.684,0
1505860755.123,55.664,61.035,31.738,34.180,36.133,0
1505860755.127,61.035,73.730,26.367,35.645,34.668,0
1505860755.131,71.777,72.754,34.180,44.922,21.484,0
1505860755.135,71.289,54.688,55.176,49.805,21.973,0
1505860755.139,63.965,64.453,63.965,59.570,38.086,0
1505860755.143,52.246,59.082,60.547,50.781,45.410,0
1505860755.147,34.180,52.734,50.293,32.227,40.527,0
1505860755.150,25.391,57.617,40.527,18.555,28.809,0
1505860755.154,24.902,46.875,35.645,10.742,20.020,0
1505860755.158,25.391,43.945,35.645,14.648,43.945,0
1505860755.162,24.902,41.016,30.273,20.996,57.617,0
1505860755.166,29.297,49.805,27.344,30.273,33.691,0
1505860755.170,38.086,64.453,35.156,36.133,46.387,0
1505860755.174,47.852,53.711,42.969,37.598,14.648,0
1505860755.178,55.664,55.176,59.570,48.828,11.230,0
1505860755.182,54.688,61.035,74.707,45.898,51.270,0
1505860755.186,45.898,52.246,74.707,32.715,27.832,0
1505860755.190,36.133,50.781,62.988,19.043,20.508,0
1505860755.193,42.969,49.316,54.199,9.766,40.039,0
1505860755.197,44.922,47.852,47.363,7.324,41.016,0
1505860755.201,37.598,47.852,37.598,6.836,49.805,0
1505860755.205,44.922,43.457,48.340,13.184,47.363,0
1505860755.209,50.293,40.527,71.777,24.414,47.852,0
1505860755.213,49.316,49.316,82.520,40.527,34.668,0
1505860755.217,45.898,49.805,77.637,45.410,39.551,0
1505860755.221,50.293,45.898,75.195,48.340,41.016,0
1505860755.225,63.965,50.781,69.336,53.223,16.602,0
1505860755.229,72.754,55.664,66.895,49.316,21.484,0
1505860755.233,58.105,44.922,59.570,38.574,36.133,0
1505860755.236,50.293,30.762,36.133,36.621,52.246,0
1505860755.240,54.199,38.574,34.180,40.039,35.645,0
1505860755.244,58.594,49.805,45.410,47.852,51.270,0
1505860755.248,52.734,48.340,28.320,36.621,54.199,0
1505860755.252,53.711,51.270,20.020,24.902,59.082,0
1505860755.256,63.965,53.711,24.902,32.227,85.938,0
1505860755.260,56.641,45.410,12.695,32.715,57.617,0
1505860755.264,66.895,58.594,15.137,40.039,1.953,0
1505860755.268,82.520,64.941,17.578,46.875,7.812,0
1505860755.272,78.125,61.523,12.695,46.387,24.414,0
1505860755.275,81.543,66.895,12.695,47.363,21.973,0
1505860755.279,86.914,61.523,13.184,53.223,24.902,0
1505860755.283,81.543,63.965,15.137,49.805,4.883,0
1505860755.287,69.336,70.312,10.254,36.133,24.414,0
1505860755.291,64.453,70.801,8.789,35.645,31.250,0
1505860755.295,55.664,60.059,4.395,28.320,16.113,0
1505860755.299,41.992,45.898,12.695,22.461,14.160,4
1505860755.303,54.688,52.734,25.391,35.645,54.199,0
1505860755.307,70.312,56.152,29.297,39.062,66.895,0
1505860755.311,58.105,50.293,28.320,33.691,46.875,0
1505860755.315,47.852,56.152,21.484,31.250,48.340,0
1505860755.318,54.199,52.246,19.043,35.156,69.336,0
1505860755.322,60.059,49.316,22.949,36.133,54.688,0
1505860755.326,61.523,42.480,21.484,33.203,-2.441,0
1505860755.330,62.012,31.250,15.137,36.133,-1.953,0
1505860755.334,59.082,26.367,17.090,35.645,26.367,0
1505860755.338,53.711,32.227,20.508,35.156,-6.836,0
1505860755.342,48.340,36.621,20.508,36.133,-6.836,0
1505860755.346,42.480,28.809,28.320,36.621,27.832,0
1505860755.350,47.852,24.902,33.203,35.156,41.504,0
1505860755.354,59.570,38.574,33.203,38.086,31.250,0
1505860755.358,70.801,50.293,34.180,45.410,-2.930,0
1505860755.361,71.289,45.898,38.574,45.898,1.953,0
1505860755.365,77.148,36.621,50.781,58.105,27.832,0
1505860755.369,70.801,37.598,55.176,59.082,43.457,0
1505860755.373,56.152,36.621,54.688,48.340,26.367,0
1505860755.377,62.012,40.039,63.477,50.293,-7.812,0
1505860755.381,57.617,43.945,67.383,42.969,6.348,0
1505860755.385,50.781,35.645,71.289,37.598,1.953,0
1505860755.389,52.246,31.738,74.219,38.574,-8.301,0
1505860755.393,48.828,33.203,71.289,36.621,33.691,0
1505860755.397,43.457,30.762,62.012,32.715,52.246,0
1505860755.400,46.875,23.926,57.129,31.250,-1.465,0
1505860755.404,43.945,17.090,44.434,30.762,-8.789,0
1505860755.408,36.621,27.344,31.738,22.949,16.113,0
1505860755.412,43.457,35.645,43.945,23.438,7.324,0
1505860755.416,51.270,33.203,50.781,26.855,13.672,0
1505860755.420,51.758,41.992,50.293,31.738,15.625,0
1505860755.424,42.480,51.270,47.363,31.738,17.090,0
1505860755.428,46.387,45.898,50.781,28.809,33.691,0
1505860755.432,53.223,35.645,63.965,32.715,18.555,0
1505860755.436,48.828,53.711,65.918,38.086,0.000,0
1505860755.440,55.176,66.406,64.453,39.062,42.969,0
1505860755.443,52.734,52.734,56.641,30.762,34.668,0
1505860755.447,43.945,48.340,49.316,30.762,-19.531,0
1505860755.451,35.156,49.316,48.340,28.320,-13.184,0
1505860755.455,38.574,41.016,55.176,27.344,1.465,0
1505860755.459,44.922,34.180,56.641,28.809,3.418,0
1505860755.463,33.691,30.762,44.922,27.344,13.672,0
1505860755.467,31.738,29.785,41.016,25.879,26.855,0
1505860755.471,39.551,44.922,44.922,28.320,20.020,0
1505860755.475,39.062,58.105,39.551,29.785,23.926,0
1505860755.479,48.828,63.965,43.457,28.320,29.297,0
1505860755.483,51.270,69.824,50.293,28.809,47.852,0
1505860755.486,49.805,65.430,50.293,28.809,48.340,0
1505860755.490,46.875,59.082,43.457,19.531,51.758,0
1505860755.494,44.922,41.504,25.391,9.277,69.824,0
1505860755.498,38.086,37.109,9.766,1.465,47.363,0
1505860755.502,26.855,49.805,11.719,2.930,21.484,0
1505860755.506,32.227,50.781,24.414,16.602,-6.836,0
1505860755.510,38.574,45.410,30.762,28.809,-8.301,0
1505860755.514,40.527,41.016,31.250,29.785,18.066,0
1505860755.518,40.039,36.621,30.762,27.832,9.277,0
1505860755.522,40.527,32.715,32.715,28.320,5.859,0
1505860755.525,46.875,47.363,33.203,31.738,26.855,0
1505860755.529,49.316,48.828,43.457,38.086,28.320,0
1505860755.533,49.316,43.945,42.969,37.598,60.547,0
1505860755.537,42.969,48.828,27.832,27.832,67.383,0
1505860755.541,33.691,52.246,23.438,25.879,44.922,0
1505860755.545,45.410,53.711,28.320,29.785,50.293,0
1505860755.549,53.711,50.781,26.367,31.250,54.688,0
1505860755.553,51.758,52.734,25.391,25.879,39.551,0
1505860755.557,57.617,57.617,33.203,22.949,50.293,0
1505860755.561,56.641,44.922,38.086,29.297,46.387,0
1505860755.565,44.922,27.832,33.691,20.020,35.645,0
1505860755.568,36.621,40.527,29.297,9.766,42.969,0
1505860755.572,27.344,44.434,32.715,2.930,37.598,0
1505860755.576,23.926,34.180,41.016,-6.836,39.551,0
1505860755.580,31.738,37.109,58.105,3.906,56.152,0
1505860755.584,39.062,41.992,61.035,11.719,77.637,0
1505860755.588,47.363,43.945,49.805,8.301,64.453,0
1505860755.592,55.176,37.598,46.387,22.461,54.688,0
1505860755.596,50.781,38.086,35.156,26.367,4.883,0
1505860755.600,41.992,45.898,28.809,24.902,19.043,0
1505860755.604,53.223,42.480,46.875,35.645,84.473,0
1505860755.608,62.012,47.363,55.664,41.016,76.172,0
1505860755.611,56.641,51.758,44.434,39.062,32.227,0
1505860755.615,61.035,54.688,38.086,38.574,22.949,0
1505860755.619,69.824,59.570,32.715,42.480,49.316,0
1505860755.623,60.547,60.059,29.297,45.898,46.387,0
1505860755.627,57.617,56.641,41.016,53.223,51.270,0
1505860755.631,58.594,47.363,41.504,57.129,45.410,0
1505860755.635,52.734,45.898,36.621,48.828,41.016,0
1505860755.639,55.176,58.594,39.062,46.387,31.738,0
1505860755.643,56.641,66.895,43.457,48.340,8.789,0
1505860755.647,41.992,57.617,34.668,35.645,40.039,0
1505860755.650,41.016,59.082,31.250,37.598,62.988,0
1505860755.654,49.805,60.059,42.969,51.270,53.223,0
1505860755.658,50.781,46.387,52.734,49.805,64.453,0
1505860755.662,51.270,33.691,58.594,42.969,63.965,0
1505860755.666,44.922,20.996,51.270,37.109,61.035,0
1505860755.670,44.434,24.414,43.945,40.527,51.758,0
1505860755.674,51.270,34.180,53.223,59.570,39.062,0
1505860755.678,40.039,22.949,44.922,51.270,72.754,0
1505860755.682,23.926,12.695,22.461,31.738,95.703,0
1505860755.686,30.273,21.973,38.574,31.250,23.438,0
1505860755.690,35.645,19.531,61.523,24.414,-8.789,0
1505860755.693,32.715,17.578,66.406,26.855,33.691,0
1505860755.697,18.066,13.184,69.824,23.438,40.039,0
1505860755.701,1.953,-3.418,62.500,7.324,32.715,0
1505860755.705,10.254,-9.277,61.035,10.254,41.504,0
1505860755.709,9.766,-7.812,57.617,10.742,41.016,0
1505860755.713,2.441,-7.324,53.223,1.465,41.016,0
1505860755.717,13.184,-5.371,60.547,4.883,46.387,0
1505860755.721,14.648,-11.230,58.105,-1.953,65.918,0
1505860755.725,-1.465,-18.066,50.781,-16.602,89.355,0
1505860755.729,-6.348,-16.113,54.688,-6.836,73.242,0
1505860755.733,5.371,2.441,54.688,6.836,44.434,0
1505860755.736,13.672,15.137,52.734,15.625,45.898,0
1505860755.740,24.902,8.789,65.430,29.785,64.453,0
1505860755.744,28.320,-2.930,45.898,42.480,28.809,0
1505860755.748,29.297,4.883,37.598,42.480,-23.926,0
1505860755.752,37.109,22.461,69.336,38.574,25.879,0
1505860755.756,40.039,38.574,73.242,42.969,53.711,0
1505860755.760,41.504,43.945,64.453,47.852,29.785,0
1505860755.764,34.668,33.691,62.012,44.434,22.949,0
1505860755.768,23.926,35.645,61.035,39.062,55.176,0
1505860755.772,21.484,41.016,68.848,34.668,68.359,0
1505860755.775,20.508,45.410,76.660,29.785,12.207,0
1505860755.779,16.113,45.898,67.383,24.902,-5.859,0
1505860755.783,19.531,37.109,55.664,23.438,45.410,0
1505860755.787,23.438,33.203,49.316,26.367,60.059,0
1505860755.791,23.438,19.531,43.945,20.996,11.719,0
1505860755.795,25.879,8.789,44.922,22.949,8.789,0
1505860755.799,20.996,22.461,50.781,30.273,36.621,5
1505860755.803,18.066,22.461,47.363,28.809,38.086,0
1505860755.807,18.555,5.859,38.086,31.250,37.109,0
1505860755.811,12.695,15.137,27.344,21.973,20.996,0
1505860755.815,20.996,44.434,37.109,21.484,46.387,0
1505860755.818,31.250,49.805,54.199,36.133,51.758,0
1505860755.822,32.715,45.410,44.922,40.527,9.277,0
1505860755.826,34.668,42.480,36.133,39.062,20.020,0
1505860755.830,33.691,35.645,34.180,31.738,39.551,0
1505860755.834,37.598,37.109,22.949,33.691,24.414,0
1505860755.838,42.969,40.039,28.320,41.504,27.344,0
1505860755.842,42.480,39.062,39.551,41.992,55.664,0
1505860755.846,47.852,47.852,44.434,59.570,62.500,0
1505860755.850,48.340,40.039,43.945,62.988,41.504,0
1505860755.854,36.133,29.785,28.809,45.410,30.273,0
1505860755.858,31.250,37.598,22.461,36.133,36.621,0
1505860755.861,33.203,24.902,29.785,37.598,70.312,0
1505860755.865,39.062,19.043,32.227,30.762,63.477,0
1505860755.869,38.086,27.832,35.156,21.973,15.137,0
1505860755.873,33.691,28.320,41.016,22.461,33.691,0
1505860755.877,36.621,29.297,45.410,22.461,40.039,0
1505860755.881,34.668,39.551,45.410,19.043,20.020,0
1505860755.885,21.484,37.109,41.016,7.324,35.645,0
1505860755.889,21.973,29.785,48.340,0.488,36.621,0
1505860755.893,28.320,36.621,56.152,12.695,25.391,0
1505860755.897,30.273,40.039,48.828,18.066,29.297,0
1505860755.900,28.320,34.668,49.316,8.789,13.184,0
1505860755.904,21.973,24.414,54.688,6.836,-2.441,0
1505860755.908,24.902,19.531,55.176,15.625,38.574,0
1505860755.912,36.133,34.180,61.035,23.926,36.621,0
1505860755.916,41.992,35.645,66.406,24.414,2.930,0
1505860755.920,45.898,30.273,58.105,27.344,23.926,0
1505860755.924,45.898,41.016,53.711,35.156,30.273,0
1505860755.928,44.434,51.270,69.824,39.551,19.531,0
1505860755.932,37.109,45.898,76.660,36.621,29.297,0
1505860755.936,37.598,48.340,66.406,42.480,39.062,0
1505860755.940,48.828,52.734,51.758,41.504,41.016,0
1505860755.943,42.969,44.434,44.434,38.086,32.715,0
1505860755.947,51.270,43.457,53.223,51.270,46.387,0
1505860755.951,73.730,51.758,66.406,62.988,55.664,0
1505860755.955,75.195,45.898,62.500,62.988,47.363,0
1505860755.959,67.383,46.387,57.129,61.035,47.852,0
1505860755.963,61.523,51.758,58.105,59.082,52.246,0
1505860755.967,61.035,47.363,62.012,58.594,70.312,0
1505860755.971,73.242,53.711,69.824,62.500,6.348,0
1505860755.975,64.941,54.199,61.035,54.199,-29.297,0
1505860755.979,46.387,42.969,49.316,44.434,35.645,0
1505860755.983,36.621,52.246,53.223,49.805,39.551,0
1505860755.986,36.133,60.059,46.387,40.039,22.461,0
1505860755.990,40.039,47.852,44.434,34.668,42.969,0
1505860755.994,43.945,45.898,64.941,46.387,66.406,0
1505860755.998,45.410,56.641,66.895,41.504,31.738,0
1505860756.002,41.504,59.570,52.734,33.203,17.578,0
1505860756.006,30.273,45.410,34.180,22.949,66.406,0
1505860756.010,16.602,28.320,20.508,10.254,72.754,0
1505860756.014,20.508,22.461,17.090,19.043,18.066,0
1505860756.018,31.738,20.996,17.578,29.297,14.648,0
1505860756.022,30.273,28.320,16.602,23.438,63.477,0
1505860756.025,30.762,45.410,17.578,19.043,71.777,0
1505860756.029,37.598,40.527,27.344,20.996,15.137,0
1505860756.033,39.062,33.691,26.855,9.277,6.836,0
1505860756.037,35.645,42.480,26.367,-0.488,42.480,0
1505860756.041,45.898,43.457,35.645,4.395,32.227,0
1505860756.045,46.875,30.762,25.879,-2.441,29.297,0
1505860756.049,44.434,20.996,22.949,-4.395,61.523,0
1505860756.053,41.504,15.137,19.043,-3.906,87.891,0
1505860756.057,43.457,12.695,12.695,-1.465,76.660,0
1505860756.061,45.898,20.508,32.715,18.066,20.020,0
1505860756.065,44.434,24.414,50.781,36.621,3.906,0
1505860756.068,50.293,29.297,61.523,53.223,38.574,0
1505860756.072,57.617,26.855,65.918,64.941,42.480,0
1505860756.076,61.035,21.973,62.988,64.941,33.691,0
1505860756.080,59.570,31.250,52.734,64.941,38.574,0
1505860756.084,52.734,37.109,41.504,69.336,51.758,0
1505860756.088,49.316,32.227,36.133,69.336,45.898,0
1505860756.092,55.664,35.156,33.691,66.406,14.160,0
1505860756.096,59.082,39.551,24.414,67.383,17.090,0
1505860756.100,57.129,39.551,14.648,63.965,51.270,0
1505860756.104,60.547,45.898,14.160,61.035,45.898,0
1505860756.108,65.918,51.758,13.184,57.129,8.301,0
1505860756.111,46.387,39.062,-4.883,35.156,13.672,0
1505860756.115,28.320,41.504,-9.766,25.879,54.688,0
1505860756.119,35.156,54.199,10.254,37.109,52.734,0
1505860756.123,38.574,50.293,19.531,39.551,27.832,0
1505860756.127,41.016,55.176,20.996,42.969,35.156,0
1505860756.131,43.457,61.035,26.367,46.387,46.875,0
1505860756.135,50.781,53.223,29.785,47.363,27.832,0
1505860756.139,59.570,58.105,35.645,52.246,38.086,0
1505860756.143,54.199,75.684,28.809,45.898,34.180,0
1505860756.147,50.781,70.801,17.578,36.621,43.457,0
1505860756.150,54.688,67.383,20.996,33.203,27.832,0
1505860756.154,51.758,73.730,24.414,31.738,6.348,0
1505860756.158,51.270,73.242,23.926,23.926,34.180,0
1505860756.162,46.387,68.359,18.066,27.344,38.086,0
1505860756.166,43.457,61.035,11.719,26.855,25.391,0
1505860756.170,57.617,62.988,16.113,26.855,24.414,0
1505860756.174,57.617,62.500,14.648,30.273,46.875,0
1505860756.178,41.992,59.570,17.578,17.578,10.742,0
1505860756.182,38.574,62.988,22.461,4.883,-12.695,0
1505860756.186,41.016,67.383,26.367,10.254,20.508,0
1505860756.190,46.875,66.406,24.902,14.648,40.039,0
1505860756.193,59.570,57.617,26.367,14.160,48.828,0
1505860756.197,61.035,58.105,37.598,23.926,35.645,0
1505860756.201,46.875,58.105,35.645,26.855,20.020,0
1505860756.205,42.969,60.547,29.785,21.973,23.926,0
1505860756.209,37.109,56.152,28.320,18.555,28.809,0
1505860756.213,35.156,41.504,31.738,14.160,15.137,0
1505860756.217,30.762,39.551,34.668,8.789,-1.953,0
1505860756.221,19.043,37.109,35.645,11.719,0.488,0
1505860756.225,26.855,38.574,45.410,31.738,7.324,0
1505860756.229,27.344,36.133,48.340,39.551,26.367,0
1505860756.233,24.902,15.625,41.992,38.086,36.621,0
1505860756.236,36.621,31.250,46.387,47.363,54.688,0
1505860756.240,32.715,33.691,49.805,48.828,39.551,0
1505860756.244,36.621,6.348,48.828,49.805,-1.465,0
1505860756.248,51.758,28.320,53.711,59.082,17.578,0
1505860756.252,53.711,55.176,52.734,63.965,43.457,0
1505860756.256,47.852,47.852,45.898,56.641,38.574,0
1505860756.260,44.922,44.922,41.992,50.293,12.207,0
1505860756.264,47.852,42.480,38.574,54.199,4.395,0
1505860756.268,51.758,35.645,21.484,62.500,5.859,0
1505860756.272,42.480,34.668,-5.371,58.594,1.465,0
1505860756.275,27.344,24.902,-2.930,42.969,30.273,0
1505860756.279,21.484,23.926,6.836,35.156,16.113,0
1505860756.283,24.902,34.668,4.883,27.344,15.625,0
1505860756.287,22.461,36.133,2.441,18.555,38.086,0
1505860756.291,20.020,31.738,-4.883,16.113,9.766,0
1505860756.295,28.320,35.645,-1.465,24.414,-12.695,0
1505860756.299,36.621,38.574,-2.441,22.949,3.418,0
1505860756.303,39.551,32.715,-2.930,21.973,7.324,0
1505860756.307,41.504,21.484,2.930,23.438,14.648,0
1505860756.311,48.340,30.762,4.883,19.043,-0.488,0
1505860756.315,46.875,40.527,15.137,14.160,-8.301,0
1505860756.318,35.156,23.438,9.277,8.301,16.602,0
1505860756.322,33.203,42.480,2.930,7.324,29.297,0
1505860756.326,33.691,44.434,1.465,7.812,22.949,0
1505860756.330,23.926,24.414,-18.066,-8.789,31.250,0
1505860756.334,35.645,42.480,7.324,-6.348,43.945,0
1505860756.338,50.781,49.316,33.203,7.812,42.969,0
1505860756.342,45.898,47.852,41.504,4.395,45.410,0
1505860756.346,37.598,58.594,53.711,5.371,-3.906,0
1505860756.350,35.645,63.477,46.387,9.766,-12.207,0
1505860756.354,32.715,42.969,38.086,5.859,20.996,0
1505860756.358,27.344,35.645,44.922,19.531,-2.441,0
1505860756.361,35.156,51.758,52.734,36.133,6.348,0
1505860756.365,49.316,51.758,57.617,52.246,24.414,0
1505860756.369,29.785,13.672,64.453,41.016,27.832,0
1505860756.373,9.766,15.625,69.336,18.555,24.902,0
1505860756.377,16.602,28.320,67.383,29.297,34.180,0
1505860756.381,26.855,8.789,70.312,46.387,31.250,0
1505860756.385,37.598,22.461,68.848,60.547,33.691,0
1505860756.389,31.738,18.555,40.527,61.523,23.926,0
1505860756.393,52.734,25.391,62.500,77.637,-17.578,0
1505860756.397,67.383,41.992,100.098,90.820,0.000,0
1505860756.400,45.410,54.688,62.012,78.613,37.598,0
1505860756.404,59.570,59.082,52.246,88.867,26.855,0
1505860756.408,53.223,21.973,36.621,84.473,24.902,0
1505860756.412,23.926,27.832,48.828,55.176,25.879,0
1505860756.416,33.203,5.371,99.609,52.734,37.109,0
1505860756.420,52.734,4.395,35.156,62.500,12.695,0
1505860756.424,43.945,1.953,-7.324,45.898,-3.418,0
1505860756.428,43.457,48.828,49.805,47.852,42.969,0
1505860756.432,88.379,139.160,92.285,90.820,46.875,0
1505860756.436,55.176,74.707,60.547,52.734,-10.742,0
1505860756.440,42.969,-39.551,1.465,29.297,-42.969,0
1505860756.443,87.891,-16.113,1.953,73.242,-21.484,0
1505860756.447,76.172,33.691,94.238,65.918,-49.316,0
1505860756.451,48.828,99.121,88.867,34.180,-80.078,0
1505860756.455,21.484,24.902,-8.789,9.277,-60.547,0
1505860756.459,11.719,-42.480,2.930,-14.648,-62.012,0
1505860756.463,-17.090,84.961,14.160,-52.246,-110.352,0
1505860756.467,-9.766,103.516,32.227,-43.457,-120.117,0
1505860756.471,5.371,34.180,-10.254,-36.133,-63.477,0
1505860756.475,-14.160,56.641,-47.363,-51.758,-36.133,0
1505860756.479,-6.348,116.699,-8.789,-45.898,-55.176,0
1505860756.483,-0.488,123.535,40.527,-38.574,-66.895,0
1505860756.486,7.812,106.445,31.738,-28.320,-72.754,0
1505860756.490,6.836,89.844,41.016,-37.109,-111.328,0
1505860756.494,-8.301,128.906,66.895,-53.711,-126.953,0
1505860756.498,15.137,170.898,98.145,-33.203,-149.414,0
1505860756.502,62.988,212.891,169.434,23.438,-143.066,0
1505860756.506,54.688,236.328,110.840,18.066,-125.488,0
1505860756.510,-20.996,181.152,68.359,-62.500,-158.691,0
1505860756.514,-26.855,150.391,95.703,-69.824,-200.195,0
1505860756.518,-7.324,221.191,144.043,-52.734,-183.105,0
1505860756.522,37.109,176.758,224.609,-2.930,-179.199,0
1505860756.525,25.391,147.461,167.969,1.465,-230.469,0
1505860756.529,-38.574,239.746,125.000,-53.711,-257.812,0
1505860756.533,-58.105,251.465,137.207,-73.730,-236.328,0
1505860756.537,-32.715,268.066,177.734,-45.898,-270.020,0
1505860756.541,12.695,247.070,257.812,-0.977,-290.527,0
1505860756.545,-5.859,275.879,204.102,-22.949,-300.781,0
1505860756.549,3.418,258.789,251.465,-8.301,-299.805,0
1505860756.553,52.246,174.316,330.566,44.434,-315.430,0
1505860756.557,11.230,253.906,203.125,-2.930,-346.191,0
1505860756.561,36.133,426.758,319.336,21.973,-328.613,0
1505860756.565,49.805,421.387,386.719,40.039,-295.898,0
1505860756.568,53.711,292.969,262.207,33.691,-300.293,0
1505860756.572,30.273,263.184,298.340,4.883,-351.074,0
1505860756.576,-46.387,278.320,318.359,-69.336,-350.586,0
1505860756.580,-5.859,324.707,332.520,-35.645,-327.148,0
1505860756.584,28.809,354.980,354.004,-4.395,-335.938,0
1505860756.588,42.480,373.535,323.730,2.441,-340.332,0
1505860756.592,42.480,411.621,389.160,4.883,-337.402,0
1505860756.596,4.395,347.168,330.078,-31.738,-352.539,0
1505860756.600,-13.672,313.965,308.105,-56.152,-341.797,0
1505860756.604,-13.184,365.234,437.500,-55.176,-308.105,0
1505860756.608,37.109,345.703,397.461,-7.324,-308.105,0
1505860756.611,17.578,347.168,415.527,-25.879,-295.898,0
1505860756.615,23.926,337.402,526.855,-20.508,-266.602,0
1505860756.619,101.562,335.938,570.801,63.477,-286.133,0
1505860756.623,-11.230,358.398,573.242,-48.828,-313.965,0
1505860756.627,-55.664,397.461,553.711,-101.074,-307.129,0
1505860756.631,23.438,377.441,544.922,-23.438,-329.102,0
1505860756.635,18.555,321.777,509.277,-27.344,-354.004,0
1505860756.639,-24.414,341.797,612.305,-65.430,-318.848,0
1505860756.643,23.438,215.820,785.156,-22.949,-294.922,0
1505860756.647,4.883,168.945,747.559,-37.109,-284.180,0
1505860756.650,-72.266,393.555,679.688,-106.934,-287.598,0
1505860756.654,-30.762,448.730,804.688,-74.219,-286.621,0
1505860756.658,0.000,385.742,874.512,-35.156,-255.371,0
1505860756.662,-30.273,299.316,855.469,-59.082,-263.672,0
1505860756.666,2.441,256.348,897.461,-28.320,-262.695,0
1505860756.670,-24.414,310.059,950.195,-47.363,-254.395,0
1505860756.674,-103.516,233.887,794.922,-114.258,-271.484,0
1505860756.678,-55.664,187.500,747.559,-64.941,-283.203,0
1505860756.682,-105.957,281.250,770.020,-114.746,-233.398,0
1505860756.686,-125.000,302.734,767.578,-143.066,-188.477,0
1505860756.690,-98.145,251.953,762.695,-113.281,-186.035,0
1505860756.693,-67.871,252.930,723.145,-79.102,-192.871,0
1505860756.697,-82.031,263.672,677.734,-100.098,-201.660,0
1505860756.701,-142.090,167.969,607.422,-162.109,-203.613,0
1505860756.705,-99.609,132.812,556.641,-115.723,-185.547,0
1505860756.709,-92.773,139.160,567.871,-113.770,-133.301,0
1505860756.713,-102.539,196.777,626.953,-124.512,-134.277,0
1505860756.717,-133.301,233.887,534.180,-146.484,-159.180,0
1505860756.721,-135.742,255.371,518.066,-139.648,-158.691,0
1505860756.725,-120.117,196.289,504.395,-125.000,-138.184,0
1505860756.729,-68.848,161.621,509.766,-85.449,-97.168,0
1505860756.733,-75.684,142.578,534.668,-83.984,-81.055,0
1505860756.736,-168.945,171.875,370.605,-171.875,-149.414,0
1505860756.740,-138.672,156.738,316.406,-152.344,-152.832,0
1505860756.744,-126.953,97.168,394.043,-147.461,-86.426,0
1505860756.748,-156.738,203.613,376.953,-178.223,-96.680,0
1505860756.752,-101.562,157.227,321.777,-122.070,-93.750,0
1505860756.756,-57.129,86.914,307.129,-72.754,-89.844,0
1505860756.760,-150.391,154.785,290.039,-157.715,-98.633,0
1505860756.764,-142.578,161.133,349.609,-144.043,-83.008,0
1505860756.768,-107.422,187.012,395.020,-118.652,-85.449,0
1505860756.772,-100.586,160.645,307.617,-119.141,-75.195,0
1505860756.775,-109.375,154.785,336.426,-115.723,-49.805,0
1505860756.779,-149.902,183.594,319.824,-153.320,-59.082,0
1505860756.783,-84.473,206.543,360.840,-108.398,-54.199,0
1505860756.787,-75.195,61.035,431.152,-96.191,-26.367,0
1505860756.791,-155.762,79.102,344.727,-169.922,-32.715,0
1505860756.795,-155.273,227.539,320.801,-173.340,-42.480,0
1505860756.799,-118.652,141.602,387.207,-138.184,-42.480,0
1505860756.803,-88.867,179.199,346.680,-105.469,-47.852,0
1505860756.807,-110.352,222.656,373.535,-120.117,-33.691,0
1505860756.811,-156.738,205.078,399.902,-160.645,-59.082,0
1505860756.815,-191.406,167.969,277.344,-197.266,-82.031,0
1505860756.818,-190.918,154.785,330.566,-207.031,-24.414,0
1505860756.822,-142.090,223.145,362.793,-151.855,-4.883,0
1505860756.826,-176.270,146.973,336.914,-182.617,-21.484,0
1505860756.830,-165.527,144.531,305.664,-170.410,-23.926,0
1505860756.834,-151.367,198.242,327.637,-157.715,-27.832,0
1505860756.838,-161.621,194.336,431.641,-176.270,-22.949,0
1505860756.842,-175.293,156.250,447.754,-186.523,-12.695,0
1505860756.846,-137.695,122.070,409.668,-144.531,14.648,0
1505860756.850,-146.973,117.188,382.324,-147.949,22.461,0
1505860756.854,-266.113,154.785,359.375,-267.578,37.598,0
1505860756.858,-229.492,203.125,380.859,-226.562,4.395,0
1505860756.861,-211.914,133.301,390.625,-202.637,-9.766,0
1505860756.865,-233.398,145.020,400.879,-221.191,15.137,0
1505860756.869,-247.559,177.246,399.902,-239.746,-13.672,0
1505860756.873,-263.672,146.484,315.430,-250.488,-19.043,0
1505860756.877,-226.562,144.043,308.105,-209.961,15.137,0
1505860756.881,-265.625,147.949,404.297,-262.695,23.926,0
1505860756.885,-318.359,114.746,392.090,-324.219,24.902,0
1505860756.889,-297.852,132.812,335.938,-299.316,20.996,0
1505860756.893,-303.711,52.246,336.426,-301.758,68.359,0
1505860756.897,-333.008,41.504,369.141,-337.402,124.512,0
1505860756.900,-367.676,162.598,357.910,-378.418,64.941,0
1505860756.904,-376.953,168.457,354.492,-397.949,60.547,0
1505860756.908,-368.164,161.133,349.609,-389.648,87.891,0
1505860756.912,-337.402,126.465,360.840,-354.492,61.035,0
1505860756.916,-399.414,105.469,307.617,-412.598,58.594,0
1505860756.920,-411.621,149.902,304.688,-421.875,55.176,0
1505860756.924,-335.938,149.414,366.211,-349.609,67.871,0
1505860756.928,-391.602,94.238,342.285,-406.250,60.059,0
1505860756.932,-417.969,117.676,269.531,-436.035,59.570,0
1505860756.936,-380.371,110.352,253.418,-405.762,93.750,0
1505860756.940,-371.094,98.633,335.449,-389.160,127.441,0
1505860756.943,-364.258,151.367,338.867,-377.930,123.535,0
1505860756.947,-383.301,148.926,282.227,-407.227,69.336,0
1505860756.951,-389.648,112.793,314.453,-417.969,92.285,0
1505860756.955,-395.508,99.609,297.363,-430.176,100.098,0
1505860756.959,-387.695,151.367,230.469,-417.969,61.523,0
1505860756.963,-374.512,136.230,269.531,-404.297,73.730,0
1505860756.967,-337.891,145.996,354.004,-376.953,108.398,0
1505860756.971,-328.125,175.293,295.898,-356.934,112.793,0
1505860756.975,-305.664,172.363,321.289,-326.660,95.215,0
1505860756.979,-297.852,127.930,328.125,-324.219,94.727,0
1505860756.983,-367.676,120.117,234.863,-398.926,101.562,0
1505860756.986,-312.500,189.453,271.973,-352.051,152.344,0
1505860756.990,-261.719,162.109,282.227,-301.270,128.906,0
1505860756.994,-315.430,105.469,240.723,-350.098,53.711,0
1505860756.998,-336.914,117.188,243.652,-373.535,113.281,0
1505860757.002,-284.668,138.672,308.105,-323.242,151.855,0
1505860757.006,-251.953,179.688,293.457,-286.621,86.914,0
1505860757.010,-247.559,191.895,268.555,-274.902,62.988,0
1505860757.014,-217.285,167.969,314.453,-232.422,109.863,0
1505860757.018,-249.023,129.395,318.359,-260.742,126.953,0
1505860757.022,-279.297,117.188,276.855,-299.805,135.254,0
1505860757.025,-239.258,147.949,258.789,-253.906,150.879,0
1505860757.029,-198.242,154.297,236.328,-203.613,127.930,0
1505860757.033,-170.898,141.113,277.832,-165.527,146.973,0
1505860757.037,-162.598,191.895,354.492,-158.203,140.137,0
1505860757.041,-157.227,169.922,366.699,-156.250,109.375,0
1505860757.045,-170.898,149.414,276.367,-166.016,129.883,0
1505860757.049,-188.965,215.332,242.188,-187.500,95.215,0
1505860757.053,-171.387,174.316,255.371,-169.434,97.656,0
1505860757.057,-129.395,162.598,289.062,-131.348,128.906,0
1505860757.061,-61.523,238.281,266.602,-66.895,120.605,0
1505860757.065,-67.383,216.309,303.711,-70.312,94.727,0
1505860757.068,-142.090,151.367,283.203,-150.391,125.488,0
1505860757.072,-133.789,153.809,222.656,-153.320,148.926,0
1505860757.076,-83.496,147.461,270.996,-109.863,99.609,0
1505860757.080,-68.359,168.945,264.160,-91.797,124.512,0
1505860757.084,-78.125,134.277,194.336,-102.539,152.344,0
1505860757.088,-50.781,161.133,210.449,-69.336,136.719,0
1505860757.092,-54.199,202.637,270.508,-71.289,118.164,0
1505860757.096,-67.871,192.383,271.973,-88.379,85.449,0
1505860757.100,-17.090,171.875,291.016,-40.039,90.820,0
1505860757.104,0.488,181.641,298.340,-22.949,99.609,0
1505860757.108,-37.109,222.168,235.840,-51.758,83.984,0
1505860757.111,-27.832,218.262,203.613,-46.387,89.844,0
1505860757.115,-11.719,230.469,254.395,-28.320,106.934,0
1505860757.119,-12.695,214.355,270.996,-29.297,107.910,0
1505860757.123,-0.977,184.082,233.887,-27.344,109.375,0
1505860757.127,-5.859,184.082,231.934,-27.344,119.629,0
1505860757.131,-16.602,197.754,208.008,-38.086,132.324,0
1505860757.135,-27.832,157.227,192.383,-49.316,126.953,0
1505860757.139,34.668,149.902,207.031,12.695,111.816,0
1505860757.143,56.152,218.750,258.301,38.086,114.258,0
1505860757.147,-20.996,204.102,182.617,-36.621,137.695,0
1505860757.150,15.625,195.312,157.715,5.371,143.555,0
1505860757.154,26.855,204.102,241.211,16.113,98.633,0
1505860757.158,-20.996,137.695,203.613,-38.086,76.660,0
1505860757.162,9.766,184.082,182.129,6.348,96.680,0
1505860757.166,-1.465,196.289,205.566,2.441,121.582,0
1505860757.170,-29.785,159.668,206.055,-25.879,113.770,0
1505860757.174,9.277,196.777,165.527,12.207,121.582,0
1505860757.178,29.785,198.730,184.082,34.180,174.805,0
1505860757.182,58.594,187.012,214.355,65.430,158.203,0
1505860757.186,59.082,193.359,187.988,64.453,73.730,0
1505860757.190,-6.836,119.629,97.168,-6.348,43.945,0
1505860757.193,-6.348,91.309,194.824,4.883,71.289,0
1505860757.197,49.316,202.148,269.531,60.059,75.684,0
1505860757.201,83.008,283.203,255.859,83.496,92.285,0
1505860757.205,107.422,279.297,245.117,111.328,90.332,0
1505860757.209,161.621,285.156,279.297,163.574,82.031,0
1505860757.213,161.621,271.484,292.969,156.738,95.703,0
1505860757.217,153.320,266.113,264.648,134.766,75.195,0
1505860757.221,181.641,272.949,262.695,152.832,74.707,0
1505860757.225,157.227,270.508,242.676,134.766,112.793,0
1505860757.229,145.508,281.250,251.465,128.906,102.539,0
1505860757.233,165.039,293.457,271.484,133.301,47.363,0
1505860757.236,168.945,256.348,280.762,125.977,54.199,0
1505860757.240,131.348,235.352,221.680,94.238,102.051,0
1505860757.244,107.422,255.371,180.176,75.195,85.449,0
1505860757.248,129.395,230.469,242.676,104.004,70.312,0
1505860757.252,148.926,243.164,263.184,120.605,83.496,0
1505860757.256,113.281,245.605,200.195,84.473,86.426,0
1505860757.260,117.676,257.324,180.176,96.191,109.375,0
1505860757.264,116.699,253.418,181.641,89.355,96.191,0
1505860757.268,85.938,187.012,167.969,50.781,113.281,0
1505860757.272,92.285,183.105,109.863,62.988,155.762,0
1505860757.275,86.914,169.922,187.500,63.477,102.539,0
1505860757.279,67.871,180.664,223.633,38.574,64.453,0
1505860757.283,66.406,233.398,165.039,31.250,74.219,0
1505860757.287,84.961,220.215,182.129,58.105,60.547,0
1505860757.291,103.516,228.516,174.805,78.125,36.621,0
1505860757.295,88.379,200.684,118.652,71.777,46.875,0
1505860757.299,59.082,121.582,75.195,44.434,69.824,0
1505860757.303,85.938,118.652,133.789,65.918,62.988,0
1505860757.307,106.934,178.223,190.918,96.191,72.266,0
1505860757.311,43.457,132.324,95.703,39.551,60.547,0
1505860757.315,11.719,131.348,75.195,12.207,79.590,0
1505860757.318,65.430,191.895,85.449,65.918,118.164,0
1505860757.322,101.562,125.488,117.188,106.445,62.012,0
1505860757.326,43.945,108.398,125.488,48.828,23.438,0
1505860757.330,31.738,183.105,75.195,33.203,76.172,0
1505860757.334,71.777,197.266,131.348,69.336,81.055,0
1505860757.338,62.012,145.508,111.328,57.129,57.129,0
1505860757.342,66.895,122.070,130.859,69.336,72.266,0
1505860757.346,42.969,160.645,97.168,44.434,79.102,0
1505860757.350,-3.418,145.508,-4.883,0.488,52.246,0
1505860757.354,22.461,141.602,92.285,29.297,40.527,0
1505860757.358,20.996,127.441,122.070,26.855,46.387,0
1505860757.361,50.781,165.039,103.027,55.664,88.379,0
1505860757.365,51.758,186.523,55.176,53.223,71.777,0
1505860757.369,-11.719,98.633,43.457,-26.367,23.438,0
1505860757.373,-20.996,81.543,42.480,-42.480,75.195,0
1505860757.377,-1.465,125.000,-0.977,-18.555,92.773,0
1505860757.381,11.230,140.625,22.461,-2.441,80.566,0
1505860757.385,28.809,121.582,84.961,20.020,69.824,0
1505860757.389,29.785,95.215,85.449,28.320,63.965,0
1505860757.393,10.742,104.980,51.270,10.254,78.125,0
1505860757.397,15.137,123.535,58.105,6.348,76.172,0
1505860757.400,40.527,153.320,63.965,28.320,85.938,0
1505860757.404,55.176,142.578,53.711,41.504,89.844,0
1505860757.408,21.484,88.379,56.641,10.742,111.328,0
1505860757.412,8.301,132.812,40.039,-1.953,104.004,0
1505860757.416,25.391,161.621,24.414,3.906,82.031,0
1505860757.420,31.738,147.461,20.020,3.906,88.867,0
1505860757.424,39.062,144.531,49.805,13.184,57.617,0
1505860757.428,59.082,129.883,62.012,36.133,65.918,0
1505860757.432,47.852,102.539,21.973,26.367,92.285,0
1505860757.436,29.297,122.070,-19.043,12.207,75.684,0
1505860757.440,36.621,169.922,48.340,22.949,69.824,0
1505860757.443,21.973,114.258,48.828,6.348,65.430,0
1505860757.447,28.320,95.703,32.227,11.719,71.777,0
1505860757.451,43.945,125.000,83.496,22.949,70.801,0
1505860757.455,20.996,84.473,35.645,4.395,88.379,0
1505860757.459,47.852,95.703,21.484,43.945,88.379,0
1505860757.463,59.570,165.527,53.711,51.758,62.988,0
1505860757.467,5.371,148.438,62.988,-3.906,66.406,0
1505860757.471,-6.348,117.676,46.387,-3.418,26.367,0
1505860757.475,-9.277,114.746,48.340,0.488,36.133,0
1505860757.479,-2.441,102.051,20.996,7.812,65.918,0
1505860757.483,48.340,121.094,35.156,55.664,44.922,0
1505860757.486,60.547,145.508,63.477,58.594,51.270,0
1505860757.490,-9.277,114.258,35.645,-9.766,58.105,0
1505860757.494,-15.137,90.332,1.953,-12.207,69.336,0
1505860757.498,3.418,98.145,-26.855,1.465,68.359,0
1505860757.502,23.438,62.012,27.344,12.695,84.473,0
1505860757.506,54.688,74.219,65.430,47.363,97.656,0
1505860757.510,30.762,127.441,49.805,30.762,92.285,0
1505860757.514,-5.371,52.734,21.484,-8.301,77.148,0
1505860757.518,-2.441,82.520,-11.230,-3.418,43.457,0
1505860757.522,43.457,141.602,28.809,38.574,50.781,0
1505860757.525,37.598,96.191,16.113,34.668,83.984,0
1505860757.529,33.203,78.613,35.156,24.414,69.336,0
1505860757.533,96.680,120.117,39.062,83.984,60.059,0
1505860757.537,63.965,103.516,28.320,45.898,69.336,0
1505860757.541,-24.414,81.055,21.484,-41.016,54.199,0
1505860757.545,4.883,52.246,23.438,4.883,63.477,0
1505860757.549,41.992,47.852,31.738,41.992,96.680,0
1505860757.553,24.414,129.883,3.906,11.230,105.957,0
1505860757.557,-9.766,101.074,12.695,-23.926,104.492,0
1505860757.561,24.414,101.074,-0.488,17.578,49.805,0
1505860757.565,46.875,121.582,-15.625,41.504,15.137,0
1505860757.568,1.953,73.730,28.809,-2.441,54.199,0
1505860757.572,5.371,67.383,30.762,0.977,64.453,0
1505860757.576,20.508,89.355,19.531,8.301,38.086,0
1505860757.580,20.996,63.477,26.367,0.488,45.898,0
1505860757.584,15.137,26.855,19.531,0.000,59.082,0
1505860757.588,0.488,80.078,-11.719,-4.395,62.500,0
1505860757.592,14.648,115.723,-52.734,17.090,87.402,0
1505860757.596,41.992,59.082,52.246,40.527,92.773,0
1505860757.600,28.809,38.574,46.387,14.160,87.402,0
1505860757.604,6.348,100.586,-32.227,-8.789,78.613,0
1505860757.608,-8.301,62.500,11.230,-13.184,43.457,0
1505860757.611,-7.812,26.367,22.461,-11.230,40.039,0
1505860757.615,32.227,65.918,-17.578,18.555,70.312,0
1505860757.619,27.832,60.059,22.949,10.254,46.387,0
1505860757.623,11.230,20.996,68.848,1.953,25.391,0
1505860757.627,13.184,37.598,-19.531,2.930,55.176,0
1505860757.631,12.207,26.367,-42.969,-5.371,74.707,0
1505860757.635,36.621,72.754,8.301,16.602,82.031,0
1505860757.639,52.246,135.742,37.109,27.832,62.012,0
1505860757.643,25.391,67.871,-22.949,4.395,81.543,0
1505860757.647,11.719,72.266,-31.250,-1.953,97.656,0
1505860757.650,35.156,53.711,20.020,19.043,36.133,0
1505860757.654,36.621,-8.789,-7.812,20.508,11.719,0
1505860757.658,42.969,59.082,-59.570,29.785,47.363,0
1505860757.662,52.734,129.883,-46.387,41.992,46.875,0
1505860757.666,41.504,100.586,11.719,30.273,40.039,0
1505860757.670,43.945,51.758,-19.531,29.785,62.012,0
1505860757.674,40.527,52.734,-24.414,30.762,78.613,0
1505860757.678,50.781,62.500,-10.742,38.086,103.027,0
1505860757.682,69.824,5.371,-24.414,49.805,81.543,0
1505860757.686,47.363,20.996,-20.996,27.344,70.312,0
1505860757.690,42.969,79.590,-41.504,40.527,115.723,0
1505860757.693,53.223,94.238,-45.898,63.477,109.863,0
1505860757.697,32.227,79.590,-7.812,28.809,48.340,0
1505860757.701,12.695,-0.488,-21.973,0.977,51.270,0
1505860757.705,51.758,16.113,-5.371,39.551,81.543,0
1505860757.709,54.199,92.773,0.488,45.898,67.871,0
1505860757.713,24.414,86.914,-22.949,13.672,47.363,0
1505860757.717,22.949,55.664,-18.555,13.184,59.082,0
1505860757.721,40.527,68.359,-25.391,26.367,70.801,0
1505860757.725,56.641,65.430,47.852,37.109,71.777,0
1505860757.729,24.414,22.461,46.387,17.578,69.336,0
1505860757.733,22.461,58.105,5.371,11.230,59.082,0
1505860757.736,17.090,90.332,4.883,-0.488,82.031,0
1505860757.740,11.230,71.777,17.090,-5.371,99.609,0
1505860757.744,21.973,74.707,2.441,-3.418,42.480,0
1505860757.748,14.160,94.238,2.441,-16.113,38.574,0
1505860757.752,8.301,53.711,1.465,-22.949,75.684,0
1505860757.756,-4.883,27.344,-57.617,-35.645,41.992,0
1505860757.760,-4.395,86.426,-11.230,-43.945,21.973,0
1505860757.764,0.000,112.793,13.184,-52.734,52.246,0
1505860757.768,-18.066,59.570,-83.984,-80.078,75.195,0
1505860757.772,7.812,97.168,-53.711,-55.664,45.898,0
1505860757.775,17.578,125.488,29.785,-31.738,58.594,0
1505860757.779,-22.461,70.312,-38.086,-45.410,80.078,0
1505860757.783,-14.648,67.383,-22.461,-29.297,66.406,0
1505860757.787,-11.719,31.250,7.324,-25.391,80.566,0
1505860757.791,-1.465,49.316,10.254,-7.324,73.730,0
1505860757.795,29.785,83.984,45.410,16.113,79.590,0
1505860757.799,4.883,39.062,23.438,-16.602,66.406,0
1505860757.803,4.395,57.129,-36.621,-14.648,29.785,0
1505860757.807,32.715,80.566,-10.254,14.160,61.523,0
1505860757.811,20.996,57.129,-32.715,-2.441,75.195,0
1505860757.815,12.695,71.777,-42.969,-7.324,67.383,0
1505860757.818,7.324,79.102,16.602,-11.719,75.195,0
1505860757.822,4.395,54.199,-31.250,-15.625,34.180,0
1505860757.826,26.367,40.527,-39.062,6.836,36.133,0
1505860757.830,35.645,66.895,15.625,13.672,91.309,0
1505860757.834,13.672,81.543,24.414,-7.812,87.891,0
1505860757.838,47.852,44.434,-25.879,27.344,61.523,0
1505860757.842,86.426,35.156,-7.324,62.012,60.059,0
1505860757.846,55.664,108.887,42.480,36.133,30.273,0
1505860757.850,43.945,90.332,9.766,23.926,24.414,0
1505860757.854,53.223,81.055,11.719,31.250,58.105,0
1505860757.858,78.613,66.406,19.531,65.430,69.336,0
1505860757.861,63.965,23.926,29.785,54.199,36.133,0
1505860757.865,49.316,37.598,-0.977,31.250,35.156,0
1505860757.869,36.133,77.148,-62.988,24.414,47.852,0
1505860757.873,-16.602,90.332,8.789,-22.461,45.410,0
1505860757.877,14.648,100.098,35.645,5.859,62.500,0
1505860757.881,25.879,114.258,10.254,18.066,90.820,0
1505860757.885,23.926,81.543,12.695,11.230,78.613,0
1505860757.889,10.254,6.836,6.836,0.488,40.039,0
1505860757.893,-14.648,-0.488,-37.598,-26.367,9.277,0
1505860757.897,7.324,79.590,-0.977,-9.766,31.738,0
1505860757.900,-15.625,75.684,6.836,-30.273,70.801,0
1505860757.904,-42.969,51.270,-37.598,-58.594,39.062,0
1505860757.908,-36.133,86.914,-20.508,-52.246,17.578,0
1505860757.912,-24.902,64.941,-18.555,-39.062,30.762,0
1505860757.916,4.395,19.531,-56.152,-6.348,48.340,0
1505860757.920,-5.371,7.324,-18.555,-9.766,50.781,0
1505860757.924,-47.852,18.555,10.742,-51.270,45.898,0
1505860757.928,-17.090,56.641,25.391,-25.391,62.988,0
1505860757.932,9.766,57.617,24.902,14.160,77.148,0
1505860757.936,-10.254,89.844,-29.785,-7.324,22.461,0
1505860757.940,-4.883,76.660,1.953,-13.184,22.461,0
1505860757.943,30.762,69.336,44.434,20.020,62.012,0
1505860757.947,23.926,38.086,39.062,7.324,62.500,0
1505860757.951,20.508,17.090,-33.691,-1.465,77.148,0
1505860757.955,30.762,103.027,16.113,21.484,57.617,0
1505860757.959,13.184,48.828,34.180,7.324,33.203,0
1505860757.963,-5.371,37.109,-36.133,-21.973,46.387,0
1505860757.967,7.812,92.285,9.766,-4.395,69.824,0
1505860757.971,13.184,65.430,9.277,5.859,81.543,0
1505860757.975,12.207,55.176,-0.977,5.859,82.031,0
1505860757.979,32.227,91.309,5.859,34.180,39.551,0
1505860757.983,43.457,68.848,-23.438,44.434,0.488,0
1505860757.986,49.316,68.848,21.973,54.199,50.293,0
1505860757.990,20.508,69.824,6.836,28.320,76.172,0
1505860757.994,5.859,30.273,-9.766,7.812,46.387,0
1505860757.998,9.277,48.340,17.090,16.602,32.715,0
1505860758.002,-2.930,45.898,0.977,20.508,44.434,0
1505860758.006,13.184,29.297,0.977,35.645,62.988,0
1505860758.010,42.969,7.812,14.160,59.082,57.129,0
1505860758.014,37.109,43.945,-3.418,53.223,47.363,0
1505860758.018,17.578,96.191,8.301,28.320,70.801,0
1505860758.022,5.859,67.871,-2.441,11.719,104.004,0
1505860758.025,31.738,38.574,31.250,29.297,62.012,0
1505860758.029,38.574,22.949,65.430,32.715,29.785,0
1505860758.033,22.949,74.219,44.922,20.996,55.176,0
1505860758.037,29.785,80.078,53.223,32.227,62.988,0
1505860758.041,19.531,86.914,9.277,20.020,24.902,0
1505860758.045,-28.809,58.594,-25.391,-37.598,19.043,0
1505860758.049,-32.715,67.871,-63.477,-49.316,36.133,0
1505860758.053,17.578,50.293,30.762,-0.977,29.297,0
1505860758.057,-9.766,-3.906,62.012,-19.531,22.461,0
1505860758.061,-29.785,77.148,-14.160,-30.762,34.180,0
1505860758.065,23.438,91.309,61.035,9.766,55.664,0
1505860758.068,-26.855,34.668,-21.484,-39.062,74.707,0
1505860758.072,-68.359,55.664,-92.773,-65.918,28.320,0
1505860758.076,-19.043,84.473,-88.867,-24.414,15.625,0
1505860758.080,8.789,41.016,-35.645,-7.324,49.805,0
1505860758.084,27.832,54.199,88.867,14.648,61.523,0
1505860758.088,4.883,81.055,54.688,-4.395,67.383,0
1505860758.092,-2.441,57.617,43.945,-16.113,52.246,0
1505860758.096,11.230,18.555,29.785,1.465,56.641,0
1505860758.100,0.000,53.711,6.348,10.254,54.199,0
1505860758.104,13.672,62.988,-21.973,19.531,34.668,0
1505860758.108,30.273,40.527,-19.531,24.902,27.344,0
1505860758.111,20.508,107.910,30.762,16.113,53.711,0
1505860758.115,9.766,102.051,6.836,7.324,52.734,0
1505860758.119,12.207,52.246,-4.883,18.555,23.438,0
1505860758.123,28.320,51.758,27.832,33.691,45.898,0
1505860758.127,37.109,62.500,24.902,37.598,55.176,0
1505860758.131,24.902,69.336,-38.574,30.273,37.598,0
1505860758.135,33.203,54.199,-41.016,40.039,50.293,0
1505860758.139,22.949,65.430,20.020,23.438,52.246,0
1505860758.143,35.645,88.867,45.898,33.691,41.992,0
1505860758.147,64.453,70.801,43.945,57.617,50.781,0
1505860758.150,53.223,15.137,20.996,41.504,65.430,0
1505860758.154,76.172,31.738,3.418,70.801,64.453,0
1505860758.158,43.457,92.285,-4.883,36.621,66.406,0
1505860758.162,-7.324,119.629,-4.395,-19.531,57.617,0
1505860758.166,19.043,96.191,-56.152,2.930,36.621,0
1505860758.170,32.715,-4.395,-6.836,14.648,51.758,0
1505860758.174,30.762,6.348,44.434,5.371,28.320,0
1505860758.178,28.320,119.141,-2.441,0.977,42.480,0
1505860758.182,14.160,109.375,36.621,-1.953,73.242,0
1505860758.186,26.367,47.363,4.883,14.160,51.270,0
1505860758.190,28.809,35.645,-9.277,15.137,43.457,0
1505860758.193,23.926,65.918,17.090,11.719,52.246,0
1505860758.197,41.016,47.852,1.465,29.297,55.664,0
1505860758.201,18.066,30.273,33.691,0.000,58.594,0
1505860758.205,2.930,75.684,40.527,-23.926,62.012,0
1505860758.209,5.859,50.293,-1.953,-21.973,74.219,0
1505860758.213,0.000,35.156,9.766,-21.973,74.707,0
1505860758.217,1.465,47.363,10.254,-16.602,59.570,0
1505860758.221,25.391,27.832,45.898,5.371,26.855,0
1505860758.225,-4.395,13.184,12.207,-21.973,7.812,0
1505860758.229,-19.043,48.828,-26.855,-33.203,34.668,0
1505860758.233,-5.371,62.012,15.625,-16.113,39.062,0
1505860758.236,-15.137,23.438,13.184,-35.156,27.832,0
1505860758.240,-24.414,46.875,30.762,-55.176,42.480,0
1505860758.244,-40.039,78.613,20.508,-65.918,39.551,0
1505860758.248,-27.344,27.344,8.789,-51.270,46.875,0
1505860758.252,-16.602,56.152,-0.977,-53.711,72.754,0
1505860758.256,-63.965,43.457,20.508,-103.516,80.566,0
1505860758.260,-107.422,45.898,11.230,-145.996,64.453,0
1505860758.264,-92.773,37.598,-1.953,-138.184,45.898,0
1505860758.268,-70.801,-7.812,25.879,-111.816,26.367,0
1505860758.272,-69.824,49.805,26.367,-107.422,39.551,0
1505860758.275,-64.941,114.746,-2.930,-108.887,61.035,0
1505860758.279,-62.012,105.957,-13.672,-105.469,49.805,0
1505860758.283,-62.012,65.430,-52.246,-114.746,33.203,0
1505860758.287,-47.363,87.891,-12.207,-109.863,36.133,0
1505860758.291,-26.367,133.301,45.898,-95.703,33.203,0
1505860758.295,-25.391,104.492,0.000,-95.215,24.414,0
1505860758.299,7.324,78.125,14.648,-55.664,62.012,0
1505860758.303,-26.855,93.262,-3.418,-89.844,78.613,0
1505860758.307,-45.898,91.797,-9.277,-105.469,60.547,0
1505860758.311,-1.953,98.633,1.953,-53.711,31.738,0
1505860758.315,15.137,109.375,17.578,-39.551,5.371,0
1505860758.318,10.742,93.750,15.625,-52.246,28.320,0
1505860758.322,36.133,60.059,-1.953,-31.738,46.875,0
1505860758.326,34.180,77.637,-18.555,-22.949,37.598,0
1505860758.330,36.621,115.723,44.922,-7.812,23.926,0
1505860758.334,23.926,64.941,30.273,-14.648,44.922,0
1505860758.338,20.020,62.500,-24.414,-21.973,53.223,0
1505860758.342,41.016,86.426,25.391,-3.906,42.969,0
1505860758.346,30.762,75.195,-1.953,-8.789,67.383,0
1505860758.350,41.992,71.777,-24.902,8.301,101.562,0
1505860758.354,34.668,73.242,33.691,7.812,62.988,0
1505860758.358,24.902,112.793,48.828,-8.301,0.000,0
1505860758.361,14.160,28.809,11.230,-16.113,39.551,0
1505860758.365,22.949,36.133,4.395,0.000,69.336,0
1505860758.369,31.738,94.727,22.949,5.371,35.645,0
1505860758.373,21.484,26.855,7.812,2.441,43.945,0
1505860758.377,35.645,70.312,11.719,18.555,72.266,0
1505860758.381,18.066,103.516,-20.020,-9.766,54.688,0
1505860758.385,12.207,72.266,-19.043,-21.973,43.457,0
1505860758.389,47.363,95.215,62.988,19.531,33.691,0
1505860758.393,41.016,69.336,60.059,11.719,41.016,0
1505860758.397,35.645,46.387,-0.977,-2.930,62.012,0
1505860758.400,71.777,60.547,28.809,39.062,55.176,0
1505860758.404,58.105,79.590,58.594,28.809,27.832,0
1505860758.408,28.320,88.867,26.855,-13.184,34.668,0
1505860758.412,85.938,77.148,1.465,41.016,57.129,0
1505860758.416,111.328,85.938,38.574,69.336,52.246,0
1505860758.420,60.547,123.047,73.242,11.719,53.711,0
1505860758.424,68.848,125.488,61.523,18.555,46.387,0
1505860758.428,79.102,52.246,60.547,32.715,44.434,0
1505860758.432,64.453,62.012,59.570,17.578,40.039,0
1505860758.436,68.359,95.215,60.547,23.438,46.387,0
1505860758.440,80.078,113.770,59.082,40.527,78.613,0
1505860758.443,88.379,99.609,34.180,56.152,101.562,0
1505860758.447,117.676,48.340,62.012,80.566,59.082,0
1505860758.451,79.590,38.574,48.340,43.945,33.691,0
1505860758.455,57.617,107.422,-14.648,26.855,60.547,0
1505860758.459,99.121,113.281,20.020,67.871,58.105,0
1505860758.463,64.453,78.125,45.898,41.016,32.227,0
1505860758.467,42.480,105.957,52.246,24.902,45.898,0
1505860758.471,69.336,94.238,48.340,50.781,65.918,0
1505860758.475,106.445,46.387,75.195,85.449,75.684,0
1505860758.479,86.914,35.645,68.848,67.871,64.941,0
1505860758.483,49.805,36.621,43.945,34.668,50.781,0
1505860758.486,74.707,33.203,68.359,61.035,92.773,0
1505860758.490,58.594,69.824,47.363,57.617,102.539,0
1505860758.494,46.387,101.562,36.133,41.504,60.059,0
1505860758.498,71.777,82.520,47.852,53.711,71.777,0
1505860758.502,76.660,62.012,52.734,66.895,65.918,0
1505860758.506,60.059,58.105,69.824,51.758,43.945,0
1505860758.510,72.266,49.805,76.172,63.477,30.273,0
1505860758.514,62.012,27.344,35.156,55.664,59.082,0
1505860758.518,46.387,51.758,69.336,31.250,67.871,0
1505860758.522,47.363,78.125,63.965,32.227,32.715,0
1505860758.525,61.523,55.664,18.066,45.410,55.176,0
1505860758.529,52.246,34.180,1.953,32.227,51.270,0
1505860758.533,21.484,3.418,20.508,4.883,61.035,0
1505860758.537,51.270,12.695,39.062,28.320,69.336,0
1505860758.541,47.363,62.988,29.297,16.113,30.273,0
1505860758.545,16.113,63.477,17.578,-11.719,52.246,0
1505860758.549,42.480,90.332,43.945,14.648,37.598,0
1505860758.553,49.805,45.898,3.418,20.508,19.531,0
1505860758.557,35.156,24.902,10.742,9.766,60.547,0
1505860758.561,46.875,88.379,10.742,21.973,72.754,0
1505860758.565,37.598,72.754,-1.953,5.371,22.461,0
1505860758.568,29.785,50.781,9.277,-5.859,6.348,0
1505860758.572,6.348,40.039,-21.973,-22.949,33.203,0
