timestamps,TP9,AF7,AF8,TP10,Right AUX,Marker0
1484987567.653,-3.906,13.672,38.086,37.598,-17.090,0
1484987567.657,5.371,36.133,40.527,35.645,19.531,0
1484987567.660,3.906,21.973,42.480,39.062,6.348,0
1484987567.664,1.953,21.973,41.992,39.062,15.625,0
1484987567.668,17.090,37.109,42.480,43.457,31.738,0
1484987567.672,21.484,41.504,40.527,43.457,4.395,0
1484987567.676,9.766,32.227,47.363,30.762,4.395,0
1484987567.680,22.461,27.832,37.109,44.922,-9.277,0
1484987567.684,19.043,21.973,40.039,52.246,-17.090,0
1484987567.688,7.324,22.461,46.387,47.852,34.180,0
1484987567.692,13.672,28.809,30.273,52.734,15.625,0
1484987567.696,16.602,17.090,33.691,51.270,12.695,0
1484987567.700,16.113,-5.371,45.410,53.223,28.809,0
1484987567.703,22.949,21.484,41.016,45.898,41.016,0
1484987567.707,32.227,41.504,39.062,59.082,6.836,0
1484987567.711,28.809,28.320,41.992,59.082,-18.066,0
1484987567.715,11.719,41.016,42.480,29.297,-8.301,0
1484987567.719,16.113,50.293,39.062,27.832,-0.977,0
1484987567.723,22.949,44.434,34.180,32.227,-2.930,0
1484987567.727,38.574,27.344,47.852,59.082,-37.109,0
1484987567.731,56.152,20.996,56.152,71.777,6.836,0
1484987567.735,45.898,41.504,47.363,57.129,32.227,0
1484987567.739,36.621,69.824,44.434,61.523,24.414,0
1484987567.743,32.227,70.801,54.199,58.105,10.254,0
1484987567.746,32.715,54.688,50.293,47.363,1.465,0
1484987567.750,38.086,42.480,36.133,55.176,23.438,0
1484987567.754,39.551,31.738,45.410,67.383,17.578,0
1484987567.758,34.180,29.785,51.270,63.477,28.809,0
1484987567.762,23.926,52.246,49.316,50.781,20.996,0
1484987567.766,28.320,57.129,47.852,41.016,-5.859,0
1484987567.770,22.949,29.785,31.738,39.062,-24.902,0
1484987567.774,19.043,17.578,33.203,41.504,-4.883,0
1484987567.778,31.738,36.621,45.410,50.781,11.230,0
1484987567.782,32.227,40.039,29.785,48.340,17.578,0
1484987567.785,21.484,28.320,35.156,37.598,20.508,0
1484987567.789,23.926,52.246,43.945,54.688,-1.465,0
1484987567.793,39.062,62.012,38.574,63.477,22.461,0
1484987567.797,35.645,44.922,51.270,53.223,33.203,0
1484987567.801,46.387,31.250,65.430,62.500,13.672,0
1484987567.805,57.617,48.828,74.707,69.336,42.480,0
1484987567.809,47.852,75.684,58.105,72.266,59.082,0
1484987567.813,32.715,59.570,33.691,63.965,27.344,0
1484987567.817,29.785,42.480,38.574,51.270,-3.906,0
1484987567.821,32.715,48.340,44.434,50.293,-2.441,0
1484987567.825,32.227,41.016,41.016,51.270,44.434,0
1484987567.828,38.574,42.969,38.086,56.641,33.203,0
1484987567.832,35.156,39.551,52.246,56.152,1.465,0
1484987567.836,45.410,19.531,53.711,60.547,29.297,0
1484987567.840,36.133,-1.465,43.457,46.387,44.922,0
1484987567.844,22.461,5.859,38.086,38.086,10.742,0
1484987567.848,32.715,46.387,43.457,66.406,-15.625,0
1484987567.852,39.551,75.684,48.828,65.918,36.133,0
1484987567.856,45.898,83.008,59.570,52.734,25.879,0
1484987567.860,40.527,47.363,66.406,64.453,-12.207,0
1484987567.864,31.250,31.738,61.035,66.406,0.977,0
1484987567.868,19.531,48.340,42.480,53.711,21.973,0
1484987567.871,16.113,36.621,30.762,49.805,34.180,0
1484987567.875,19.043,24.414,36.621,44.434,13.184,0
1484987567.879,14.160,25.391,25.879,33.203,4.883,0
1484987567.883,13.672,23.926,20.996,33.203,-1.465,0
1484987567.887,13.672,23.438,30.273,40.039,10.742,0
1484987567.891,14.648,39.551,39.551,41.992,0.977,0
1484987567.895,32.227,44.922,43.945,43.457,23.926,0
1484987567.899,45.898,8.789,40.527,42.969,39.062,0
1484987567.903,21.484,0.000,29.785,34.180,-8.301,0
1484987567.907,15.137,41.992,51.758,36.133,14.648,0
1484987567.910,30.762,65.430,52.246,45.410,14.160,0
1484987567.914,26.855,56.641,31.738,47.852,14.160,0
1484987567.918,33.691,42.969,39.062,53.223,40.527,0
1484987567.922,43.945,28.320,45.410,47.363,18.555,0
1484987567.926,36.133,22.461,53.711,41.504,20.508,0
1484987567.930,33.691,35.645,31.738,52.734,17.578,0
1484987567.934,22.461,41.016,46.387,34.180,9.277,0
1484987567.938,23.926,35.645,56.152,41.016,9.766,0
1484987567.942,46.387,21.973,42.969,67.383,8.301,0
1484987567.946,53.711,48.340,50.293,65.430,16.113,0
1484987567.950,37.598,83.984,41.992,47.363,8.301,0
1484987567.953,40.527,79.590,51.270,49.805,6.348,0
1484987567.957,39.062,58.594,66.406,61.035,29.785,0
1484987567.961,33.691,41.504,49.805,44.434,19.531,0
1484987567.965,36.133,51.270,24.414,42.969,-13.184,0
1484987567.969,27.344,48.340,31.250,43.945,2.930,0
1484987567.973,25.391,22.949,39.062,35.645,52.246,0
1484987567.977,38.086,2.930,34.180,41.016,21.973,0
1484987567.981,54.199,18.066,51.270,47.852,-3.418,0
1484987567.985,54.199,53.711,63.477,58.105,35.645,0
1484987567.989,61.035,64.453,56.641,62.500,38.574,0
1484987567.993,54.199,66.406,55.176,50.293,20.020,0
1484987567.996,37.109,83.496,52.734,43.457,1.953,0
1484987568.000,42.969,73.730,58.594,56.641,-6.348,0
1484987568.004,62.988,39.062,63.477,76.172,4.883,0
1484987568.008,65.430,29.785,65.918,73.242,-11.230,0
1484987568.012,50.293,53.711,64.941,59.570,-42.969,0
1484987568.016,57.129,68.359,77.148,78.125,8.301,0
1484987568.020,75.195,78.125,88.379,93.750,38.086,0
1484987568.024,80.078,71.777,89.844,82.031,15.625,0
1484987568.028,85.449,71.777,76.660,84.473,0.488,0
1484987568.032,87.402,87.891,62.012,95.215,10.742,0
1484987568.035,82.520,87.402,84.961,93.750,25.879,0
1484987568.039,96.191,84.961,94.727,98.633,45.410,0
1484987568.043,95.703,52.734,83.984,87.891,47.363,0
1484987568.047,63.965,34.180,73.730,67.871,21.973,0
1484987568.051,36.621,66.406,54.199,61.523,44.434,0
1484987568.055,22.949,59.570,35.645,36.133,25.879,0
1484987568.059,4.883,7.324,24.902,21.484,-45.410,0
1484987568.063,4.395,-2.441,17.090,26.855,-3.418,0
1484987568.067,5.859,-3.418,16.602,16.113,34.668,0
1484987568.071,-7.324,10.742,16.602,9.277,30.762,0
1484987568.075,6.836,28.809,5.859,12.207,49.316,0
1484987568.078,20.996,39.062,10.254,18.066,65.430,0
1484987568.082,18.066,38.574,24.414,25.879,17.578,0
1484987568.086,21.484,9.766,43.457,12.695,-8.301,0
1484987568.090,34.668,-23.438,35.156,20.020,34.668,0
1484987568.094,34.180,-18.555,22.461,25.879,14.648,0
1484987568.098,31.738,26.367,22.949,24.414,-7.324,0
1484987568.102,21.484,50.781,4.395,26.855,-6.836,0
1484987568.106,12.207,32.715,16.113,10.742,0.977,0
1484987568.110,10.742,17.090,31.738,31.738,-3.906,0
1484987568.114,12.695,21.973,23.926,47.363,-9.766,0
1484987568.118,7.324,22.949,25.391,37.598,38.574,0
1484987568.121,8.789,35.645,28.809,44.434,35.645,0
1484987568.125,30.273,22.949,45.410,49.805,41.992,0
1484987568.129,20.020,8.301,43.945,44.922,17.578,0
1484987568.133,3.418,30.762,40.527,30.762,-21.484,0
1484987568.137,4.883,39.062,50.781,19.531,9.766,1
1484987568.141,9.766,43.457,27.832,41.016,22.949,0
1484987568.145,11.719,36.133,26.855,45.410,18.066,0
1484987568.149,23.438,34.180,37.109,35.645,9.277,0
1484987568.153,29.297,41.504,40.527,29.297,13.672,0
1484987568.157,22.461,46.387,35.156,26.855,35.156,0
1484987568.160,25.391,48.828,32.227,42.969,-13.672,0
1484987568.164,26.855,15.137,41.016,50.781,-6.348,0
1484987568.168,14.648,-3.418,43.945,39.062,46.875,0
1484987568.172,13.672,16.602,44.434,40.527,12.207,0
1484987568.176,2.930,41.504,38.574,36.621,11.230,0
1484987568.180,13.672,45.410,39.551,31.738,26.855,0
1484987568.184,20.020,23.926,35.645,36.621,22.461,0
1484987568.188,6.348,6.348,28.320,36.621,-8.789,0
1484987568.192,18.555,17.090,27.832,41.992,-59.082,0
1484987568.196,32.227,36.621,34.180,44.434,-37.598,0
1484987568.200,39.062,36.621,40.527,48.340,30.273,0
1484987568.203,40.527,16.602,50.781,54.199,1.465,0
1484987568.207,34.180,11.230,49.316,53.711,-9.766,0
1484987568.211,26.367,29.297,39.551,60.547,44.434,0
1484987568.215,17.090,44.922,32.715,47.363,41.992,0
1484987568.219,13.184,34.180,45.410,30.273,7.812,0
1484987568.223,6.348,27.344,46.387,29.297,0.488,0
1484987568.227,-4.883,22.949,23.438,17.578,22.949,0
1484987568.231,12.207,3.418,25.391,21.973,3.906,0
1484987568.235,35.156,23.438,46.387,41.992,-28.809,0
1484987568.239,33.691,50.781,60.547,40.039,-25.391,0
1484987568.243,23.926,57.617,50.293,23.438,16.602,0
1484987568.246,28.809,56.152,41.504,37.109,22.949,0
1484987568.250,38.086,47.852,44.434,49.805,-11.230,0
1484987568.254,46.875,43.945,57.617,47.363,-2.930,0
1484987568.258,26.367,38.574,65.918,37.598,16.113,0
1484987568.262,22.461,44.922,50.293,53.223,-19.531,0
1484987568.266,35.645,50.781,56.641,53.223,-28.320,0
1484987568.270,44.434,55.664,68.359,50.293,13.672,0
1484987568.274,52.734,42.969,61.035,72.754,12.695,0
1484987568.278,42.969,15.625,58.105,62.988,-0.977,0
1484987568.282,37.109,15.137,53.223,44.922,5.371,0
1484987568.285,37.598,32.715,65.430,48.340,-8.301,0
1484987568.289,66.895,54.688,82.520,83.008,11.230,0
1484987568.293,61.523,53.711,80.566,70.801,12.695,0
1484987568.297,34.180,51.270,68.848,58.105,-2.930,0
1484987568.301,27.344,41.992,59.082,56.641,23.926,0
1484987568.305,27.832,36.133,79.102,48.340,37.109,0
1484987568.309,46.387,69.336,97.168,60.059,0.000,0
1484987568.313,50.781,78.613,76.172,79.102,-36.133,0
1484987568.317,40.527,35.156,64.941,73.242,25.391,0
1484987568.321,31.738,8.789,51.758,49.316,48.828,0
1484987568.325,0.488,26.367,44.434,26.367,-4.883,0
1484987568.328,1.465,29.785,41.504,29.297,-32.227,0
1484987568.332,34.180,17.090,40.039,45.898,2.441,0
1484987568.336,31.738,20.508,36.133,38.086,46.875,0
1484987568.340,10.742,23.438,41.016,26.855,6.836,0
1484987568.344,-1.953,41.992,49.805,19.531,-20.996,0
1484987568.348,13.672,50.293,49.805,36.133,15.137,0
1484987568.352,39.551,50.781,54.199,66.895,14.648,0
1484987568.356,54.199,59.570,80.566,73.242,-7.812,0
1484987568.360,49.316,39.062,74.219,65.918,-14.648,0
1484987568.364,54.688,48.340,81.543,80.078,14.648,0
1484987568.368,92.285,99.609,122.559,113.770,11.719,0
1484987568.371,105.957,113.281,136.230,138.672,-14.160,0
1484987568.375,84.961,111.816,126.465,145.020,-7.324,0
1484987568.379,79.102,116.699,115.234,127.441,6.836,0
1484987568.383,62.988,110.840,106.934,103.027,-1.465,0
1484987568.387,49.805,101.562,91.797,97.168,-14.160,0
1484987568.391,72.266,99.609,94.727,101.074,10.254,0
1484987568.395,66.895,100.098,82.520,95.703,19.043,0
1484987568.399,72.754,96.191,70.801,97.168,-7.812,0
1484987568.403,80.566,98.633,81.055,99.609,-21.973,0
1484987568.407,54.199,66.406,64.453,84.961,24.414,0
1484987568.410,41.504,16.113,55.176,73.242,35.156,0
1484987568.414,48.340,27.344,78.613,87.891,0.977,0
1484987568.418,33.691,62.012,57.129,79.102,-11.719,0
1484987568.422,0.000,64.941,39.062,39.551,-2.930,0
1484987568.426,-12.695,72.754,52.734,25.391,30.273,0
1484987568.430,10.742,65.918,47.363,44.434,34.668,0
1484987568.434,7.812,29.297,49.316,43.945,-4.395,0
1484987568.438,11.719,36.133,41.016,48.828,0.977,0
1484987568.442,29.785,46.875,45.898,60.059,48.828,0
1484987568.446,15.625,32.715,69.336,46.875,23.926,0
1484987568.450,20.508,53.711,56.152,59.570,6.348,0
1484987568.453,41.016,67.871,48.828,72.754,25.879,0
1484987568.457,31.250,39.062,60.547,64.941,22.461,0
1484987568.461,10.254,23.438,51.270,49.805,22.949,0
1484987568.465,11.230,34.180,34.668,34.668,19.043,0
1484987568.469,9.766,23.926,30.273,35.156,9.277,0
1484987568.473,10.742,8.789,32.715,40.527,10.254,0
1484987568.477,7.324,40.527,35.645,33.691,-4.395,0
1484987568.481,1.465,48.828,21.973,23.438,13.672,0
1484987568.485,2.441,39.551,36.621,34.668,32.227,0
1484987568.489,13.672,41.016,48.828,47.363,7.324,0
1484987568.493,18.066,39.551,34.180,51.758,-13.184,0
1484987568.496,22.461,34.668,43.457,53.711,28.320,0
1484987568.500,35.645,36.621,48.340,60.059,40.527,0
1484987568.504,38.574,37.598,46.387,62.012,19.531,0
1484987568.508,43.945,39.551,56.641,62.500,28.320,0
1484987568.512,41.992,45.898,45.898,66.895,18.066,0
1484987568.516,41.504,32.715,44.434,70.312,7.812,0
1484987568.520,36.133,9.766,57.617,56.641,-5.371,0
1484987568.524,20.996,4.883,29.297,47.852,23.926,0
1484987568.528,0.977,33.691,10.742,40.527,55.176,0
1484987568.532,2.930,43.945,26.855,35.156,27.832,0
1484987568.535,10.742,12.207,29.297,37.598,10.742,0
1484987568.539,0.000,-10.254,15.625,21.484,13.184,0
1484987568.543,-11.230,-0.488,-0.488,21.484,14.160,0
1484987568.547,-4.883,20.996,12.207,33.203,-5.859,0
1484987568.551,-9.277,4.395,5.859,16.602,-26.855,0
1484987568.555,-16.113,-24.414,4.883,12.207,-14.160,0
1484987568.559,-10.254,-5.371,14.648,15.625,13.184,0
1484987568.563,9.277,14.160,6.836,24.414,-0.977,0
1484987568.567,21.973,5.859,23.438,41.504,-6.836,0
1484987568.571,28.809,13.184,45.898,59.570,11.230,0
1484987568.575,19.043,40.039,41.504,50.781,16.602,0
1484987568.578,23.926,49.805,51.758,57.617,7.324,0
1484987568.582,49.805,39.062,82.031,76.172,-3.906,0
1484987568.586,41.016,38.574,82.031,70.801,11.230,0
1484987568.590,29.785,51.270,83.984,69.824,31.738,0
1484987568.594,41.016,66.895,78.125,73.242,26.367,0
1484987568.598,23.926,27.344,51.270,62.012,-3.418,0
1484987568.602,7.324,0.977,38.574,45.898,18.555,0
1484987568.606,-13.184,9.277,20.020,31.738,41.504,0
1484987568.610,-27.344,11.719,8.301,18.555,10.254,0
1484987568.614,-11.719,-13.184,6.348,17.090,-0.488,0
1484987568.618,-28.320,-56.641,-8.789,-1.465,19.043,0
1484987568.621,-26.855,-55.176,-8.789,1.953,37.109,0
1484987568.625,-11.719,-34.180,-1.953,22.461,-7.812,0
1484987568.629,-8.301,-22.461,1.953,19.531,-26.367,0
1484987568.633,-4.883,-20.996,9.277,18.555,5.859,0
1484987568.637,-6.836,-9.277,9.766,17.578,20.996,0
1484987568.641,-29.297,0.000,4.883,-4.883,19.531,0
1484987568.645,-31.738,-6.348,21.973,-8.789,27.344,0
1484987568.649,-18.555,0.977,15.625,-0.488,32.715,0
1484987568.653,7.324,19.531,11.230,22.949,16.113,0
1484987568.657,38.086,8.301,32.715,59.082,22.461,0
1484987568.660,26.367,6.348,30.762,60.059,4.883,0
1484987568.664,13.672,34.180,39.551,48.340,27.344,0
1484987568.668,12.207,37.109,40.527,38.574,6.836,0
1484987568.672,12.695,30.273,25.879,41.504,-42.969,0
1484987568.676,15.625,45.410,35.156,37.598,10.742,0
1484987568.680,11.230,53.223,38.086,34.668,55.176,0
1484987568.684,21.484,38.574,35.645,41.016,47.363,0
1484987568.688,33.203,25.879,45.410,46.387,38.574,0
1484987568.692,21.973,18.555,40.039,40.039,19.531,0
1484987568.696,23.926,0.977,36.621,34.668,-5.371,0
1484987568.700,17.578,-11.719,29.297,36.621,-0.488,0
1484987568.703,-0.488,6.348,39.062,12.207,7.324,0
1484987568.707,8.301,25.391,36.133,17.578,9.277,0
1484987568.711,12.695,22.949,24.414,47.363,-1.953,0
1484987568.715,7.812,34.668,35.156,44.434,-19.531,0
1484987568.719,24.902,57.129,30.762,48.828,-28.809,0
1484987568.723,36.621,61.035,41.504,52.246,12.695,0
1484987568.727,32.227,16.602,40.527,47.852,28.809,0
1484987568.731,22.461,8.789,26.367,34.668,-8.301,0
1484987568.735,10.742,23.926,21.484,15.137,0.977,0
1484987568.739,24.414,13.184,20.996,20.020,33.691,0
1484987568.743,30.762,37.598,28.320,35.156,51.270,0
1484987568.746,7.812,22.461,42.480,21.973,19.531,0
1484987568.750,24.414,-13.184,45.410,26.367,-2.441,0
1484987568.754,23.438,9.766,27.832,38.086,24.902,0
1484987568.758,2.441,14.648,25.391,25.391,22.461,0
1484987568.762,4.883,13.672,27.344,24.414,21.973,0
1484987568.766,0.977,26.855,35.156,29.785,17.578,0
1484987568.770,12.695,25.879,33.691,25.391,28.320,0
1484987568.774,20.996,23.926,29.785,33.203,33.203,0
1484987568.778,3.906,13.672,27.832,32.715,-10.254,0
1484987568.782,7.812,18.066,31.738,28.320,1.465,0
1484987568.785,9.277,22.949,30.762,30.273,25.879,0
1484987568.789,2.441,7.812,23.438,32.715,-0.488,0
1484987568.793,13.672,14.648,34.180,41.992,-9.766,0
1484987568.797,23.926,22.949,45.410,47.363,6.348,0
1484987568.801,20.508,20.508,45.410,45.898,26.855,0
1484987568.805,-2.930,20.020,47.363,27.344,20.020,0
1484987568.809,2.441,20.020,48.340,27.832,-6.836,0
1484987568.813,5.859,41.016,53.711,35.156,3.906,0
1484987568.817,5.859,45.898,47.852,31.250,16.602,0
1484987568.821,13.672,34.668,40.039,39.062,8.789,0
1484987568.825,18.555,40.039,39.551,57.129,-0.977,0
1484987568.828,28.809,48.340,33.203,49.805,-0.488,0
1484987568.832,32.715,53.223,38.574,44.434,-12.207,0
1484987568.836,20.996,47.852,45.898,45.410,-10.742,0
1484987568.840,10.254,34.180,41.504,39.551,17.090,0
1484987568.844,12.207,22.949,45.898,40.039,7.812,0
1484987568.848,25.391,15.137,49.316,47.852,-5.859,0
1484987568.852,26.367,20.020,47.363,33.691,-5.859,0
1484987568.856,20.020,41.016,52.734,30.273,32.227,0
1484987568.860,24.414,46.875,48.828,46.875,52.246,0
1484987568.864,25.391,21.973,42.480,45.898,23.926,0
1484987568.868,22.949,7.324,41.992,33.203,-18.555,0
1484987568.871,23.926,28.320,29.297,26.367,-31.250,0
1484987568.875,29.297,30.273,21.973,38.086,2.930,0
1484987568.879,30.273,14.648,34.180,43.457,10.254,0
1484987568.883,22.949,17.090,41.504,34.180,-11.230,0
1484987568.887,19.043,23.438,32.227,28.320,-3.906,0
1484987568.891,19.531,37.598,33.691,30.273,21.484,0
1484987568.895,30.762,54.688,31.738,39.062,2.441,0
1484987568.899,36.133,39.062,40.527,45.410,-2.441,0
1484987568.903,41.992,26.855,58.105,52.246,32.715,0
1484987568.907,36.133,41.992,60.059,53.711,32.227,0
1484987568.910,12.207,58.105,55.664,42.969,7.324,0
1484987568.914,18.066,56.641,46.387,46.387,36.621,0
1484987568.918,35.645,57.617,36.133,53.711,63.965,0
1484987568.922,38.574,52.246,47.852,46.875,37.598,0
1484987568.926,11.230,34.180,48.828,38.086,17.578,0
1484987568.930,18.555,23.926,38.574,56.152,15.137,0
1484987568.934,40.527,31.738,49.316,63.477,14.160,0
1484987568.938,43.945,50.781,59.082,60.059,27.344,0
1484987568.942,45.410,51.758,58.594,60.547,11.230,0
1484987568.946,53.711,39.551,59.570,68.848,19.043,0
1484987568.950,58.105,30.762,64.941,68.359,33.691,0
1484987568.953,43.945,40.039,49.316,55.176,1.953,0
1484987568.957,41.992,46.875,43.945,51.270,-0.488,0
1484987568.961,46.875,40.039,53.711,47.363,14.160,0
1484987568.965,34.668,54.688,37.109,46.875,2.930,0
1484987568.969,14.160,62.012,26.855,36.621,-4.395,0
1484987568.973,21.973,48.340,42.969,36.133,2.930,0
1484987568.977,41.992,16.113,42.969,52.246,14.648,0
1484987568.981,33.203,17.090,35.156,43.945,12.695,0
1484987568.985,26.367,36.621,55.176,47.363,-4.395,0
1484987568.989,39.062,53.223,48.828,63.477,19.531,0
1484987568.993,25.879,61.035,26.367,43.457,18.555,0
1484987568.996,9.766,51.270,30.273,27.344,30.762,0
1484987569.000,29.785,34.180,37.598,37.109,31.250,0
1484987569.004,40.039,32.227,46.387,47.852,10.742,0
1484987569.008,24.902,44.922,47.852,48.828,25.879,0
1484987569.012,24.902,37.598,46.875,50.781,16.602,0
1484987569.016,39.551,40.527,50.781,51.758,18.066,0
1484987569.020,41.016,44.922,48.828,53.223,54.199,0
1484987569.024,37.109,43.457,60.547,61.035,41.504,0
1484987569.028,35.645,39.062,65.430,67.383,11.230,0
1484987569.032,41.992,30.762,60.547,67.871,-5.371,0
1484987569.035,52.246,55.176,63.965,62.012,14.160,0
1484987569.039,53.223,68.359,65.918,66.406,27.832,0
1484987569.043,42.480,51.758,56.152,60.059,12.695,0
1484987569.047,38.574,41.992,52.734,64.941,-8.789,0
1484987569.051,37.109,29.297,78.125,69.824,0.977,0
1484987569.055,41.016,20.508,80.566,67.383,35.156,0
1484987569.059,73.242,22.949,67.383,85.938,44.922,0
1484987569.063,74.707,21.484,93.262,87.891,42.480,0
1484987569.067,53.223,52.734,77.637,84.473,42.969,0
1484987569.071,47.852,62.012,61.035,81.543,37.598,0
1484987569.075,45.898,49.316,73.730,75.195,38.574,0
1484987569.078,34.180,63.477,78.613,81.055,43.457,0
1484987569.082,45.410,78.125,88.379,86.914,32.227,0
1484987569.086,59.082,68.848,82.031,83.008,41.504,0
1484987569.090,42.480,60.547,66.895,65.918,20.508,0
1484987569.094,43.457,71.777,69.824,70.312,6.836,0
1484987569.098,62.500,90.820,75.684,100.098,45.898,0
1484987569.102,64.453,98.633,72.754,93.262,25.879,0
1484987569.106,59.570,86.426,87.402,85.449,20.020,0
1484987569.110,61.523,59.570,104.492,89.844,45.410,0
1484987569.114,47.363,59.082,76.660,71.777,37.598,0
1484987569.118,45.898,91.797,62.500,77.148,21.484,0
1484987569.121,50.293,83.496,81.543,81.543,30.273,0
1484987569.125,67.383,72.754,96.191,98.633,28.809,0
1484987569.129,76.172,84.961,98.633,110.352,8.789,0
1484987569.133,80.566,94.727,112.793,114.258,-2.441,0
1484987569.137,89.844,117.188,107.422,114.258,-8.789,0
1484987569.141,80.566,141.602,95.215,101.074,25.391,0
1484987569.145,70.801,118.164,124.023,100.586,28.320,0
1484987569.149,80.078,103.516,117.188,114.258,-8.789,0
1484987569.153,95.703,95.215,103.027,112.793,-15.625,0
1484987569.157,86.426,91.309,115.723,101.074,24.414,0
1484987569.160,74.219,92.285,111.328,109.375,35.156,0
1484987569.164,84.961,81.543,97.656,114.258,16.113,0
1484987569.168,85.449,89.355,90.820,99.121,3.418,0
1484987569.172,67.383,96.680,95.215,81.543,16.602,0
1484987569.176,64.941,98.145,79.102,79.102,28.809,0
1484987569.180,35.645,77.637,72.266,64.453,-34.180,0
1484987569.184,35.645,64.453,68.359,58.105,-50.293,0
1484987569.188,63.477,72.266,60.547,70.312,3.418,0
1484987569.192,52.734,66.406,58.594,74.219,20.508,0
1484987569.196,35.645,34.668,40.527,54.199,-8.301,0
1484987569.200,24.902,4.395,30.762,43.457,-22.461,0
1484987569.203,26.367,11.230,31.738,47.852,9.277,0
1484987569.207,20.020,36.133,32.227,22.461,12.695,0
1484987569.211,11.719,39.551,7.812,15.137,-13.672,0
1484987569.215,-20.996,-1.953,-17.090,-3.418,-7.812,0
1484987569.219,-45.410,-39.062,-41.992,-36.621,4.395,0
1484987569.223,-62.500,-40.039,-57.617,-42.969,-14.160,0
1484987569.227,-53.223,-50.293,-48.828,-43.945,-27.344,0
1484987569.231,-40.039,-49.316,-48.828,-42.480,-30.273,0
1484987569.235,-48.340,-20.020,-39.062,-24.902,-4.883,0
1484987569.239,-20.996,-40.039,-27.832,-8.789,20.996,0
1484987569.243,-20.508,-61.523,-17.578,-20.020,20.020,0
1484987569.246,-34.180,-17.090,-6.836,-24.902,-16.113,0
1484987569.250,-12.207,25.879,6.836,-5.371,-23.926,0
1484987569.254,8.789,33.691,18.555,9.766,-18.066,0
1484987569.258,3.906,23.438,13.184,8.301,-28.320,0
1484987569.262,8.301,9.766,7.324,5.371,-30.762,0
1484987569.266,13.672,11.230,11.719,-2.930,-42.480,0
1484987569.270,14.648,13.184,19.043,-6.348,-34.180,0
1484987569.274,18.555,19.043,17.578,16.113,-26.367,0
1484987569.278,14.648,8.301,12.695,22.949,0.000,0
1484987569.282,16.602,-10.742,16.602,22.949,10.742,0
1484987569.285,24.902,7.812,27.344,34.668,-22.949,0
1484987569.289,16.602,18.066,35.156,34.668,-21.973,0
1484987569.293,15.137,21.484,36.133,28.320,13.184,0
1484987569.297,20.996,30.273,29.297,35.645,-11.230,0
1484987569.301,14.648,25.391,33.203,28.320,-25.391,0
1484987569.305,18.555,5.371,33.691,28.809,7.812,0
1484987569.309,6.348,-3.906,21.973,15.137,16.602,0
1484987569.313,2.441,33.203,17.090,9.766,-0.977,0
1484987569.317,26.855,50.293,19.531,27.344,-15.137,0
1484987569.321,27.832,36.133,21.973,23.926,-10.742,0
1484987569.325,14.648,8.301,-0.488,15.137,-2.930,0
1484987569.328,-0.488,8.301,-4.395,4.883,-5.371,0
1484987569.332,3.906,32.227,21.973,-0.488,-39.062,0
1484987569.336,20.996,36.621,22.949,13.184,-4.395,0
1484987569.340,59.570,87.891,52.246,53.711,17.578,0
1484987569.344,72.754,103.516,84.473,68.848,-10.742,0
1484987569.348,89.844,81.543,88.379,81.543,17.090,0
1484987569.352,100.586,95.703,92.773,88.379,16.602,0
1484987569.356,76.660,99.609,87.402,72.266,-17.578,0
1484987569.360,71.777,96.680,90.820,80.078,-32.227,0
1484987569.364,75.684,99.609,92.773,84.473,-44.922,0
1484987569.368,71.289,84.473,74.707,81.055,1.465,0
1484987569.371,78.613,69.824,78.613,85.449,15.625,0
1484987569.375,85.449,90.820,86.426,88.379,-24.902,0
1484987569.379,64.453,101.074,79.590,81.055,-6.836,0
1484987569.383,59.082,84.473,74.707,76.660,20.020,0
1484987569.387,66.895,86.914,72.266,75.684,0.000,0
1484987569.391,68.359,85.938,65.430,79.590,-9.277,0
1484987569.395,69.824,71.777,68.359,86.426,-5.859,0
1484987569.399,51.758,38.086,66.406,64.453,24.414,2
1484987569.403,5.859,2.930,21.973,16.602,27.344,0
1484987569.407,-5.371,26.367,13.184,12.207,-9.277,0
1484987569.410,-18.555,20.996,2.930,2.441,-12.695,0
1484987569.414,-22.461,6.836,-14.160,-11.719,8.789,0
1484987569.418,-2.441,4.395,-4.883,-6.348,-13.184,0
1484987569.422,15.137,8.789,18.066,8.301,-36.133,0
1484987569.426,48.828,23.438,47.363,47.363,7.812,0
1484987569.430,67.383,58.594,67.871,64.941,11.719,0
1484987569.434,55.176,72.266,75.684,57.617,-10.254,0
1484987569.438,27.832,37.109,51.270,26.855,-16.602,0
1484987569.442,-5.371,-5.371,0.000,-7.324,-0.977,0
1484987569.446,-12.695,22.949,8.301,-3.418,2.930,0
1484987569.450,6.348,47.852,28.809,12.695,-23.438,0
1484987569.453,15.137,17.090,23.926,18.066,-16.602,0
1484987569.457,26.855,33.203,31.738,31.738,10.254,0
1484987569.461,37.109,30.273,41.016,41.504,16.602,0
1484987569.465,17.090,-23.438,27.832,25.879,-13.184,0
1484987569.469,5.371,-41.016,7.812,15.137,-4.395,0
1484987569.473,32.227,21.973,40.039,44.922,29.785,0
1484987569.477,48.340,72.266,63.965,64.941,-2.930,0
1484987569.481,29.297,41.992,36.133,39.062,-11.230,0
1484987569.485,-3.906,6.348,2.441,0.488,18.066,0
1484987569.489,15.137,36.621,23.438,6.836,43.945,0
1484987569.493,29.785,31.738,47.852,11.719,26.855,0
1484987569.496,3.418,18.066,43.945,7.324,11.230,0
1484987569.500,-3.906,41.504,35.156,11.230,28.320,0
1484987569.504,12.207,52.734,33.691,33.691,24.902,0
1484987569.508,39.551,53.711,47.852,60.059,-1.465,0
1484987569.512,35.156,61.523,46.875,44.922,-12.695,0
1484987569.516,30.762,71.777,49.316,43.457,11.230,0
1484987569.520,49.805,69.336,54.199,56.641,22.949,0
1484987569.524,41.504,47.852,43.945,42.480,2.441,0
1484987569.528,30.273,31.250,39.062,35.156,-9.277,0
1484987569.532,24.902,13.672,49.805,35.645,27.832,0
1484987569.535,21.973,8.789,40.039,24.902,40.527,0
1484987569.539,28.809,37.109,28.320,28.320,37.109,0
1484987569.543,22.949,28.809,20.996,17.090,35.645,0
1484987569.547,4.883,-6.836,8.301,-2.930,16.602,0
1484987569.551,11.719,8.789,13.672,8.301,32.227,0
1484987569.555,-1.953,12.207,8.789,2.930,0.000,0
1484987569.559,-10.254,32.715,35.645,10.742,-31.250,0
1484987569.563,25.391,65.430,71.289,41.992,13.184,0
1484987569.567,19.531,37.109,47.363,36.133,23.438,0
1484987569.571,-3.906,19.531,21.973,21.484,11.719,0
1484987569.575,7.324,27.344,16.602,23.438,7.812,0
1484987569.578,1.953,22.949,7.812,5.859,5.859,0
1484987569.582,3.418,18.066,0.977,5.859,13.184,0
1484987569.586,19.043,25.391,28.320,26.367,9.766,0
1484987569.590,-18.066,0.977,17.578,4.883,-1.953,0
1484987569.594,-19.531,-10.254,14.160,9.277,11.719,0
1484987569.598,-1.953,6.348,24.414,12.207,27.344,0
1484987569.602,-34.180,-0.488,5.859,-22.949,-18.555,0
1484987569.606,-56.641,-3.418,-1.465,-36.621,-9.766,0
1484987569.610,-51.270,15.137,-11.230,-26.367,16.602,0
1484987569.614,-43.457,10.742,-4.395,-13.672,4.883,0
1484987569.618,-29.785,14.648,17.090,4.395,4.883,0
1484987569.621,-4.883,33.203,24.414,19.043,10.254,0
1484987569.625,7.324,31.738,17.578,16.602,24.414,0
1484987569.629,18.066,26.367,18.555,14.648,26.855,0
1484987569.633,21.484,19.043,27.344,12.695,44.434,0
1484987569.637,-10.742,10.742,9.277,-3.906,62.012,0
1484987569.641,-43.457,13.184,-9.766,-32.715,16.602,0
1484987569.645,-50.781,18.555,-14.160,-41.016,-17.578,0
1484987569.649,-55.176,11.230,-23.438,-38.086,9.766,0
1484987569.653,-57.129,7.812,-21.973,-31.250,-0.977,0
1484987569.657,-44.922,16.602,-20.508,-34.668,-20.508,0
1484987569.660,-31.250,10.742,-20.020,-43.457,-5.371,0
1484987569.664,-39.551,6.836,-23.438,-53.223,14.648,0
1484987569.668,-32.227,-0.977,-27.832,-54.199,41.504,0
1484987569.672,-35.645,-22.461,-16.602,-44.922,36.133,0
1484987569.676,-34.180,-8.789,-9.277,-37.598,26.367,0
1484987569.680,-18.555,10.254,-15.625,-26.855,49.805,0
1484987569.684,-24.414,20.020,-12.207,-20.020,18.555,0
1484987569.688,-30.273,29.297,-9.277,-27.832,23.438,0
1484987569.692,-1.953,34.668,14.648,-5.859,12.695,0
1484987569.696,18.555,48.340,35.156,26.367,-6.348,0
1484987569.700,7.324,46.875,32.227,14.160,41.016,0
1484987569.703,-4.883,26.855,28.320,-10.254,15.137,0
1484987569.707,-7.324,15.137,13.672,-14.648,33.203,0
1484987569.711,-6.836,14.160,17.578,-14.160,67.383,0
1484987569.715,-13.672,18.066,22.461,-18.555,58.594,0
1484987569.719,-21.484,23.438,6.836,-8.789,19.043,0
1484987569.723,-16.113,32.715,0.488,-0.488,9.766,0
1484987569.727,-3.418,57.129,15.137,-3.418,41.504,0
1484987569.731,-3.906,56.641,18.555,3.906,17.090,0
1484987569.735,4.395,36.621,20.020,15.137,11.230,0
1484987569.739,7.812,24.902,21.973,5.859,23.926,0
1484987569.743,17.090,36.133,22.949,7.812,24.902,0
1484987569.746,27.832,56.641,29.785,29.785,46.387,0
1484987569.750,31.250,53.223,34.668,47.852,6.348,0
1484987569.754,28.320,32.227,32.227,33.203,-22.461,0
1484987569.758,12.695,23.438,36.133,15.625,20.020,0
1484987569.762,9.766,17.090,32.227,19.043,26.855,0
1484987569.766,14.648,30.273,18.555,25.879,31.250,0
1484987569.770,4.883,43.945,22.949,15.137,26.855,0
1484987569.774,19.531,48.828,14.160,18.066,-0.977,0
1484987569.778,36.133,47.852,13.184,34.668,16.602,0
1484987569.782,29.297,17.090,18.555,32.715,2.441,0
1484987569.785,15.137,-0.977,1.953,20.508,-9.766,0
1484987569.789,2.930,19.531,-12.695,10.254,17.578,0
1484987569.793,2.930,25.879,0.000,6.348,13.672,0
1484987569.797,14.160,32.715,4.883,3.418,6.836,0
1484987569.801,25.879,56.152,3.418,3.418,30.273,0
1484987569.805,15.625,55.664,11.230,10.742,39.551,0
1484987569.809,22.949,37.598,28.809,13.672,53.711,0
1484987569.813,40.039,19.531,34.180,33.691,38.086,0
1484987569.817,40.527,31.250,27.832,56.152,35.645,0
1484987569.821,35.156,69.336,21.484,50.293,54.688,0
1484987569.825,32.227,74.707,20.020,40.527,18.555,0
1484987569.828,35.156,53.223,33.203,48.340,15.137,0
1484987569.832,43.457,49.805,39.551,55.664,32.227,0
1484987569.836,59.570,71.777,50.293,64.941,22.949,0
1484987569.840,59.570,79.590,53.223,75.195,14.648,0
1484987569.844,62.500,70.801,54.199,82.031,-7.324,0
1484987569.848,76.660,69.336,60.059,83.496,-5.859,0
1484987569.852,73.242,71.289,66.406,81.543,6.348,0
1484987569.856,61.035,77.637,73.730,64.453,8.789,0
1484987569.860,79.102,62.500,68.848,75.684,32.227,0
1484987569.864,64.941,66.406,55.664,82.520,44.922,0
1484987569.868,56.641,87.891,52.734,70.801,27.832,0
1484987569.871,59.570,84.473,54.199,69.824,23.438,0
1484987569.875,61.035,77.148,62.012,76.660,33.203,0
1484987569.879,78.125,65.430,65.918,82.520,30.762,0
1484987569.883,74.707,46.387,63.477,76.660,22.949,0
1484987569.887,73.730,50.781,71.289,80.078,16.113,0
1484987569.891,60.547,63.965,72.754,67.871,23.926,0
1484987569.895,60.547,76.172,60.547,66.406,47.852,0
1484987569.899,69.824,79.590,61.035,73.730,23.438,3
1484987569.903,59.570,65.430,67.871,70.801,24.414,0
1484987569.907,47.852,47.852,60.059,59.082,43.945,0
1484987569.910,35.156,36.133,60.059,48.340,27.344,0
1484987569.914,29.297,43.945,60.547,42.969,31.738,0
1484987569.918,25.391,36.133,46.875,37.598,30.762,0
1484987569.922,31.250,24.902,40.527,40.039,40.527,0
1484987569.926,40.039,41.016,46.387,46.875,44.922,0
1484987569.930,36.621,44.434,51.758,44.922,33.691,0
1484987569.934,34.180,38.086,39.551,46.387,8.301,0
1484987569.938,35.156,37.109,32.227,35.645,20.508,0
1484987569.942,45.410,38.574,28.809,23.926,44.434,0
1484987569.946,42.969,28.809,33.691,27.344,41.016,0
1484987569.950,34.180,5.371,33.691,34.668,33.203,0
1484987569.953,31.250,3.906,37.109,40.527,42.969,0
1484987569.957,19.531,21.484,40.527,39.551,25.391,0
1484987569.961,3.418,36.621,23.926,29.785,18.066,0
1484987569.965,9.277,38.574,15.137,24.414,28.809,0
1484987569.969,6.836,20.508,22.461,23.438,27.344,0
1484987569.973,-1.953,22.461,31.738,24.414,1.953,0
1484987569.977,0.977,37.598,22.461,28.809,-12.207,0
1484987569.981,-2.441,22.461,31.738,25.879,22.461,0
1484987569.985,4.395,8.301,37.109,35.645,50.781,0
1484987569.989,10.742,17.090,29.785,38.574,39.551,0
1484987569.993,16.113,19.043,38.086,33.691,-12.695,0
1484987569.996,20.996,26.855,42.969,42.969,-2.441,0
1484987570.000,16.113,21.973,41.992,37.598,43.945,0
1484987570.004,16.113,21.973,46.387,36.133,29.785,0
1484987570.008,11.230,46.875,42.969,36.621,50.293,0
1484987570.012,12.695,50.293,39.062,23.438,28.320,0
1484987570.016,6.348,44.434,44.922,14.160,8.301,0
1484987570.020,17.090,48.340,44.922,29.785,2.930,0
1484987570.024,25.879,20.020,57.129,35.645,-25.879,0
1484987570.028,19.531,0.977,57.617,43.457,15.137,0
1484987570.032,29.297,19.531,57.129,54.688,43.945,0
1484987570.035,27.344,38.086,65.430,61.035,9.277,0
1484987570.039,24.414,51.270,61.523,56.152,10.254,0
1484987570.043,27.344,50.781,58.105,39.062,46.875,0
1484987570.047,18.555,45.410,52.246,30.273,25.391,0
1484987570.051,13.672,36.621,46.875,29.297,0.000,0
1484987570.055,8.789,36.133,35.645,31.250,17.578,0
1484987570.059,23.926,35.645,49.805,27.832,27.832,0
1484987570.063,37.598,38.574,52.246,23.926,-5.859,0
1484987570.067,23.926,46.387,32.227,30.762,-24.902,0
1484987570.071,-0.488,37.109,31.250,19.531,14.648,0
1484987570.075,-11.719,32.715,33.203,18.066,25.391,0
1484987570.078,-3.906,26.367,26.855,15.625,-3.418,0
1484987570.082,-9.766,22.461,14.160,1.465,22.461,0
1484987570.086,-17.090,22.949,15.137,-2.441,31.738,0
1484987570.090,-20.508,18.555,24.414,-7.812,20.508,0
1484987570.094,-16.602,27.344,25.879,1.953,25.879,0
1484987570.098,-3.418,39.062,22.461,15.625,6.836,0
1484987570.102,1.953,38.574,24.902,10.254,30.273,0
1484987570.106,3.906,31.738,27.832,-5.859,17.090,0
1484987570.110,-8.789,40.039,17.090,-6.348,19.043,0
1484987570.114,-11.719,44.922,18.555,10.254,24.414,0
1484987570.118,0.977,51.758,24.902,15.625,-15.137,0
1484987570.121,0.488,53.711,30.762,15.625,-15.625,0
1484987570.125,-1.953,38.086,34.180,13.184,4.395,0
1484987570.129,1.953,34.180,22.461,7.324,1.465,0
1484987570.133,-10.254,20.020,21.973,3.418,-0.488,0
1484987570.137,-22.461,24.902,24.414,-4.883,-3.418,0
1484987570.141,-26.855,30.762,16.602,-13.672,-17.090,0
1484987570.145,-22.949,16.602,19.043,-1.465,4.883,0
1484987570.149,-17.090,31.250,19.531,5.371,28.809,0
1484987570.153,-24.902,41.016,17.578,-4.883,39.062,0
1484987570.157,-22.949,33.691,16.113,3.906,39.551,0
1484987570.160,-20.996,29.297,19.531,7.812,18.066,0
1484987570.164,-22.461,24.902,37.109,0.000,25.879,0
1484987570.168,-12.207,24.414,24.414,1.953,12.207,0
1484987570.172,-5.859,33.691,22.949,5.371,-18.066,0
1484987570.176,-15.137,49.316,36.621,8.789,-14.648,0
1484987570.180,-17.090,53.711,30.762,10.742,31.738,0
1484987570.184,-5.371,41.016,35.645,11.719,24.414,0
1484987570.188,-13.184,29.297,34.180,8.301,-14.160,0
1484987570.192,-11.719,36.621,31.250,8.789,36.621,0
1484987570.196,-11.230,54.199,26.367,3.906,29.785,0
1484987570.200,-18.066,38.574,30.273,-2.441,-2.930,0
1484987570.203,-11.719,34.180,29.297,1.465,-24.414,0
1484987570.207,-7.812,45.410,21.973,-3.906,-18.555,0
1484987570.211,-16.602,37.598,23.926,-6.348,14.648,0
1484987570.215,-14.648,24.902,25.391,6.348,0.000,0
1484987570.219,-11.719,25.391,26.855,2.930,-16.113,0
1484987570.223,-0.977,28.809,30.273,3.418,-0.977,0
1484987570.227,0.488,28.809,34.180,13.184,-5.371,0
1484987570.231,-0.488,33.691,33.203,15.625,-21.973,0
1484987570.235,8.789,24.414,42.480,11.230,-14.648,0
1484987570.239,5.371,21.484,42.480,9.766,28.320,0
1484987570.243,-1.465,29.297,29.297,11.719,9.277,0
1484987570.246,0.488,46.387,32.715,19.043,-7.324,0
1484987570.250,-0.977,52.734,40.039,20.996,11.719,0
1484987570.254,-8.301,43.457,41.504,12.695,1.465,0
1484987570.258,-10.742,45.410,45.410,13.672,-9.277,0
1484987570.262,4.395,49.316,37.598,11.230,-18.555,0
1484987570.266,-1.953,38.574,41.016,3.906,26.367,0
1484987570.270,-5.371,35.645,39.062,20.996,29.785,0
1484987570.274,10.742,29.785,32.227,39.062,-9.277,0
1484987570.278,10.742,24.902,44.434,37.109,7.324,0
1484987570.282,3.418,30.762,41.992,29.785,21.973,0
1484987570.285,4.395,14.160,42.969,31.250,11.719,0
1484987570.289,11.230,-3.418,46.387,40.527,0.977,0
1484987570.293,15.625,11.719,52.246,34.180,1.953,0
1484987570.297,17.090,31.250,48.828,20.508,21.484,0
1484987570.301,14.648,38.086,47.852,23.926,18.555,0
1484987570.305,15.137,43.457,54.199,19.531,-23.438,0
1484987570.309,2.441,46.387,54.199,0.488,-7.324,0
1484987570.313,5.859,44.922,57.617,11.230,20.020,0
1484987570.317,16.113,49.805,53.711,23.438,31.250,0
1484987570.321,16.113,36.621,56.152,27.344,29.785,0
1484987570.325,24.414,16.602,61.035,33.691,-25.391,0
1484987570.328,19.531,20.996,68.848,34.668,-0.488,0
1484987570.332,13.672,24.902,83.008,33.691,43.945,0
1484987570.336,17.578,15.625,84.961,33.691,41.016,0
1484987570.340,8.789,10.254,85.449,33.203,21.484,0
1484987570.344,-2.930,19.043,99.121,24.414,-5.859,0
1484987570.348,1.953,29.785,112.793,21.484,-4.883,0
1484987570.352,16.113,36.133,119.629,25.879,-7.812,0
1484987570.356,2.930,29.785,129.395,22.461,-5.859,0
1484987570.360,-9.277,26.367,136.230,15.137,21.484,0
1484987570.364,7.324,29.297,134.766,20.996,-7.324,0
1484987570.368,18.555,42.969,141.113,20.508,-11.719,0
1484987570.371,12.207,56.641,147.461,20.508,40.527,0
1484987570.375,21.484,55.176,145.996,32.227,50.293,0
1484987570.379,16.602,46.875,150.879,36.621,19.043,0
1484987570.383,20.020,33.203,166.016,36.621,41.992,0
1484987570.387,30.273,32.227,184.082,39.062,41.504,0
1484987570.391,15.137,32.715,192.383,38.086,-1.465,0
1484987570.395,12.207,34.668,204.102,40.527,3.418,0
1484987570.399,18.066,30.762,233.887,31.738,12.207,4
1484987570.403,18.555,14.648,255.859,21.973,25.879,0
1484987570.407,8.789,27.344,253.906,20.508,31.738,0
1484987570.410,-0.488,31.250,259.766,14.648,24.414,0
1484987570.414,8.789,17.578,259.766,23.438,21.484,0
1484987570.418,4.395,33.203,261.719,18.066,38.574,0
1484987570.422,-0.977,29.785,266.113,14.648,20.020,0
1484987570.426,-3.418,20.508,266.113,11.719,24.414,0
1484987570.430,1.465,36.621,256.348,18.066,42.480,0
1484987570.434,16.113,34.180,241.699,39.062,48.828,0
1484987570.438,21.484,27.832,233.398,31.738,35.156,0
1484987570.442,25.879,29.297,239.258,27.344,10.742,0
1484987570.446,23.926,34.668,247.559,34.668,20.508,0
1484987570.450,18.066,43.945,241.699,38.086,22.949,0
1484987570.453,13.184,37.109,245.605,40.527,-7.324,0
1484987570.457,13.672,20.020,241.699,40.039,-6.348,0
1484987570.461,12.207,15.625,227.539,38.574,13.672,0
1484987570.465,17.090,14.160,216.797,40.039,13.672,0
1484987570.469,15.137,22.461,216.309,29.785,20.020,0
1484987570.473,12.695,43.457,215.332,23.926,26.367,0
1484987570.477,8.301,57.129,197.266,24.414,42.969,0
1484987570.481,2.441,48.828,186.523,26.855,11.719,0
1484987570.485,15.625,34.180,178.711,38.574,-8.789,0
1484987570.489,27.832,22.949,172.852,46.387,24.902,0
1484987570.493,28.809,17.578,172.852,51.758,11.230,0
1484987570.496,18.066,0.977,174.805,39.551,-22.949,0
1484987570.500,24.902,-4.883,166.992,37.109,2.930,0
1484987570.504,33.203,16.602,145.996,45.410,7.324,0
1484987570.508,20.020,25.391,141.113,45.410,-11.230,0
1484987570.512,23.926,22.461,141.602,46.875,-1.953,0
1484987570.516,32.715,22.461,140.137,39.551,1.465,0
1484987570.520,30.273,25.879,134.766,32.715,16.113,0
1484987570.524,29.297,22.461,124.512,44.434,43.945,0
1484987570.528,12.207,14.160,122.070,41.016,5.371,0
1484987570.532,5.371,20.508,115.723,29.297,-25.391,0
1484987570.535,15.625,28.320,109.375,33.691,9.766,0
1484987570.539,19.531,19.043,110.840,47.363,22.461,0
1484987570.543,21.484,19.043,106.445,55.176,-1.953,0
1484987570.547,22.461,27.344,101.074,51.270,-15.625,0
1484987570.551,25.879,24.414,104.004,49.805,5.371,0
1484987570.555,23.438,20.020,107.910,47.852,34.668,0
1484987570.559,25.391,23.438,105.957,48.828,48.828,0
1484987570.563,29.297,28.320,101.562,46.387,31.250,0
1484987570.567,30.762,32.715,98.145,44.434,14.648,0
1484987570.571,31.250,25.879,96.680,49.805,34.668,0
1484987570.575,34.180,3.906,99.121,53.223,36.133,0
1484987570.578,29.297,4.395,96.191,44.434,15.625,0
1484987570.582,18.066,34.668,78.125,42.969,-30.273,0
1484987570.586,21.484,49.316,73.242,51.758,-15.625,0
1484987570.590,32.715,58.105,73.242,62.988,17.578,0
1484987570.594,36.133,57.617,74.219,67.383,6.836,0
1484987570.598,41.016,45.410,69.336,62.500,1.465,0
1484987570.602,41.992,17.090,78.125,60.547,-11.230,0
1484987570.606,37.598,-2.930,85.449,67.383,-37.109,0
1484987570.610,45.898,3.906,87.402,73.730,-5.371,0
1484987570.614,52.734,23.438,88.867,71.777,55.176,0
1484987570.618,41.992,50.293,72.266,68.848,10.254,0
1484987570.621,37.109,59.082,69.824,65.918,-30.273,0
1484987570.625,42.969,64.941,74.219,55.664,-10.254,0
1484987570.629,42.969,59.082,70.801,60.059,2.930,0
1484987570.633,46.387,47.852,67.383,69.824,29.785,0
1484987570.637,42.969,49.316,70.312,69.824,7.812,0
1484987570.641,40.527,38.086,70.801,66.406,-20.020,0
1484987570.645,47.852,29.785,66.895,68.848,4.883,0
1484987570.649,61.523,39.551,62.012,74.707,20.020,0
1484987570.653,58.105,41.504,63.965,70.312,15.625,0
1484987570.657,48.828,20.508,64.453,73.730,30.273,0
1484987570.660,61.523,10.254,65.430,86.914,52.734,0
1484987570.664,58.594,20.020,79.102,74.219,23.926,0
1484987570.668,50.293,29.785,68.848,68.359,0.000,0
1484987570.672,68.848,29.297,48.340,90.820,20.508,0
1484987570.676,77.637,35.156,56.641,93.262,13.672,0
1484987570.680,66.406,38.574,56.152,81.055,-26.855,0
1484987570.684,61.523,34.668,52.246,77.637,-15.625,0
1484987570.688,62.012,32.227,57.617,75.195,32.227,0
1484987570.692,60.059,18.555,60.059,73.730,28.320,0
1484987570.696,62.012,20.996,63.477,75.684,17.090,0
1484987570.700,67.871,27.344,63.477,83.496,11.230,0
1484987570.703,64.941,41.016,63.965,89.844,22.461,0
1484987570.707,62.988,43.945,68.848,91.797,24.414,0
1484987570.711,59.082,28.809,70.312,87.402,24.414,0
1484987570.715,60.059,25.391,66.406,78.613,25.879,0
1484987570.719,54.688,24.902,66.406,64.941,22.949,0
1484987570.723,52.734,30.762,61.035,70.801,18.555,0
1484987570.727,57.617,29.785,62.988,84.473,0.488,0
1484987570.731,48.828,30.273,66.406,82.520,19.043,0
1484987570.735,45.898,24.414,64.453,78.125,29.297,0
1484987570.739,57.129,33.691,62.500,78.613,-17.090,0
1484987570.743,60.547,35.156,60.059,82.031,-25.391,0
1484987570.746,62.012,23.926,68.848,83.496,-6.348,0
1484987570.750,67.871,35.156,68.359,96.191,0.000,0
1484987570.754,63.477,35.156,59.570,90.820,-4.883,0
1484987570.758,62.500,38.574,58.105,81.055,-19.531,0
1484987570.762,72.266,45.410,61.523,85.938,-14.160,0
1484987570.766,71.289,41.016,53.223,83.008,13.184,0
1484987570.770,50.781,41.504,57.129,68.848,2.930,0
1484987570.774,48.828,38.574,62.988,65.430,-39.062,0
1484987570.778,58.105,33.691,65.430,64.453,-7.812,0
1484987570.782,60.059,22.949,73.242,63.477,33.203,0
1484987570.785,74.219,27.832,66.895,86.426,-1.953,0
1484987570.789,63.477,43.945,73.242,86.914,-15.625,0
1484987570.793,49.316,43.945,75.195,57.617,12.695,0
1484987570.797,67.871,42.969,60.059,73.242,11.719,0
1484987570.801,53.711,48.340,61.523,79.590,12.695,0
1484987570.805,42.969,54.199,59.082,67.383,20.996,0
1484987570.809,54.199,45.898,62.012,70.312,19.531,0
1484987570.813,60.547,20.996,66.406,72.266,7.812,0
1484987570.817,64.453,20.020,64.941,71.289,-19.043,0
1484987570.821,51.758,39.551,64.941,67.871,11.230,0
1484987570.825,41.992,38.574,62.012,68.359,37.598,0
1484987570.828,48.828,41.992,68.359,68.359,19.043,0
1484987570.832,41.992,44.922,65.918,63.965,1.465,0
1484987570.836,32.227,49.805,58.594,46.875,-3.418,0
1484987570.840,37.598,57.129,62.500,56.641,34.668,0
1484987570.844,47.852,59.570,60.059,61.035,20.508,0
1484987570.848,46.875,55.176,53.711,55.176,-1.465,0
1484987570.852,41.992,42.480,52.734,63.965,29.297,0
1484987570.856,46.875,40.039,60.059,63.965,41.504,0
1484987570.860,59.570,47.363,65.918,72.754,23.438,0
1484987570.864,48.828,39.551,67.871,56.152,-4.395,0
1484987570.868,45.410,40.527,72.266,59.570,0.000,0
1484987570.871,58.105,35.645,64.941,79.590,7.324,0
1484987570.875,42.480,36.133,62.012,62.012,-12.207,0
1484987570.879,33.691,55.176,58.594,54.688,-15.625,0
1484987570.883,46.387,70.801,56.641,50.293,-6.348,0
1484987570.887,48.828,75.195,58.105,44.434,5.371,0
1484987570.891,49.316,62.012,56.152,56.152,15.625,0
1484987570.895,57.617,47.852,64.941,54.199,11.719,0
1484987570.899,51.758,46.387,65.430,42.969,12.207,0
1484987570.903,32.715,51.758,58.105,43.457,9.277,5
1484987570.907,27.832,49.316,58.594,47.363,-14.648,0
1484987570.910,32.715,38.574,62.012,46.387,-21.484,0
1484987570.914,43.457,40.527,65.918,51.270,-17.090,0
1484987570.918,42.969,48.340,66.895,59.570,-16.602,0
1484987570.922,43.945,57.129,66.406,62.988,0.488,0
1484987570.926,43.457,56.152,56.152,64.453,20.020,0
1484987570.930,34.180,44.922,62.988,49.805,54.199,0
1484987570.934,31.250,38.574,67.383,46.875,38.086,0
1484987570.938,32.715,47.363,51.270,58.594,12.207,0
1484987570.942,43.457,35.156,52.246,62.500,22.949,0
1484987570.946,46.875,28.809,55.176,54.688,-8.789,0
1484987570.950,35.156,36.133,54.199,47.363,21.484,0
1484987570.953,48.340,39.062,54.688,51.270,50.781,0
1484987570.957,44.434,50.293,54.199,54.199,32.227,0
1484987570.961,18.555,56.641,67.383,39.062,-3.418,0
1484987570.965,27.344,60.547,53.223,51.270,-59.082,0
1484987570.969,42.969,53.223,34.180,63.477,-30.273,0
1484987570.973,42.969,58.594,40.527,53.223,19.531,0
1484987570.977,43.457,56.641,55.176,59.082,-14.648,0
1484987570.981,37.598,42.969,56.641,62.500,-24.414,0
1484987570.985,37.109,43.945,57.617,56.152,-16.113,0
1484987570.989,41.016,48.340,58.105,59.570,-0.977,0
1484987570.993,40.527,56.152,49.316,61.035,11.230,0
1484987570.996,42.480,71.289,52.734,57.129,-9.766,0
1484987571.000,39.551,74.219,53.223,45.898,-15.137,0
1484987571.004,35.156,77.637,48.828,39.062,9.277,0
1484987571.008,35.645,83.984,52.246,42.969,23.926,0
1484987571.012,33.203,83.008,58.594,38.086,-0.977,0
1484987571.016,33.691,71.777,53.711,44.922,-14.648,0
1484987571.020,29.785,63.477,42.480,59.082,-0.488,0
1484987571.024,31.738,57.617,46.387,55.176,-15.625,0
1484987571.028,33.691,39.551,49.316,53.223,-16.602,0
1484987571.032,27.344,39.062,45.410,48.828,10.742,0
1484987571.035,16.113,63.965,42.480,47.852,9.766,0
1484987571.039,29.297,72.266,40.039,52.246,20.996,0
1484987571.043,30.762,71.777,40.527,42.969,31.738,0
1484987571.047,19.531,53.223,47.852,35.645,21.484,0
1484987571.051,26.855,42.480,52.734,39.062,24.902,0
1484987571.055,31.250,37.109,56.152,47.363,0.488,0
1484987571.059,26.855,28.320,55.664,49.316,-12.207,0
1484987571.063,11.719,57.129,36.621,40.527,-0.977,0
1484987571.067,16.602,63.965,34.180,44.922,0.977,0
1484987571.071,34.668,49.316,36.133,54.199,4.395,0
1484987571.075,37.598,19.043,43.945,59.570,9.766,0
1484987571.078,36.133,19.043,42.480,51.758,8.789,0
1484987571.082,32.715,69.336,34.180,48.340,16.602,0
1484987571.086,28.320,90.332,41.992,43.945,8.789,0
1484987571.090,26.367,71.777,39.551,32.715,39.551,0
1484987571.094,22.461,63.477,35.156,41.504,41.016,0
1484987571.098,20.020,61.035,33.691,48.340,-19.531,0
1484987571.102,25.391,52.246,34.668,40.039,-21.973,0
1484987571.106,20.020,33.691,43.945,31.738,14.160,0
1484987571.110,22.949,10.742,39.062,33.203,15.137,0
1484987571.114,27.344,22.949,36.621,38.574,-0.977,0
1484987571.118,26.367,54.688,30.762,48.340,-2.441,0
1484987571.121,21.484,55.176,21.973,37.598,19.531,0
1484987571.125,22.949,47.363,25.391,30.273,32.715,0
1484987571.129,20.020,38.086,28.809,34.180,3.906,0
1484987571.133,14.160,33.691,30.273,33.203,4.883,0
1484987571.137,12.207,52.246,28.809,33.691,36.621,0
1484987571.141,9.766,48.340,27.344,27.344,14.648,0
1484987571.145,15.625,31.738,35.156,32.227,-31.250,0
1484987571.149,10.742,20.996,45.898,32.227,-11.230,0
1484987571.153,4.883,19.043,39.062,31.250,4.883,0
1484987571.157,8.301,43.945,37.598,27.344,-2.441,0
1484987571.160,3.906,61.035,32.227,20.508,-30.273,0
1484987571.164,4.883,58.105,29.297,24.902,-21.484,0
1484987571.168,7.812,36.133,33.203,20.996,-0.977,0
1484987571.172,10.742,7.812,34.668,18.066,-39.551,0
1484987571.176,14.648,10.742,38.574,22.949,-16.602,0
1484987571.180,7.324,31.250,36.133,19.043,3.906,0
1484987571.184,13.184,31.250,36.133,14.648,5.371,0
1484987571.188,-1.465,0.977,43.457,4.883,-13.184,0
1484987571.192,-16.602,4.883,37.598,-5.859,-18.555,0
1484987571.196,-11.719,33.691,38.574,1.953,-4.883,0
1484987571.200,-6.348,32.715,44.434,16.602,-14.160,0
1484987571.203,-5.859,39.551,45.410,10.254,-8.301,0
1484987571.207,-0.977,34.180,47.363,6.836,-16.602,0
1484987571.211,4.883,10.254,46.387,17.578,-7.324,0
1484987571.215,0.977,13.184,39.062,16.602,-21.973,0
1484987571.219,-7.324,36.621,36.621,-0.488,-28.809,0
1484987571.223,-17.090,45.410,34.180,1.953,8.301,0
1484987571.227,-17.578,39.062,36.133,13.672,16.113,0
1484987571.231,-8.301,34.180,34.180,9.277,14.160,0
1484987571.235,-15.137,26.367,44.434,-0.488,0.977,0
1484987571.239,-4.883,20.508,41.992,8.789,3.906,0
1484987571.243,2.441,34.668,25.391,17.578,31.250,0
1484987571.246,-6.348,41.992,32.227,0.977,9.766,0
1484987571.250,-0.977,53.223,29.297,0.000,-14.648,0
1484987571.254,-0.977,69.824,23.438,7.812,-13.672,0
1484987571.258,-0.488,62.012,24.414,8.789,8.301,0
1484987571.262,-6.836,30.273,28.809,-2.441,6.348,0
1484987571.266,-13.184,21.973,25.391,1.465,-28.320,0
1484987571.270,-11.230,45.898,34.668,11.230,-12.695,0
1484987571.274,-0.977,32.227,39.551,3.906,20.508,0
1484987571.278,14.648,17.090,26.367,11.230,19.043,0
1484987571.282,16.602,39.551,24.414,17.090,-31.250,0
1484987571.285,4.883,55.664,26.855,10.254,-23.926,0
1484987571.289,1.953,57.617,34.180,15.137,25.879,0
1484987571.293,12.695,61.523,34.180,26.367,16.602,0
1484987571.297,-7.324,64.453,37.109,20.996,4.395,0
1484987571.301,-8.301,59.570,46.875,15.137,32.227,0
1484987571.305,5.371,43.945,43.945,21.973,28.320,0
1484987571.309,11.719,19.043,33.691,33.203,5.371,0
1484987571.313,23.926,20.508,33.691,36.621,22.461,0
1484987571.317,20.996,40.527,45.410,31.738,29.785,0
1484987571.321,22.949,59.082,38.086,32.227,24.902,0
1484987571.325,21.973,64.453,36.621,27.344,0.977,0
1484987571.328,9.277,41.504,45.410,15.137,-9.766,0
1484987571.332,11.719,20.020,39.062,17.090,10.254,0
1484987571.336,16.113,20.508,38.574,24.902,27.344,0
1484987571.340,0.000,30.273,46.387,22.949,-12.695,0
1484987571.344,10.742,36.621,46.875,20.996,-31.738,0
1484987571.348,23.438,36.621,44.922,30.762,12.695,0
1484987571.352,16.113,40.039,41.504,31.738,19.531,0
1484987571.356,19.531,44.434,50.781,20.508,17.090,0
1484987571.360,25.391,41.016,48.340,18.555,17.578,0
1484987571.364,18.555,46.387,37.109,23.926,41.504,0
1484987571.368,14.648,40.527,44.922,24.902,40.527,0
1484987571.371,9.277,52.246,50.781,20.508,19.043,0
1484987571.375,12.207,68.359,45.898,19.043,17.578,0
1484987571.379,26.855,65.918,40.527,28.809,32.715,0
1484987571.383,30.762,66.406,46.875,25.879,32.227,0
1484987571.387,30.273,74.707,47.363,30.762,11.719,0
1484987571.391,23.438,78.613,51.270,39.062,25.879,0
1484987571.395,11.230,70.801,48.340,22.461,53.711,0
1484987571.399,17.090,56.641,42.969,27.344,39.062,0
1484987571.403,19.531,42.480,48.340,38.086,18.555,0
1484987571.407,13.672,41.992,44.434,34.180,45.898,0
1484987571.410,10.254,40.039,47.852,32.227,36.621,0
1484987571.414,15.625,50.781,45.898,29.785,24.414,0
1484987571.418,18.555,55.176,48.340,18.066,22.461,0
1484987571.422,19.531,36.621,49.805,11.230,20.996,0
1484987571.426,33.691,31.738,45.410,35.156,22.949,0
1484987571.430,35.156,47.363,44.434,44.434,-0.488,0
1484987571.434,23.926,56.152,47.852,33.691,33.203,0
1484987571.438,11.719,52.734,47.852,27.344,45.410,0
1484987571.442,14.160,54.199,40.527,23.926,41.016,0
1484987571.446,22.461,49.805,41.992,29.785,29.785,0
1484987571.450,22.949,47.363,45.898,31.250,20.508,0
1484987571.453,20.020,55.664,45.410,21.973,35.645,0
1484987571.457,9.766,51.758,46.875,8.789,54.199,0
1484987571.461,11.719,46.875,41.992,20.020,64.453,0
1484987571.465,14.648,48.828,39.551,30.273,21.973,0
1484987571.469,13.672,47.363,43.457,27.832,-3.906,0
1484987571.473,11.719,36.133,46.875,25.879,37.598,0
1484987571.477,6.348,34.668,50.293,18.555,21.973,0
1484987571.481,1.465,60.547,48.340,12.207,12.695,0
1484987571.485,6.836,75.684,41.016,16.113,54.199,0
1484987571.489,2.441,65.430,47.363,19.043,39.062,0
1484987571.493,5.859,56.641,56.641,20.020,30.762,0
1484987571.496,8.301,58.105,47.363,27.832,47.852,0
1484987571.500,4.395,58.105,42.480,16.602,78.125,0
1484987571.504,9.766,59.082,44.434,4.883,77.148,0
1484987571.508,5.371,50.293,44.434,10.254,47.852,0
1484987571.512,3.418,35.645,50.781,14.648,44.434,0
1484987571.516,3.418,40.527,43.945,16.602,43.945,0
1484987571.520,0.000,56.152,41.504,16.113,20.996,0
1484987571.524,4.395,62.988,49.805,17.090,-2.441,0
1484987571.528,0.000,56.641,49.805,-3.906,35.156,0
1484987571.532,-12.207,41.016,51.758,-10.742,42.480,0
1484987571.535,-7.812,40.039,45.410,11.719,23.438,0
1484987571.539,-1.953,53.223,44.434,11.230,36.621,0
1484987571.543,-6.836,41.016,46.387,2.930,18.066,0
1484987571.547,-5.859,33.203,41.992,-0.488,7.812,0
1484987571.551,-6.348,39.551,43.457,-0.977,35.645,0
1484987571.555,-5.371,36.133,49.316,-5.371,41.504,0
1484987571.559,-0.977,40.039,48.340,-4.883,41.992,0
1484987571.563,-3.418,47.363,36.133,8.301,41.016,0
1484987571.567,-4.883,56.152,25.879,17.578,5.371,0
1484987571.571,-14.160,59.082,32.227,11.719,16.113,0
1484987571.575,-16.113,43.457,41.992,7.812,58.105,0
1484987571.578,-12.695,29.785,35.156,-0.977,41.992,0
1484987571.582,0.488,20.996,28.809,0.000,27.832,0
1484987571.586,20.020,21.973,36.133,4.883,71.289,0
1484987571.590,20.508,25.879,47.363,-9.277,88.867,0
1484987571.594,8.301,30.273,45.410,-10.742,52.246,0
1484987571.598,-2.441,38.574,35.645,-18.066,43.945,0
1484987571.602,-5.371,34.668,25.879,-14.648,56.641,0
1484987571.606,-11.230,29.785,25.879,-3.906,28.809,0
1484987571.610,-12.207,14.160,41.504,-9.277,2.441,0
1484987571.614,-5.859,21.484,39.551,-1.953,13.672,0
1484987571.618,-9.277,26.855,29.297,2.930,34.180,0
1484987571.621,-3.418,15.625,30.273,6.348,48.340,0
1484987571.625,0.488,24.414,28.320,-2.441,58.105,0
1484987571.629,-0.977,24.902,39.062,-1.953,52.734,0
1484987571.633,5.371,17.090,51.270,11.230,29.297,0
1484987571.637,2.441,17.090,43.945,14.648,42.969,0
1484987571.641,-14.648,33.691,37.109,7.812,37.109,0
1484987571.645,-20.996,41.504,32.227,1.953,13.184,0
1484987571.649,-5.371,25.391,28.809,-3.906,39.062,0
1484987571.653,5.371,3.906,40.527,3.906,47.363,0
1484987571.657,-17.090,7.324,55.664,-2.930,43.945,0
1484987571.660,-15.137,20.996,40.039,3.418,62.012,0
1484987571.664,9.766,23.926,25.879,24.902,39.551,0
1484987571.668,8.301,29.297,30.762,16.602,-10.254,0
1484987571.672,1.465,18.555,34.180,16.113,-33.203,0
1484987571.676,10.254,13.672,38.574,26.367,6.836,0
1484987571.680,9.766,22.461,41.016,19.531,20.508,0
1484987571.684,6.348,17.578,47.852,23.926,3.906,0
1484987571.688,15.137,17.578,45.410,28.320,-13.184,0
1484987571.692,17.090,36.133,37.109,25.391,22.949,0
1484987571.696,-0.977,41.504,38.574,11.230,47.852,0
1484987571.700,0.000,26.855,28.320,9.277,43.457,0
1484987571.703,5.859,38.574,29.785,17.090,37.598,0
1484987571.707,3.418,50.781,36.621,10.254,25.879,0
1484987571.711,1.465,44.922,30.762,7.812,28.320,0
1484987571.715,3.906,54.688,19.043,10.742,6.836,0
1484987571.719,13.184,61.523,25.879,10.742,12.695,0
1484987571.723,17.090,68.359,29.785,14.648,48.340,0
1484987571.727,11.719,84.473,33.691,19.531,65.430,0
1484987571.731,2.930,76.660,27.832,17.090,37.109,0
1484987571.735,0.000,58.105,18.555,6.836,18.066,0
1484987571.739,12.207,53.223,20.508,10.742,49.805,0
1484987571.743,15.137,63.965,23.926,16.113,38.086,0
1484987571.746,13.672,69.336,33.691,15.137,27.832,0
1484987571.750,17.090,52.734,28.809,14.648,23.926,0
1484987571.754,12.207,52.734,24.902,25.879,46.875,0
1484987571.758,8.789,65.430,35.156,26.367,43.945,0
1484987571.762,13.672,59.570,36.133,10.742,4.395,0
1484987571.766,7.324,52.734,31.250,10.742,39.062,0
1484987571.770,-3.906,49.805,45.410,11.719,58.105,0
1484987571.774,7.324,56.152,45.898,19.043,28.320,0
1484987571.778,4.395,64.453,42.480,6.836,11.230,0
1484987571.782,2.930,62.988,53.223,14.648,39.062,0
1484987571.785,16.113,56.641,65.430,31.250,38.574,0
1484987571.789,26.367,55.176,69.824,29.297,15.137,0
1484987571.793,21.973,53.223,59.082,34.180,28.809,0
1484987571.797,28.320,52.734,61.035,43.457,33.691,0
1484987571.801,54.199,72.266,78.613,57.129,23.926,0
1484987571.805,58.105,67.871,85.938,55.664,31.250,0
1484987571.809,48.340,43.457,80.078,50.781,7.324,0
1484987571.813,43.457,48.828,80.078,51.270,-2.930,0
1484987571.817,32.715,46.387,65.430,41.504,33.691,0
1484987571.821,24.414,25.391,43.945,29.297,44.922,0
1484987571.825,41.016,36.133,50.293,36.133,48.340,0
1484987571.828,34.180,45.410,56.152,27.344,32.715,0
1484987571.832,24.902,51.758,54.199,26.367,21.973,0
1484987571.836,33.203,46.387,62.012,40.039,54.199,0
1484987571.840,32.227,29.297,60.547,37.109,33.203,0
1484987571.844,27.344,27.344,49.805,21.973,18.066,0
1484987571.848,21.484,25.391,41.992,27.832,14.648,0
1484987571.852,13.672,25.391,54.199,37.598,-12.695,0
1484987571.856,16.602,14.160,47.363,33.203,31.738,0
1484987571.860,16.602,8.301,25.879,17.578,43.457,0
1484987571.864,35.156,57.129,54.199,39.062,-10.742,0
1484987571.868,70.801,97.168,92.285,80.566,-39.551,0
1484987571.871,63.965,83.984,87.402,69.824,11.230,0
1484987571.875,31.738,47.852,61.523,39.062,31.738,0
1484987571.879,-9.277,16.602,33.203,5.371,-7.812,0
1484987571.883,-11.230,0.000,14.160,-1.465,-23.926,0
1484987571.887,6.348,-4.395,23.926,15.625,4.395,0
1484987571.891,-2.930,-0.488,33.691,16.113,-2.930,0
1484987571.895,10.742,2.441,24.902,21.484,-25.391,0
1484987571.899,23.438,18.555,19.531,22.949,-46.875,0
1484987571.903,19.531,20.996,19.043,17.578,-14.160,0
1484987571.907,24.414,14.648,19.043,28.809,22.949,0
1484987571.910,24.902,21.973,24.414,31.738,-11.719,0
1484987571.914,19.531,7.324,30.762,33.691,-8.789,0
1484987571.918,18.555,-13.184,32.715,36.133,26.367,0
1484987571.922,16.113,0.488,33.691,25.879,3.418,0
1484987571.926,18.555,35.156,39.062,22.461,-2.930,0
1484987571.930,10.254,47.363,44.922,15.625,2.441,0
1484987571.934,9.277,50.293,31.250,12.207,1.953,0
1484987571.938,-2.441,41.992,42.969,16.113,-3.418,0
1484987571.942,-11.719,41.016,50.781,3.906,10.254,0
1484987571.946,16.113,53.711,21.973,16.602,13.184,0
1484987571.950,12.207,53.711,25.879,33.691,27.832,0
1484987571.953,13.184,37.109,30.273,36.133,37.598,0
1484987571.957,18.555,24.902,32.227,26.855,-10.742,0
1484987571.961,25.391,31.250,36.133,29.785,-13.184,0
1484987571.965,27.832,27.832,33.691,38.574,16.602,0
1484987571.969,26.367,23.926,33.203,35.645,1.953,0
1484987571.973,28.809,24.902,32.715,33.203,-13.184,0
1484987571.977,20.020,27.344,25.391,32.227,8.301,0
1484987571.981,26.367,27.344,30.273,36.621,20.508,0
1484987571.985,36.133,36.621,36.621,39.062,18.555,0
1484987571.989,33.691,49.805,33.203,41.504,33.203,0
1484987571.993,35.645,45.410,40.527,41.016,55.664,0
1484987571.996,30.273,44.434,42.969,37.598,63.965,0
1484987572.000,20.508,53.711,36.133,32.227,28.320,0
1484987572.004,20.996,38.086,39.062,21.973,-0.977,0
1484987572.008,17.090,24.414,37.109,32.715,6.348,0
1484987572.012,15.137,30.762,43.945,49.316,25.879,0
1484987572.016,27.344,49.316,47.363,44.434,35.156,0
1484987572.020,33.203,61.523,38.574,43.945,32.227,0
1484987572.024,22.461,54.688,38.574,26.367,46.875,0
1484987572.028,23.438,44.434,36.133,23.926,16.113,0
1484987572.032,25.879,53.711,33.691,34.668,-4.395,0
1484987572.035,18.555,52.734,34.668,27.832,23.438,0
1484987572.039,25.879,47.363,31.738,31.250,21.484,0
1484987572.043,30.762,56.641,30.273,30.273,-11.230,0
1484987572.047,25.391,59.570,33.203,21.484,-15.137,0
1484987572.051,25.391,63.477,41.992,17.578,8.301,0
1484987572.055,18.555,76.660,48.828,22.949,44.922,0
1484987572.059,20.508,91.309,43.945,36.621,33.691,0
1484987572.063,28.809,100.586,28.320,41.504,-2.930,0
1484987572.067,34.668,94.727,41.016,44.434,21.484,0
1484987572.071,37.109,87.891,43.945,37.598,17.578,0
1484987572.075,32.227,83.984,39.062,37.109,18.066,0
1484987572.078,30.273,71.777,43.457,46.875,42.480,0
1484987572.082,25.879,67.383,43.457,40.527,17.090,0
1484987572.086,39.551,65.430,51.270,41.016,16.602,0
1484987572.090,40.039,60.547,55.664,49.805,-9.277,0
1484987572.094,20.020,66.406,48.340,26.855,-26.855,0
1484987572.098,22.461,64.453,53.711,21.973,-8.789,0
1484987572.102,15.625,60.059,67.871,36.621,3.418,0
1484987572.106,7.812,65.430,70.312,26.367,-1.953,0
1484987572.110,28.809,67.871,59.082,35.645,-10.742,0
1484987572.114,51.270,66.895,51.758,55.176,21.484,0
1484987572.118,49.316,64.941,47.852,51.758,17.090,0
1484987572.121,35.156,69.336,49.805,42.480,0.000,0
1484987572.125,30.273,67.871,61.035,41.016,22.461,0
1484987572.129,27.344,67.871,61.523,44.434,27.832,0
1484987572.133,26.367,74.707,60.547,52.246,28.809,0
1484987572.137,28.320,86.426,65.430,45.410,-15.625,0
1484987572.141,32.227,86.426,56.641,33.203,-19.043,0
1484987572.145,30.762,61.523,61.523,45.410,7.324,0
1484987572.149,30.273,48.340,67.383,49.316,-17.578,0
1484987572.153,27.832,66.406,74.219,37.109,4.395,0
1484987572.157,36.621,74.707,76.172,25.879,0.488,0
1484987572.160,36.621,59.570,72.754,21.484,-22.461,0
1484987572.164,28.809,47.363,63.477,39.062,2.930,0
1484987572.168,34.668,34.180,60.547,52.246,-5.371,0
1484987572.172,38.086,29.785,62.988,57.617,7.324,0
1484987572.176,40.039,43.945,59.570,55.664,19.043,0
1484987572.180,37.598,52.246,66.406,53.223,-13.672,0
1484987572.184,32.227,58.105,66.895,58.105,2.441,0
1484987572.188,27.832,57.129,62.500,49.805,29.785,0
1484987572.192,34.180,48.340,60.059,55.176,34.668,0
1484987572.196,31.738,30.762,73.730,48.340,-5.859,0
1484987572.200,31.250,32.227,81.543,45.898,-20.508,0
1484987572.203,31.250,43.945,74.219,64.941,38.086,0
1484987572.207,37.598,60.547,91.309,74.219,52.246,0
1484987572.211,71.777,91.309,118.164,98.145,31.250,0
1484987572.215,83.984,102.539,118.164,102.051,40.039,0
1484987572.219,86.426,101.562,109.863,108.398,51.758,0
1484987572.223,98.145,93.262,110.352,116.699,50.781,0
1484987572.227,92.773,69.336,112.793,101.562,27.344,0
1484987572.231,94.727,61.523,108.887,101.562,46.875,0
1484987572.235,92.773,77.637,105.957,104.004,71.289,0
1484987572.239,88.379,53.711,106.934,99.609,60.547,0
1484987572.243,89.355,38.574,107.910,99.121,44.922,0
1484987572.246,94.727,65.918,94.727,103.516,45.410,0
1484987572.250,94.727,90.332,102.539,97.656,67.871,0
1484987572.254,60.547,85.449,89.355,75.195,37.598,0
1484987572.258,52.246,92.773,92.773,69.336,22.949,0
1484987572.262,72.266,104.004,104.980,83.984,34.668,0
1484987572.266,85.938,96.680,107.422,96.680,23.438,0
1484987572.270,91.309,96.680,118.164,105.957,19.531,0
1484987572.274,91.797,94.238,116.211,104.004,5.371,0
1484987572.278,96.191,90.820,112.305,85.449,40.039,0
1484987572.282,99.609,88.867,105.469,93.750,46.875,0
1484987572.285,93.262,83.008,107.910,99.609,7.324,0
1484987572.289,79.590,81.543,99.609,75.684,31.738,0
1484987572.293,83.008,80.566,97.168,79.102,36.621,0
1484987572.297,90.820,87.402,83.008,92.773,19.043,0
1484987572.301,81.543,74.707,76.660,88.379,8.789,0
1484987572.305,83.984,47.363,85.938,90.332,42.480,0
1484987572.309,73.242,40.039,83.008,88.867,62.988,0
1484987572.313,63.477,58.594,85.449,87.402,18.066,0
1484987572.317,75.684,82.520,84.961,93.750,-11.719,0
1484987572.321,76.172,96.680,81.055,91.309,-28.320,0
1484987572.325,68.848,84.473,80.566,77.148,-7.812,0
1484987572.328,54.688,43.945,71.289,64.453,-0.488,0
1484987572.332,40.527,26.367,50.781,58.105,-15.625,0
1484987572.336,37.109,22.461,36.133,52.246,8.301,0
1484987572.340,32.715,21.484,34.180,46.875,13.184,0
1484987572.344,15.137,14.160,24.414,27.344,3.906,0
1484987572.348,1.465,-14.160,18.066,2.930,6.836,0
1484987572.352,14.648,-20.996,17.578,17.090,6.348,0
1484987572.356,21.973,-4.395,21.973,24.902,-14.160,0
1484987572.360,7.324,2.930,23.438,7.812,-9.766,0
1484987572.364,11.230,-3.418,25.391,25.391,-9.766,0
1484987572.368,23.438,1.465,40.039,43.457,-11.230,0
1484987572.371,14.648,4.883,30.762,30.273,-9.766,0
1484987572.375,4.883,-5.859,26.367,8.789,-54.688,0
1484987572.379,15.625,-14.160,27.344,11.719,-61.523,0
1484987572.383,23.926,-28.320,29.297,20.996,-17.090,0
1484987572.387,26.367,-41.992,27.832,29.297,19.043,0
1484987572.391,22.461,-28.809,13.184,25.879,-6.836,0
1484987572.395,11.719,2.441,10.742,13.184,-40.039,0
1484987572.399,10.742,0.488,7.812,15.137,-20.996,0
1484987572.403,7.324,-6.836,8.301,12.207,27.832,0
1484987572.407,5.371,-1.465,20.996,16.113,2.441,0
1484987572.410,12.695,6.348,20.996,28.320,-13.184,0
1484987572.414,20.996,1.465,22.949,32.227,-7.324,0
1484987572.418,25.879,1.465,32.715,39.062,-25.391,0
1484987572.422,28.809,2.930,38.574,34.180,-0.977,0
1484987572.426,17.090,-20.020,45.898,18.066,-11.230,0
1484987572.430,9.277,-20.508,31.250,24.902,-27.832,0
1484987572.434,20.508,-9.766,27.344,36.621,-15.625,0
1484987572.438,24.414,-20.020,42.480,34.180,-50.293,0
1484987572.442,37.109,-3.906,45.898,37.109,-36.133,0
1484987572.446,43.457,10.254,52.734,31.738,21.484,0
1484987572.450,43.945,6.836,50.781,28.320,-8.789,0
1484987572.453,52.246,7.324,48.340,38.574,-39.551,0
1484987572.457,40.039,2.441,53.223,41.016,13.184,0
1484987572.461,34.180,-6.348,49.316,52.734,35.156,0
1484987572.465,20.020,-8.301,38.086,37.109,-19.531,0
1484987572.469,7.324,28.809,40.527,23.926,-34.668,0
1484987572.473,27.344,54.199,46.875,48.828,-0.488,0
1484987572.477,42.480,52.246,61.523,53.711,5.371,0
1484987572.481,29.297,32.227,63.477,34.668,18.555,0
1484987572.485,17.578,11.230,45.410,40.527,29.297,0
1484987572.489,39.062,16.113,37.598,57.617,58.594,0
1484987572.493,47.363,11.230,52.734,52.734,52.246,0
1484987572.496,42.969,18.555,62.012,55.664,-5.859,0
1484987572.500,59.082,51.270,65.430,60.059,-18.066,0
1484987572.504,52.734,52.734,67.871,58.105,25.391,0
1484987572.508,41.016,41.992,66.406,62.012,22.461,0
1484987572.512,49.805,53.223,77.637,66.406,-13.672,0
1484987572.516,59.082,53.711,81.055,75.684,1.953,0
1484987572.520,46.387,39.551,84.961,64.453,17.578,0
1484987572.524,28.320,29.785,74.219,26.367,17.090,0
1484987572.528,35.156,24.902,73.730,22.949,32.227,0
1484987572.532,44.922,6.348,97.168,52.246,36.621,0
1484987572.535,32.227,-4.395,90.332,49.805,58.594,0
1484987572.539,19.531,8.301,81.055,44.434,41.016,0
1484987572.543,28.320,18.555,80.566,54.688,22.949,0
1484987572.547,18.066,9.277,84.961,33.691,10.254,0
1484987572.551,21.484,13.672,77.148,38.086,1.953,0
1484987572.555,26.367,12.207,75.195,51.758,-3.418,0
1484987572.559,12.207,15.625,82.031,34.668,-17.578,0
1484987572.563,21.484,12.695,83.496,51.270,18.066,0
1484987572.567,42.480,5.371,83.496,76.172,21.973,0
1484987572.571,47.852,26.367,81.055,73.242,6.348,0
1484987572.575,40.527,33.691,72.266,63.965,5.371,0
1484987572.578,41.992,18.066,71.777,61.035,24.414,0
1484987572.582,38.574,11.719,90.820,64.941,36.621,0
1484987572.586,44.434,22.461,95.215,74.219,26.367,0
1484987572.590,60.059,35.156,91.797,88.867,48.828,0
1484987572.594,57.129,31.738,96.680,87.891,48.828,0
1484987572.598,43.945,12.695,103.516,81.543,0.977,0
1484987572.602,51.270,22.461,102.051,84.961,-27.344,0
1484987572.606,54.199,41.992,90.820,72.754,11.719,0
1484987572.610,43.457,47.852,86.914,49.805,40.039,0
1484987572.614,47.363,44.434,87.891,60.059,18.066,0
1484987572.618,50.781,28.809,90.332,73.242,19.531,0
1484987572.621,55.664,13.672,97.168,73.242,40.527,0
1484987572.625,57.129,11.719,87.402,77.637,52.734,0
1484987572.629,55.176,25.391,81.055,64.941,40.039,0
1484987572.633,49.805,48.828,90.820,65.918,20.020,0
1484987572.637,61.523,53.223,100.098,85.938,57.129,0
1484987572.641,72.754,49.805,107.910,85.938,50.293,0
1484987572.645,76.660,59.570,96.191,86.426,20.508,0
1484987572.649,59.082,45.898,77.637,68.359,-5.859,0
1484987572.653,51.270,45.410,77.148,65.918,43.457,0
1484987572.657,64.453,39.551,96.191,79.590,68.848,0
1484987572.660,62.012,7.324,95.215,86.426,36.133,0
1484987572.664,55.664,28.809,101.074,91.309,34.668,0
1484987572.668,43.457,56.152,96.680,74.219,26.855,0
1484987572.672,43.457,50.781,71.777,69.824,37.109,0
1484987572.676,42.969,42.969,78.125,60.547,39.062,0
1484987572.680,41.992,33.203,73.242,62.012,27.344,0
1484987572.684,42.969,23.438,75.195,82.031,42.969,0
1484987572.688,42.969,14.648,83.496,81.055,22.949,0
1484987572.692,39.551,0.977,89.355,79.102,1.465,0
1484987572.696,50.781,1.465,86.914,76.660,39.062,0
1484987572.700,51.270,25.391,71.289,68.848,62.988,0
1484987572.703,28.320,53.223,71.777,66.406,46.387,0
1484987572.707,35.156,68.848,84.961,67.871,41.016,0
1484987572.711,54.199,64.941,92.285,78.613,28.809,0
1484987572.715,55.176,62.988,101.074,83.496,6.348,0
1484987572.719,65.430,60.547,117.676,88.867,21.973,0
1484987572.723,66.406,49.805,109.375,95.215,56.152,0
1484987572.727,63.965,49.805,105.957,99.121,50.293,0
1484987572.731,76.172,29.297,116.699,104.980,4.395,0
1484987572.735,65.430,6.348,110.840,95.703,-18.066,0
1484987572.739,53.223,18.066,98.145,73.242,-24.414,0
1484987572.743,50.781,26.367,95.703,62.988,20.996,0
1484987572.746,39.551,32.715,98.145,76.172,37.598,0
1484987572.750,37.598,25.391,95.215,76.660,5.859,0
1484987572.754,50.293,27.344,84.961,78.613,-7.324,0
1484987572.758,54.199,33.203,77.637,79.590,-2.441,0
1484987572.762,55.664,35.645,87.891,88.379,7.812,0
1484987572.766,55.176,44.922,97.656,91.797,-1.465,0
1484987572.770,41.992,51.270,91.309,89.355,6.348,0
1484987572.774,56.152,48.828,92.285,101.074,18.066,0
1484987572.778,56.152,15.625,95.215,97.168,12.695,0
1484987572.782,46.387,-2.441,91.309,93.262,10.742,0
1484987572.785,65.918,5.859,92.285,97.168,-2.441,0
1484987572.789,62.988,-4.395,80.078,85.449,32.227,0
1484987572.793,62.988,9.766,90.332,86.426,48.340,0
1484987572.797,78.613,66.895,106.934,104.492,-9.277,0
1484987572.801,76.172,93.262,96.191,113.281,-18.066,0
1484987572.805,52.246,68.359,92.285,95.703,11.230,0
1484987572.809,46.875,44.922,103.027,87.402,23.438,0
1484987572.813,54.688,34.668,79.102,90.820,17.090,0
1484987572.817,43.945,36.133,65.918,85.449,5.371,0
1484987572.821,35.156,60.059,83.496,83.984,11.230,0
1484987572.825,52.734,58.105,87.891,83.496,-19.531,0
1484987572.828,55.664,24.414,75.684,89.355,-40.039,0
1484987572.832,38.574,23.926,65.918,81.543,8.301,0
1484987572.836,27.832,37.109,62.500,66.895,30.273,0
1484987572.840,27.832,45.898,60.547,69.824,15.137,0
1484987572.844,24.414,47.852,62.012,58.594,-17.090,0
1484987572.848,38.086,45.410,64.453,55.176,4.883,0
1484987572.852,51.758,57.617,77.637,78.613,12.207,0
1484987572.856,62.500,62.988,98.633,95.703,-2.930,0
1484987572.860,54.199,49.805,76.660,83.984,6.836,0
1484987572.864,37.109,37.598,71.777,66.406,30.273,0
1484987572.868,53.711,27.832,76.660,81.055,20.996,0
1484987572.871,60.059,41.992,76.172,93.262,-6.348,0
1484987572.875,51.270,49.316,75.195,83.496,-2.930,0
1484987572.879,45.410,29.297,64.941,73.242,-1.465,0
1484987572.883,46.875,42.969,84.473,73.730,-3.418,0
1484987572.887,48.828,49.316,98.145,73.730,-42.480,0
1484987572.891,38.574,42.969,73.242,60.059,-0.488,0
1484987572.895,14.160,34.668,49.316,43.457,37.598,0
1484987572.899,25.879,41.504,54.688,56.641,-6.836,0
1484987572.903,37.598,43.457,46.875,61.523,-23.438,0
1484987572.907,26.367,20.996,40.039,47.363,5.371,0
1484987572.910,21.973,14.648,48.340,47.363,33.203,0
1484987572.914,11.230,15.625,47.363,36.133,26.855,0
1484987572.918,18.066,13.184,38.086,42.969,17.090,0
1484987572.922,25.879,15.625,37.598,45.898,29.297,0
1484987572.926,15.137,7.812,41.992,37.598,38.574,0
1484987572.930,20.996,4.395,52.734,54.688,9.766,0
1484987572.934,26.855,14.648,52.734,47.852,-12.207,0
1484987572.938,18.555,18.066,46.875,38.574,10.254,0
1484987572.942,22.949,9.277,64.941,50.293,13.672,0
1484987572.946,40.527,-3.906,72.754,64.453,17.090,0
1484987572.950,48.340,-8.789,79.102,68.848,18.066,0
1484987572.953,44.434,10.742,83.496,70.801,15.137,0
1484987572.957,39.062,41.504,67.871,68.848,15.137,0
1484987572.961,48.340,44.922,57.617,61.523,20.020,0
1484987572.965,40.039,7.324,52.246,52.734,25.879,0
1484987572.969,37.109,-18.066,67.383,60.547,40.039,0
1484987572.973,34.180,-18.066,78.613,58.594,32.715,0
1484987572.977,19.531,-10.742,52.734,46.875,5.371,0
1484987572.981,26.855,29.297,53.223,52.246,10.254,0
1484987572.985,30.762,53.223,64.941,58.594,42.969,0
1484987572.989,50.781,59.570,69.824,72.754,20.996,0
1484987572.993,55.176,52.734,79.590,69.824,-1.465,0
1484987572.996,39.551,31.250,78.613,54.199,8.789,0
1484987573.000,41.016,-5.859,67.383,54.688,37.598,0
1484987573.004,24.902,-36.133,51.758,34.668,36.133,0
1484987573.008,26.855,-1.953,53.223,27.344,4.883,0
1484987573.012,13.184,31.738,42.969,16.113,10.254,0
1484987573.016,-8.301,31.250,30.762,13.672,-4.883,0
1484987573.020,-16.113,7.812,38.574,5.371,-20.996,0
1484987573.024,-19.531,11.230,46.387,0.977,-17.090,0
1484987573.028,-6.836,24.902,48.340,21.484,45.898,0
1484987573.032,-9.277,12.207,50.293,10.742,59.570,0
1484987573.035,-26.367,9.766,55.664,-6.348,42.480,0
1484987573.039,-29.297,27.832,45.410,-8.789,61.523,0
1484987573.043,-29.785,42.480,29.297,-8.301,60.547,0
1484987573.047,-28.320,44.434,33.691,-7.324,26.367,0
1484987573.051,-32.715,34.180,41.504,-16.113,2.441,0
1484987573.055,-31.250,16.113,51.758,-14.160,48.340,0
1484987573.059,-25.391,26.855,46.875,-3.418,94.727,0
1484987573.063,-33.203,34.180,50.293,3.906,42.969,0
1484987573.067,-25.391,23.926,61.035,9.277,1.465,0
1484987573.071,-5.859,31.250,61.523,12.695,55.664,0
1484987573.075,-6.836,32.227,57.617,3.418,77.148,0
1484987573.078,-8.789,30.273,58.105,-1.953,42.969,0
1484987573.082,-2.930,41.992,63.477,15.137,17.578,0
1484987573.086,1.465,33.691,72.266,32.227,2.930,0
1484987573.090,16.113,29.297,94.727,34.180,50.781,0
1484987573.094,7.324,50.781,85.449,29.785,38.086,0
1484987573.098,-11.230,65.918,62.500,17.578,9.766,0
1484987573.102,-4.395,79.590,85.449,14.160,26.367,0
1484987573.106,5.371,71.777,88.867,27.832,30.273,0
1484987573.110,17.090,69.824,82.520,42.480,41.016,0
1484987573.114,12.207,73.242,83.008,41.992,27.832,0
1484987573.118,15.137,77.148,84.961,41.504,59.082,0
1484987573.121,21.973,72.266,90.820,34.668,64.941,0
1484987573.125,7.812,49.316,80.566,22.949,0.977,0
1484987573.129,10.254,47.852,82.031,24.414,12.695,0
1484987573.133,20.508,49.805,79.590,31.250,49.316,0
1484987573.137,16.602,52.246,73.730,25.879,33.691,0
1484987573.141,-15.137,52.246,82.520,10.254,28.320,0
1484987573.145,0.977,55.664,86.426,20.020,29.297,0
1484987573.149,19.531,69.336,70.801,35.156,48.828,0
1484987573.153,-2.441,45.898,70.312,31.250,32.715,0
1484987573.157,-0.488,20.508,70.801,21.973,17.090,0
1484987573.160,12.207,50.781,69.824,25.391,39.062,0
1484987573.164,16.602,62.988,68.359,27.344,30.273,0
1484987573.168,4.395,43.945,58.105,2.930,0.977,0
1484987573.172,-14.160,35.645,53.711,-18.555,1.465,0
1484987573.176,-13.184,21.973,57.617,-12.695,35.156,0
1484987573.180,-10.742,8.301,51.758,-13.184,62.988,0
1484987573.184,-10.742,19.531,44.922,-3.418,41.504,0
1484987573.188,-14.160,29.297,36.621,-0.977,20.996,0
1484987573.192,-27.344,27.832,37.598,-7.812,51.270,0
1484987573.196,-24.902,31.738,41.992,-0.488,37.109,0
1484987573.200,-20.996,35.156,38.574,-7.812,-8.301,0
1484987573.203,-16.113,41.504,48.340,-4.395,4.883,0
1484987573.207,-20.020,36.621,50.781,-2.930,-16.113,0
1484987573.211,-23.438,39.062,57.129,5.371,-20.996,0
1484987573.215,-17.578,44.434,63.477,17.090,-9.766,0
1484987573.219,-13.672,16.602,53.711,10.742,-12.695,0
1484987573.223,-12.695,4.883,49.316,10.254,13.672,0
1484987573.227,-18.555,24.414,43.945,-5.859,23.926,0
1484987573.231,-18.555,23.926,36.133,-15.625,11.230,0
1484987573.235,-20.020,10.742,41.992,-18.555,13.672,0
1484987573.239,-23.926,21.973,48.828,-7.812,28.320,0
1484987573.243,-10.254,33.691,46.875,15.137,-7.324,0
1484987573.246,-21.484,37.109,52.246,1.953,-16.602,0
1484987573.250,-20.996,51.758,47.852,3.418,-20.996,0
1484987573.254,-7.812,40.527,48.340,12.695,-12.207,0
1484987573.258,-7.324,47.363,45.410,16.602,-3.906,0
1484987573.262,-8.301,55.664,52.246,4.395,-4.395,0
1484987573.266,1.465,45.898,64.941,7.812,-17.090,0
1484987573.270,1.465,38.086,52.734,16.113,-16.602,0
1484987573.274,-15.625,21.973,35.645,1.953,26.367,0
1484987573.278,-6.836,38.086,46.875,16.602,4.395,0
1484987573.282,5.859,59.082,65.430,18.555,-13.672,0
1484987573.285,-1.953,21.484,59.570,-2.441,-20.020,0
1484987573.289,-3.906,8.789,43.945,6.348,-7.324,0
1484987573.293,0.488,42.480,58.105,24.414,3.418,0
1484987573.297,-6.348,62.012,65.918,20.996,-10.742,0
1484987573.301,-6.836,58.594,63.965,11.719,-8.789,0
1484987573.305,-3.418,51.758,76.660,21.973,-38.086,0
1484987573.309,0.488,41.016,76.660,22.949,-32.715,0
1484987573.313,13.672,36.621,71.289,24.414,-7.324,0
1484987573.317,17.578,25.879,70.312,28.809,-24.902,0
1484987573.321,-4.883,18.555,69.336,9.766,-61.035,0
1484987573.325,-25.391,33.691,69.824,-0.977,-47.363,0
1484987573.328,-21.973,29.297,59.082,2.930,-5.371,0
1484987573.332,-16.113,23.926,58.105,11.719,-32.227,0
1484987573.336,-8.301,36.133,68.359,20.020,-38.574,0
1484987573.340,2.930,36.621,69.824,24.414,-11.719,0
1484987573.344,16.113,38.574,78.125,28.320,-6.348,0
1484987573.348,12.695,62.500,79.102,19.531,-3.906,0
1484987573.352,11.230,79.590,67.871,16.113,-21.973,0
1484987573.356,15.625,83.496,65.918,20.020,-23.926,0
1484987573.360,17.090,63.477,86.426,24.414,-21.973,0
1484987573.364,8.301,35.645,87.402,26.367,-24.902,0
1484987573.368,-2.930,27.832,78.613,18.066,9.766,0
1484987573.371,-4.883,36.621,75.195,6.836,20.020,0
1484987573.375,-15.137,41.504,61.035,1.953,2.930,0
1484987573.379,-24.902,44.922,71.289,7.324,-29.785,0
1484987573.383,2.441,58.105,87.402,28.320,-38.574,0
1484987573.387,10.254,42.969,73.730,28.809,-20.508,0
1484987573.391,-3.418,23.438,67.383,13.184,-8.301,0
1484987573.395,6.348,41.504,82.031,12.695,-26.855,0
1484987573.399,8.301,43.945,75.684,16.113,-71.777,0
1484987573.403,3.418,20.020,68.848,27.344,-21.973,0
1484987573.407,10.254,11.230,75.195,41.992,40.039,0
1484987573.410,0.488,30.273,73.730,28.320,15.137,0
1484987573.414,0.488,45.898,53.711,13.672,-8.301,0
1484987573.418,11.719,55.176,56.152,21.973,-1.953,0
1484987573.422,22.949,66.406,78.125,40.039,-22.461,0
1484987573.426,34.668,71.777,89.355,49.805,-32.227,0
1484987573.430,32.227,76.172,83.984,41.992,-2.441,0
1484987573.434,25.391,63.477,67.871,34.668,-27.832,0
1484987573.438,24.414,38.086,60.547,25.391,-42.480,0
1484987573.442,26.855,43.457,60.059,27.344,-41.992,0
1484987573.446,20.996,56.152,57.617,31.738,-36.133,0
1484987573.450,5.371,28.320,71.777,15.137,-27.832,0
1484987573.453,14.160,26.367,74.707,22.461,-50.293,0
1484987573.457,20.020,57.617,57.617,40.527,-26.855,0
1484987573.461,8.301,50.781,62.012,23.926,6.348,0
1484987573.465,17.578,36.133,56.152,21.484,-12.207,0
1484987573.469,12.207,29.297,40.039,20.508,-24.414,0
1484987573.473,-2.930,14.160,38.574,7.812,-8.301,0
1484987573.477,-3.906,10.254,28.809,16.113,-6.836,0
1484987573.481,-1.465,18.555,23.438,16.602,-25.879,0
1484987573.485,-7.324,26.367,26.367,12.207,-30.273,0
1484987573.489,-2.930,29.785,29.297,12.695,-1.953,0
1484987573.493,9.766,17.578,38.574,26.367,1.465,0
1484987573.496,8.789,4.395,43.457,31.250,-10.254,0
1484987573.500,2.930,2.930,48.340,16.602,-47.363,0
1484987573.504,14.648,18.555,48.340,24.902,-61.523,0
1484987573.508,15.137,41.504,40.039,36.133,-10.254,0
1484987573.512,1.953,59.570,42.480,31.738,26.855,0
1484987573.516,4.395,43.945,47.852,29.297,12.695,0
1484987573.520,25.391,6.836,53.711,36.621,2.930,0
1484987573.524,28.809,12.207,61.523,33.691,38.574,0
1484987573.528,11.719,35.645,53.711,40.039,44.434,0
1484987573.532,9.766,47.852,48.340,33.203,17.090,0
1484987573.535,18.066,63.965,47.363,28.320,12.207,0
1484987573.539,6.348,72.266,41.016,32.227,3.906,0
1484987573.543,1.465,62.500,49.316,26.855,3.418,0
1484987573.547,21.484,54.688,53.711,41.016,-0.977,0
1484987573.551,28.809,46.875,55.664,43.945,1.953,0
1484987573.555,38.086,46.387,55.176,59.570,28.809,0
1484987573.559,33.203,59.082,75.195,64.941,27.832,0
1484987573.563,30.273,47.363,87.891,63.965,26.367,0
1484987573.567,32.715,23.438,85.938,68.359,54.199,0
1484987573.571,36.133,10.742,92.285,60.059,33.203,0
1484987573.575,41.504,32.715,84.961,64.941,3.906,0
1484987573.578,28.809,61.035,67.871,63.965,28.320,0
1484987573.582,7.812,58.105,62.500,44.922,42.480,0
1484987573.586,13.672,44.922,59.570,49.805,29.785,0
1484987573.590,32.227,36.621,67.871,55.176,33.691,0
1484987573.594,34.180,38.574,76.172,49.805,44.922,0
1484987573.598,37.598,38.086,68.359,53.711,37.598,0
1484987573.602,32.715,34.180,70.312,57.129,23.438,0
1484987573.606,20.508,30.273,72.266,61.035,-25.391,0
1484987573.610,20.020,26.367,63.965,52.734,-21.484,0
1484987573.614,12.207,14.160,72.266,31.738,8.301,0
1484987573.618,29.297,-2.441,85.938,46.387,-1.465,0
1484987573.621,48.828,-24.902,80.566,61.523,13.672,0
1484987573.625,31.250,-6.348,76.172,42.480,18.555,0
1484987573.629,35.645,22.949,94.727,43.457,29.297,0
1484987573.633,37.598,35.645,98.145,53.711,43.457,0
1484987573.637,21.973,66.406,93.750,50.781,19.043,0
1484987573.641,21.973,79.590,93.750,49.316,27.344,0
1484987573.645,26.855,69.336,80.566,48.340,50.293,0
1484987573.649,27.832,52.734,82.520,43.945,38.574,0
1484987573.653,35.156,50.293,87.402,41.992,19.531,0
1484987573.657,32.715,63.965,87.402,37.109,20.996,0
1484987573.660,22.949,64.941,76.660,30.762,40.527,0
1484987573.664,14.160,27.344,72.754,24.414,28.809,0
1484987573.668,12.695,10.742,93.750,30.273,12.695,0
1484987573.672,5.859,32.715,93.262,28.809,-6.836,0
1484987573.676,17.090,36.621,74.707,34.180,20.996,0
1484987573.680,13.672,47.852,70.801,30.273,41.504,0
1484987573.684,-0.977,55.176,71.777,20.508,20.508,0
1484987573.688,23.926,58.594,76.172,40.527,10.254,0
1484987573.692,38.086,50.293,79.590,47.363,42.969,0
1484987573.696,22.461,22.461,78.125,44.434,35.156,0
1484987573.700,8.789,1.953,57.129,31.738,38.086,0
1484987573.703,10.254,15.137,54.199,31.250,86.426,0
1484987573.707,7.812,22.949,59.570,40.039,68.848,0
1484987573.711,3.906,25.391,65.918,45.898,44.434,0
1484987573.715,27.344,50.781,73.730,66.406,41.016,0
1484987573.719,30.273,62.012,61.523,57.617,46.387,0
1484987573.723,14.648,49.805,52.246,39.062,53.223,0
1484987573.727,10.742,41.992,62.500,34.180,22.461,0
1484987573.731,14.648,47.363,70.801,38.086,10.254,0
1484987573.735,27.832,28.809,68.359,52.246,17.578,0
1484987573.739,31.250,24.902,79.590,50.293,33.203,0
1484987573.743,35.645,32.715,71.289,55.176,59.082,0
1484987573.746,45.410,19.043,58.594,67.383,56.641,0
1484987573.750,46.387,21.484,76.172,56.152,51.270,0
1484987573.754,50.293,14.160,81.055,50.781,44.434,0
1484987573.758,48.340,23.926,53.223,58.105,40.039,0
1484987573.762,43.945,41.016,54.199,43.945,29.785,0
1484987573.766,35.156,39.551,58.594,35.156,21.973,0
1484987573.770,30.273,23.438,45.898,43.945,2.930,0
1484987573.774,28.809,23.438,45.898,41.504,8.301,0
1484987573.778,19.531,44.434,56.641,37.109,30.762,0
1484987573.782,26.367,46.875,56.152,51.758,24.414,0
1484987573.785,43.457,31.250,62.988,61.035,25.391,0
1484987573.789,35.156,40.527,71.289,52.246,1.465,0
1484987573.793,39.551,36.133,65.918,48.828,8.301,0
1484987573.797,48.340,17.578,57.617,47.852,15.137,0
1484987573.801,37.109,21.973,52.246,46.875,-16.602,0
1484987573.805,29.785,30.273,52.246,37.598,1.953,0
1484987573.809,39.062,37.109,60.547,56.641,34.180,0
1484987573.813,39.062,47.852,64.941,65.918,1.465,0
1484987573.817,25.879,60.059,64.941,42.480,-29.297,0
1484987573.821,38.574,17.090,74.219,44.922,-3.906,0
1484987573.825,52.734,-3.906,74.219,61.035,12.695,0
1484987573.828,53.223,31.738,70.801,56.641,-10.742,0
1484987573.832,48.828,57.617,79.590,51.758,-21.973,0
1484987573.836,50.781,61.523,68.848,62.500,-7.324,0
1484987573.840,70.801,74.707,76.660,83.984,1.465,0
1484987573.844,71.777,63.477,103.516,82.520,0.977,0
1484987573.848,58.594,27.344,87.402,76.660,-0.977,0
1484987573.852,52.246,43.457,74.219,84.473,-7.324,0
1484987573.856,56.641,61.523,80.566,87.402,-0.488,0
1484987573.860,53.223,55.664,98.633,80.078,-8.789,0
1484987573.864,65.430,58.594,98.145,87.891,-29.297,0
1484987573.868,87.402,57.129,83.984,108.887,-3.418,0
1484987573.871,78.613,35.645,83.496,99.609,1.953,0
1484987573.875,60.547,28.809,67.871,87.402,-12.207,0
1484987573.879,48.828,33.691,59.082,78.613,-16.113,0
1484987573.883,49.805,24.902,66.406,62.988,29.297,0
1484987573.887,59.082,25.391,63.477,66.895,6.348,0
1484987573.891,52.246,24.902,61.035,73.730,-27.344,0
1484987573.895,41.016,27.344,63.965,69.336,3.906,0
1484987573.899,52.246,15.137,61.523,74.707,25.879,0
1484987573.903,48.828,-6.836,54.199,65.430,29.785,0
1484987573.907,36.621,-0.488,56.152,58.105,19.043,0
1484987573.910,30.762,6.836,46.387,52.734,25.879,0
1484987573.914,23.926,3.418,31.250,47.852,14.648,0
1484987573.918,27.344,-1.953,45.898,47.363,22.461,0
1484987573.922,39.551,4.395,47.852,47.852,37.109,0
1484987573.926,50.293,13.184,54.199,62.012,30.273,0
1484987573.930,58.594,25.879,65.918,86.426,24.902,0
1484987573.934,67.383,23.926,62.988,89.844,18.066,0
1484987573.938,59.570,10.254,63.477,68.359,13.672,0
1484987573.942,46.387,26.367,55.664,62.988,14.160,0
1484987573.946,55.664,43.945,59.570,74.219,44.434,0
1484987573.950,63.477,32.227,72.754,86.426,25.391,0
1484987573.953,69.336,5.859,88.867,94.727,-3.906,0
1484987573.957,62.988,16.602,70.801,89.355,28.320,0
1484987573.961,53.223,62.012,62.988,82.031,49.316,0
1484987573.965,61.523,74.707,78.613,82.520,20.508,0
1484987573.969,61.523,65.918,58.105,80.566,-11.719,0
1484987573.973,44.922,50.781,64.941,60.547,23.438,0
1484987573.977,53.223,45.410,73.242,70.312,25.391,0
1484987573.981,62.988,39.551,57.129,83.008,-24.414,0
1484987573.985,63.965,29.785,51.270,73.730,0.488,0
1484987573.989,67.871,33.203,56.152,80.078,42.480,0
1484987573.993,61.523,31.250,59.570,88.379,31.738,0
1484987573.996,62.500,21.973,60.547,74.707,3.418,0
1484987574.000,50.781,26.855,51.758,58.105,0.977,0
1484987574.004,42.969,20.508,56.641,60.547,32.227,0
1484987574.008,44.434,7.324,50.293,54.199,0.000,0
1484987574.012,44.434,25.391,40.527,44.434,-39.062,0
1484987574.016,51.758,43.457,50.781,55.176,7.324,0
1484987574.020,49.805,45.410,41.992,69.336,20.508,0
1484987574.024,44.434,41.504,47.852,65.430,21.973,0
1484987574.028,42.480,44.434,57.617,59.082,10.742,0
1484987574.032,67.383,61.035,63.965,88.379,0.977,0
1484987574.035,77.148,84.473,80.566,106.934,25.391,0
1484987574.039,75.195,77.637,80.078,101.562,7.812,0
1484987574.043,72.754,65.918,79.590,96.191,9.766,0
1484987574.047,66.895,66.406,75.195,88.379,13.184,0
1484987574.051,75.195,58.105,77.637,91.309,-15.137,0
1484987574.055,67.871,49.316,75.684,83.008,-18.066,0
1484987574.059,59.082,62.012,65.430,82.031,3.906,0
1484987574.063,56.641,63.965,83.984,88.867,35.645,0
1484987574.067,58.105,73.730,86.914,74.707,28.809,0
1484987574.071,59.082,76.660,60.547,77.148,14.160,0
1484987574.075,45.410,53.711,57.129,76.172,17.578,0
1484987574.078,41.992,55.176,65.918,51.270,12.207,0
1484987574.082,35.645,54.688,52.246,46.387,10.742,0
1484987574.086,26.367,35.156,39.551,58.105,-1.465,0
1484987574.090,28.809,51.758,51.270,65.430,3.906,0
1484987574.094,36.133,60.547,61.035,64.941,18.555,0
1484987574.098,41.016,42.480,56.641,68.359,26.855,0
1484987574.102,43.945,30.762,62.012,76.660,-6.348,0
1484987574.106,39.551,50.781,66.406,67.871,-17.090,0
1484987574.110,45.410,90.820,54.688,70.312,12.695,0
1484987574.114,44.922,94.238,63.477,73.242,-15.137,0
1484987574.118,48.828,83.496,72.266,81.543,-36.133,0
1484987574.121,56.152,72.266,68.359,76.660,16.602,0
1484987574.125,45.410,62.012,71.289,67.871,50.781,0
1484987574.129,42.969,62.500,74.219,69.824,39.062,0
1484987574.133,63.965,59.570,76.172,80.078,38.086,0
1484987574.137,68.359,55.176,84.473,90.820,57.617,0
1484987574.141,48.340,40.039,70.312,76.172,61.035,0
1484987574.145,43.457,40.527,50.781,69.824,11.719,0
1484987574.149,40.039,48.828,57.617,70.801,2.441,0
1484987574.153,46.875,42.480,58.594,74.707,16.602,0
1484987574.157,49.805,46.875,59.570,83.008,35.156,0
1484987574.160,54.688,55.664,67.871,81.543,27.832,0
1484987574.164,54.688,30.762,66.406,67.383,-1.465,0
1484987574.168,39.062,25.391,59.570,42.480,22.461,0
1484987574.172,45.898,46.387,52.246,52.734,46.875,0
1484987574.176,48.828,30.762,58.105,72.266,33.203,0
1484987574.180,33.691,32.715,67.871,63.477,19.531,0
1484987574.184,34.180,50.781,73.730,52.246,33.691,0
1484987574.188,40.039,49.805,58.105,45.410,33.203,0
1484987574.192,31.250,30.762,48.340,39.062,13.184,0
1484987574.196,31.250,31.250,58.105,36.621,26.855,0
1484987574.200,21.973,23.438,48.828,39.062,36.133,0
1484987574.203,20.508,16.113,42.969,51.758,0.488,0
1484987574.207,32.227,38.086,55.176,59.082,22.949,0
1484987574.211,45.898,50.293,56.641,68.359,62.500,0
1484987574.215,47.363,58.594,61.035,69.336,53.223,0
1484987574.219,37.598,62.012,64.941,54.199,36.133,0
1484987574.223,44.922,48.340,65.430,51.758,26.855,0
1484987574.227,49.805,31.738,64.453,42.969,58.594,0
1484987574.231,42.969,43.457,62.988,42.480,70.312,0
1484987574.235,49.316,66.895,55.664,57.617,32.227,0
1484987574.239,46.875,62.500,54.688,48.340,26.367,0
1484987574.243,41.016,50.781,52.734,41.016,54.688,0
1484987574.246,50.293,48.828,58.594,53.711,70.312,0
1484987574.250,41.992,36.621,62.012,51.758,49.316,0
1484987574.254,38.574,31.250,64.941,58.105,36.621,0
1484987574.258,44.434,47.363,58.594,75.195,61.523,0
1484987574.262,44.434,51.758,50.293,58.594,66.895,0
1484987574.266,61.523,38.574,65.430,42.480,41.016,0
1484987574.270,58.594,37.598,61.523,50.781,29.297,0
1484987574.274,53.711,57.617,53.223,51.270,83.984,0
1484987574.278,70.801,58.105,64.453,48.340,96.191,0
1484987574.282,70.312,45.898,61.523,60.059,43.457,0
1484987574.285,53.711,38.574,58.594,52.734,37.109,0
1484987574.289,61.523,39.062,57.129,41.016,61.523,0
1484987574.293,64.941,51.758,47.363,48.340,57.617,0
1484987574.297,42.480,61.035,45.898,36.133,57.129,0
1484987574.301,38.574,42.480,50.293,21.484,77.637,0
1484987574.305,39.062,30.762,49.316,44.922,82.031,0
1484987574.309,30.273,44.922,56.641,62.988,67.383,0
1484987574.313,38.086,43.457,53.223,65.918,44.922,0
1484987574.317,38.086,26.855,53.711,60.547,57.129,0
1484987574.321,37.598,17.578,55.664,59.082,52.734,0
1484987574.325,44.922,24.902,62.500,62.988,41.992,0
1484987574.328,45.898,27.832,55.664,63.965,39.551,0
1484987574.332,20.508,7.812,73.730,41.504,54.688,0
1484987574.336,29.297,-0.488,78.125,40.039,61.523,0
1484987574.340,45.898,33.691,42.480,56.152,36.621,0
1484987574.344,26.367,44.922,37.598,32.715,24.414,0
1484987574.348,25.879,27.832,34.668,31.738,56.641,0
1484987574.352,28.809,31.738,33.203,45.410,64.941,0
1484987574.356,24.414,51.758,31.738,37.598,54.688,0
1484987574.360,34.180,37.598,51.758,36.133,63.477,0
1484987574.364,50.293,7.324,61.523,42.480,56.152,0
1484987574.368,53.711,10.742,46.387,47.363,30.273,0
1484987574.371,50.781,34.180,53.711,58.594,51.270,0
1484987574.375,38.574,59.570,55.176,54.688,71.777,0
1484987574.379,34.668,73.242,43.945,45.410,64.453,0
1484987574.383,33.691,53.711,38.574,49.805,23.926,0
1484987574.387,22.461,14.648,40.039,43.945,-9.277,0
1484987574.391,27.344,27.344,46.387,42.480,28.809,0
1484987574.395,34.668,43.945,56.152,51.758,73.730,0
1484987574.399,29.785,30.762,45.898,32.715,76.660,0
1484987574.403,20.508,37.109,31.738,20.508,56.641,0
1484987574.407,13.672,40.527,36.133,21.973,43.457,0
1484987574.410,13.184,41.992,49.316,34.668,53.711,0
1484987574.414,20.508,48.828,51.270,32.227,53.223,0
1484987574.418,19.043,31.250,40.527,20.508,30.762,0
1484987574.422,11.719,26.855,34.180,24.902,49.316,0
1484987574.426,3.418,34.668,33.203,17.578,48.340,0
1484987574.430,16.602,49.805,46.875,30.762,13.184,0
1484987574.434,20.020,67.871,49.316,31.250,16.602,0
1484987574.438,11.230,61.523,32.715,16.113,46.875,0
1484987574.442,26.367,64.941,48.828,37.598,48.340,0
1484987574.446,31.250,55.176,41.504,32.715,45.898,0
1484987574.450,27.832,36.621,35.156,25.391,31.250,0
1484987574.453,23.438,38.574,40.039,36.621,36.133,0
1484987574.457,20.996,27.344,52.246,33.203,59.570,0
1484987574.461,23.438,20.020,55.664,39.551,59.570,0
1484987574.465,26.367,42.480,51.270,45.898,48.340,0
1484987574.469,23.438,65.430,56.152,29.785,38.574,0
1484987574.473,9.766,66.895,42.480,25.391,43.457,0
1484987574.477,8.301,62.988,55.664,47.363,60.547,0
1484987574.481,15.625,52.734,64.453,44.434,69.336,0
1484987574.485,14.648,31.738,55.176,22.461,72.754,0
1484987574.489,13.672,59.082,53.711,33.203,61.035,0
1484987574.493,2.930,76.172,45.898,21.484,32.227,0
1484987574.496,0.000,69.824,51.270,2.930,62.988,0
1484987574.500,9.277,87.402,58.594,11.719,70.801,0
1484987574.504,19.043,81.055,47.852,16.113,41.992,0
1484987574.508,26.367,64.941,54.688,29.785,50.293,0
1484987574.512,31.738,60.059,56.152,36.621,60.547,0
1484987574.516,8.789,30.762,30.762,16.113,56.152,0
1484987574.520,-24.902,10.742,32.227,-8.301,44.922,0
1484987574.524,-17.578,30.273,34.180,-9.766,50.293,0
1484987574.528,3.906,61.523,31.738,10.742,88.379,0
1484987574.532,11.719,57.129,36.621,25.879,70.801,0
1484987574.535,11.230,51.758,28.320,26.855,65.918,0
1484987574.539,-12.695,40.039,22.461,0.977,97.168,0
1484987574.543,-39.062,19.531,11.230,-25.879,98.633,0
1484987574.547,-25.879,17.090,6.348,-17.090,54.688,0
1484987574.551,1.465,36.621,34.668,14.160,30.273,0
1484987574.555,31.738,58.594,57.617,42.480,80.078,0
1484987574.559,33.691,47.852,57.617,45.898,77.637,0
1484987574.563,16.113,30.762,50.293,39.062,26.855,0
1484987574.567,17.090,34.668,54.688,38.086,7.812,0
1484987574.571,12.695,65.918,57.129,22.949,35.156,0
1484987574.575,5.371,83.496,45.898,15.625,80.566,0
1484987574.578,10.742,66.895,46.387,14.160,78.613,0
1484987574.582,-3.418,56.641,53.223,10.742,20.020,0
1484987574.586,-5.859,49.316,54.688,23.926,49.805,0
1484987574.590,12.695,45.898,47.852,35.645,79.590,0
1484987574.594,3.906,39.062,59.570,24.902,79.102,0
1484987574.598,2.441,35.156,65.918,13.672,88.867,0
1484987574.602,-0.977,56.641,41.016,15.137,58.105,0
1484987574.606,-4.395,59.082,35.645,19.043,80.566,0
1484987574.610,5.859,65.918,51.270,24.414,46.875,0
1484987574.614,14.648,63.477,72.266,20.508,34.668,0
1484987574.618,1.953,47.363,60.059,18.066,63.477,0
1484987574.621,-9.766,49.805,29.297,7.324,53.223,0
1484987574.625,5.859,57.129,52.734,15.625,41.504,0
1484987574.629,13.184,50.293,66.406,34.668,22.461,0
1484987574.633,18.555,54.199,58.594,25.391,51.270,0
1484987574.637,21.973,49.805,61.523,28.320,44.922,0
1484987574.641,19.043,33.203,61.035,40.039,22.949,0
1484987574.645,13.184,34.668,56.641,23.926,35.645,0
1484987574.649,0.977,33.691,47.363,5.859,32.715,0
1484987574.653,2.930,34.668,48.340,8.789,29.297,0
1484987574.657,9.277,32.227,51.270,15.137,19.043,0
1484987574.660,7.812,22.461,50.781,11.719,8.301,0
1484987574.664,2.930,27.344,41.504,10.742,1.953,0
1484987574.668,-4.395,35.645,46.875,7.324,3.418,0
1484987574.672,-3.906,24.414,62.012,18.555,11.230,0
1484987574.676,-16.602,3.418,36.621,13.184,16.602,0
1484987574.680,-21.484,2.441,9.766,-1.953,7.324,0
1484987574.684,-12.207,7.812,21.973,-3.418,13.672,0
1484987574.688,0.977,15.625,25.391,1.953,18.555,0
1484987574.692,1.953,24.902,26.855,2.441,33.203,0
1484987574.696,4.883,39.062,49.316,12.695,30.273,0
1484987574.700,13.184,56.152,55.664,17.578,17.578,0
1484987574.703,5.371,42.969,47.363,19.531,9.766,0
1484987574.707,0.000,41.016,50.781,24.902,-10.742,0
1484987574.711,-6.836,41.992,55.176,19.531,2.930,0
1484987574.715,-1.465,40.039,61.035,15.137,-3.906,0
1484987574.719,8.301,42.969,56.152,15.137,-39.551,0
1484987574.723,6.348,34.180,51.270,12.207,0.977,0
1484987574.727,7.812,27.832,43.457,12.207,26.367,0
1484987574.731,-6.348,14.648,50.293,-7.812,14.648,0
1484987574.735,-8.789,35.645,58.594,-8.301,-2.930,0
1484987574.739,11.230,61.523,47.363,11.230,4.883,0
1484987574.743,18.066,50.781,41.504,17.090,28.320,0
1484987574.746,13.672,26.855,41.504,7.324,3.906,0
1484987574.750,17.090,16.602,41.992,13.672,-18.066,0
1484987574.754,22.461,22.461,32.227,27.832,14.648,0
1484987574.758,15.137,31.738,29.785,16.113,35.156,0
1484987574.762,1.953,31.250,42.480,15.625,-14.160,0
1484987574.766,12.207,21.484,51.270,12.695,-23.438,0
1484987574.770,16.602,20.508,55.664,13.184,19.531,0
1484987574.774,9.766,24.414,49.316,12.207,21.484,0
1484987574.778,10.742,44.434,45.410,6.836,10.742,0
1484987574.782,8.789,54.688,41.016,13.672,45.898,0
1484987574.785,7.324,46.387,44.434,14.160,47.852,0
1484987574.789,5.371,46.387,45.410,5.371,35.645,0
1484987574.793,3.418,33.203,36.621,-4.395,27.344,0
1484987574.797,-4.395,16.113,15.625,-2.930,18.555,0
1484987574.801,4.883,25.879,22.949,20.508,12.695,0
1484987574.805,16.602,45.898,42.480,25.879,-5.371,0
1484987574.809,12.207,34.180,26.855,24.902,7.324,0
1484987574.813,10.254,13.184,20.508,11.719,38.086,0
1484987574.817,6.836,11.719,36.621,10.742,30.273,0
1484987574.821,-2.441,19.043,33.203,14.160,21.484,0
1484987574.825,-12.695,29.785,30.762,-1.953,36.133,0
1484987574.828,-10.742,42.480,27.832,-4.883,49.805,0
1484987574.832,-6.348,46.875,25.879,4.395,23.926,0
1484987574.836,-1.465,40.527,34.668,8.301,12.207,0
1484987574.840,-8.789,22.461,28.809,-2.441,13.184,0
1484987574.844,-12.207,18.555,37.109,-5.859,14.160,0
1484987574.848,0.000,25.391,32.227,-2.441,4.883,0
1484987574.852,-16.602,3.418,41.016,-9.766,-10.742,0
1484987574.856,-14.648,8.301,40.039,-1.953,-10.742,0
1484987574.860,-1.953,31.250,22.461,4.395,15.625,0
1484987574.864,-10.742,38.086,20.996,-14.160,27.832,0
1484987574.868,-0.488,44.922,30.273,1.465,14.160,0
1484987574.871,1.953,56.641,40.039,12.207,22.461,0
1484987574.875,-6.836,55.176,37.109,1.465,17.090,0
1484987574.879,-12.207,34.668,37.598,5.859,-10.254,0
1484987574.883,-10.254,34.668,39.062,13.672,3.418,0
1484987574.887,-10.254,32.227,44.434,6.836,36.621,0
1484987574.891,-13.184,24.414,44.434,4.395,54.688,0
1484987574.895,2.441,28.809,46.387,20.020,18.555,0
1484987574.899,11.719,29.297,41.992,18.066,-11.719,0
1484987574.903,9.766,26.855,28.809,15.137,13.184,0
1484987574.907,2.930,33.203,32.715,11.719,20.020,0
1484987574.910,1.465,23.926,32.227,6.348,24.902,0
1484987574.914,11.719,19.043,33.203,21.484,23.438,0
1484987574.918,11.719,27.344,37.109,31.250,34.668,0
1484987574.922,9.277,30.273,33.203,25.391,23.926,0
1484987574.926,18.555,40.527,37.109,27.832,11.230,0
1484987574.930,3.418,22.461,15.625,2.930,8.789,0
1484987574.934,-3.418,-3.418,7.324,-8.301,13.184,0
1484987574.938,2.930,16.113,25.879,-0.977,19.531,0
1484987574.942,-4.883,18.555,27.832,-3.418,-9.766,0
1484987574.946,3.906,17.090,36.621,0.977,-10.742,0
1484987574.950,8.789,22.461,32.227,-11.719,23.926,0
1484987574.953,5.859,20.508,27.344,-6.836,16.602,0
1484987574.957,-8.789,8.301,20.508,-6.348,22.949,0
1484987574.961,-20.508,5.859,20.996,-11.230,42.480,0
1484987574.965,-7.812,25.879,30.762,-0.488,29.297,0
1484987574.969,-9.766,32.715,33.203,9.766,32.227,0
1484987574.973,-9.766,38.086,39.062,16.602,15.137,0
1484987574.977,-6.348,30.273,36.133,7.324,20.508,0
1484987574.981,-8.301,22.461,34.668,10.254,41.016,0
1484987574.985,-4.395,20.996,38.086,21.484,38.574,0
1484987574.989,-1.953,24.902,34.668,25.879,18.555,0
1484987574.993,16.602,33.203,45.898,33.203,17.090,0
1484987574.996,17.578,29.785,51.270,30.762,32.715,0
1484987575.000,2.930,41.992,38.086,16.602,18.066,0
1484987575.004,8.301,46.875,38.086,24.902,23.926,0
1484987575.008,16.602,30.762,33.691,26.367,49.805,0
1484987575.012,-4.395,16.602,34.668,6.836,29.297,0
1484987575.016,-15.137,9.277,36.621,10.254,8.789,0
1484987575.020,1.953,7.324,26.855,13.672,24.414,0
1484987575.024,6.348,2.930,22.949,18.066,44.922,0
1484987575.028,9.277,8.789,23.438,22.461,22.461,0
1484987575.032,15.137,10.254,40.527,31.250,-1.465,0
1484987575.035,7.324,14.648,52.246,24.414,11.230,0
1484987575.039,7.812,36.133,38.574,14.160,6.348,0
1484987575.043,10.254,42.969,31.738,11.719,-3.906,0
1484987575.047,20.996,33.691,44.434,17.578,-11.719,0
1484987575.051,24.902,25.391,51.758,29.297,-0.488,0
1484987575.055,12.695,17.578,40.039,30.762,28.809,0
1484987575.059,0.977,18.555,33.203,20.020,9.277,0
1484987575.063,3.906,20.996,28.809,22.461,-32.715,0
1484987575.067,12.695,26.855,41.992,35.156,0.488,0
1484987575.071,11.230,31.250,54.688,22.949,45.898,0
1484987575.075,12.207,23.926,36.133,19.531,55.176,0
1484987575.078,18.066,35.645,35.156,22.949,35.645,0
1484987575.082,13.184,24.902,36.621,21.484,-0.977,0
1484987575.086,5.371,6.348,38.086,17.578,-9.766,0
1484987575.090,5.371,21.973,35.645,20.020,-12.207,0
1484987575.094,6.348,34.180,33.691,27.832,-20.996,0
1484987575.098,5.371,28.320,46.387,14.648,-12.207,0
1484987575.102,23.926,19.043,37.109,26.855,-7.812,0
1484987575.106,38.086,18.555,33.203,42.480,-20.996,0
1484987575.110,26.367,26.855,39.062,39.062,-2.930,0
1484987575.114,0.000,31.250,29.785,34.668,25.391,0
1484987575.118,7.812,-11.719,32.227,34.180,27.344,0
1484987575.121,22.461,-14.160,34.180,32.715,23.926,0
1484987575.125,16.113,27.832,33.203,28.320,-10.254,0
1484987575.129,22.461,48.828,43.457,30.762,-10.742,0
1484987575.133,36.133,62.012,43.945,51.270,22.949,0
1484987575.137,31.738,55.176,53.711,47.852,4.883,0
1484987575.141,29.297,39.551,53.223,39.551,15.137,0
1484987575.145,25.879,31.738,48.340,48.340,32.227,0
1484987575.149,39.551,22.949,68.848,52.246,26.367,0
1484987575.153,51.270,16.602,62.500,57.617,31.250,0
1484987575.157,32.715,-7.812,28.809,38.086,36.621,0
1484987575.160,15.625,-27.344,12.695,28.320,63.477,0
1484987575.164,10.254,-14.160,16.113,41.504,58.594,0
1484987575.168,13.184,1.465,21.973,34.668,19.043,0
1484987575.172,27.832,14.648,27.344,35.645,-5.371,0
1484987575.176,30.762,11.230,30.762,45.410,-5.371,0
1484987575.180,34.180,-1.465,34.668,48.828,-13.184,0
1484987575.184,43.457,-2.441,36.621,57.129,-9.766,0
1484987575.188,39.062,-5.371,35.645,52.734,51.758,0
1484987575.192,37.109,-19.043,40.039,49.805,29.297,0
1484987575.196,23.438,-13.184,55.176,47.852,-19.531,0
1484987575.200,36.621,5.859,55.176,58.594,3.906,0
1484987575.203,58.594,8.789,53.223,78.613,31.738,0
1484987575.207,36.621,3.906,48.340,63.477,13.672,0
1484987575.211,28.809,-0.488,30.273,58.594,10.254,0
1484987575.215,34.668,-9.766,31.738,58.594,3.906,0
1484987575.219,44.434,-7.324,35.156,55.176,-15.137,0
1484987575.223,64.941,1.465,39.551,72.266,0.488,0
1484987575.227,76.660,-3.906,48.828,86.426,-0.977,0
1484987575.231,68.848,-3.906,51.758,93.262,7.812,0
1484987575.235,60.059,13.184,66.895,98.145,8.301,0
1484987575.239,79.590,27.832,79.102,114.258,6.348,0
1484987575.243,90.332,35.156,79.590,124.512,9.766,0
1484987575.246,97.656,20.020,79.590,116.211,20.996,0
1484987575.250,104.492,12.695,85.938,115.234,14.648,0
1484987575.254,110.840,3.906,98.633,131.836,-5.859,0
1484987575.258,110.840,7.812,107.422,133.301,11.719,0
1484987575.262,105.957,36.621,110.352,134.766,-2.930,0
1484987575.266,106.934,47.852,105.957,138.184,-4.883,0
1484987575.270,121.582,57.617,98.633,143.066,-4.395,0
1484987575.274,136.719,65.430,105.957,149.414,0.977,0
1484987575.278,136.230,69.336,110.352,150.879,3.906,0
1484987575.282,136.230,64.941,98.633,147.461,3.418,0
1484987575.285,142.578,58.105,112.305,158.203,39.062,0
1484987575.289,148.438,50.781,122.070,165.039,26.855,0
1484987575.293,142.090,34.180,104.492,157.715,29.297,0
1484987575.297,128.418,22.461,104.980,161.133,27.344,0
1484987575.301,127.930,25.391,111.816,164.551,-11.719,0
1484987575.305,122.559,35.645,104.492,154.785,20.996,0
1484987575.309,104.980,41.016,102.051,142.578,26.367,0
1484987575.313,106.934,46.875,108.398,144.531,16.602,0
1484987575.317,104.980,63.965,108.887,139.648,-17.578,0
1484987575.321,120.117,82.520,101.074,154.785,-2.930,0
1484987575.325,126.953,75.684,108.887,162.109,69.824,0
1484987575.328,115.234,38.086,101.562,144.043,39.551,0
1484987575.332,114.746,30.762,96.680,141.602,5.859,0
1484987575.336,107.422,45.410,104.980,139.648,8.301,0
1484987575.340,108.398,55.664,104.004,134.766,20.508,0
1484987575.344,104.004,65.430,95.703,129.883,16.602,0
1484987575.348,102.051,66.895,104.004,140.625,3.418,0
1484987575.352,115.723,38.574,107.910,146.973,16.602,0
1484987575.356,112.305,28.809,102.539,150.391,43.945,0
1484987575.360,116.211,61.035,104.980,147.461,16.602,0
1484987575.364,105.469,74.707,87.402,123.535,-44.922,0
1484987575.368,95.703,74.219,76.660,129.395,-17.090,0
1484987575.371,104.492,64.941,99.609,136.719,28.809,0
1484987575.375,104.980,65.430,106.934,129.883,21.973,0
1484987575.379,105.957,76.172,87.891,121.582,13.672,0
1484987575.383,114.746,99.121,83.984,116.699,25.391,0
1484987575.387,130.859,95.703,97.168,141.602,9.277,0
1484987575.391,108.398,67.871,106.934,137.695,14.160,0
1484987575.395,72.754,74.707,98.145,110.352,41.992,0
1484987575.399,83.984,110.840,90.332,106.934,40.527,0
1484987575.403,83.984,108.398,81.543,106.445,36.133,0
1484987575.407,81.543,82.520,82.520,111.328,46.387,0
1484987575.410,83.984,86.426,89.355,114.746,35.156,0
1484987575.414,91.797,94.727,86.426,123.047,20.508,0
1484987575.418,60.059,58.105,61.523,96.680,11.719,0
1484987575.422,27.344,22.949,34.180,61.523,8.301,0
1484987575.426,38.574,26.367,40.527,64.453,3.418,0
1484987575.430,45.898,17.578,45.410,70.801,23.438,0
1484987575.434,42.480,9.766,43.457,54.688,16.602,0
1484987575.438,33.203,51.270,39.551,44.434,-14.648,0
1484987575.442,30.273,82.520,26.367,60.059,20.020,0
1484987575.446,32.227,72.266,25.879,69.336,39.551,0
1484987575.450,33.691,71.289,54.199,67.871,8.789,0
1484987575.453,36.133,70.801,66.406,68.848,-6.836,0
1484987575.457,28.320,50.293,32.227,52.734,-4.395,0
1484987575.461,20.508,55.176,34.668,40.527,7.812,0
1484987575.465,14.648,70.312,42.480,44.434,1.465,0
1484987575.469,6.836,53.223,28.809,38.574,-33.691,0
1484987575.473,13.184,42.480,26.367,46.875,-10.742,0
1484987575.477,24.902,35.156,29.785,47.852,20.996,0
1484987575.481,29.297,14.648,34.668,42.969,10.742,0
1484987575.485,22.949,30.273,37.598,45.410,26.855,0
1484987575.489,7.812,66.406,39.062,25.391,48.828,0
1484987575.493,20.508,77.148,49.805,28.320,28.809,0
1484987575.496,33.691,65.430,53.711,49.316,19.043,0
1484987575.500,26.367,37.109,38.574,47.852,29.297,0
1484987575.504,17.578,28.320,42.480,48.340,0.488,0
1484987575.508,29.297,36.621,54.199,62.012,8.789,0
1484987575.512,47.852,24.902,66.406,67.871,29.785,0
1484987575.516,36.621,46.387,62.988,63.477,29.785,0
1484987575.520,26.855,75.684,42.969,50.781,32.715,0
1484987575.524,31.250,81.543,37.598,40.039,8.789,0
1484987575.528,21.973,77.637,37.109,30.273,-3.906,0
1484987575.532,22.461,73.242,43.945,25.391,-0.977,0
1484987575.535,22.949,81.543,50.781,41.992,34.180,0
1484987575.539,6.836,68.848,52.734,38.086,8.789,0
1484987575.543,16.602,69.336,51.270,38.086,-9.766,0
1484987575.547,25.879,52.246,56.641,40.527,17.578,0
1484987575.551,26.855,1.953,61.035,43.945,9.277,0
1484987575.555,41.016,8.789,56.641,61.035,-10.254,0
1484987575.559,41.016,43.457,78.613,57.129,-2.441,0
1484987575.563,21.484,67.871,69.824,45.410,34.668,0
1484987575.567,17.578,81.055,44.922,46.875,14.648,0
1484987575.571,25.391,63.477,54.688,36.621,-22.949,0
1484987575.575,23.438,58.594,37.598,32.715,0.488,0
1484987575.578,29.785,71.289,39.551,49.805,28.809,0
1484987575.582,36.621,63.477,57.617,50.293,17.578,0
1484987575.586,25.879,34.180,50.293,42.480,24.414,0
1484987575.590,19.043,27.344,57.129,50.293,21.973,0
1484987575.594,36.133,41.992,65.918,66.406,17.578,0
1484987575.598,35.645,37.598,63.965,47.363,16.113,0
1484987575.602,8.789,18.066,40.039,21.973,-45.898,0
1484987575.606,20.020,23.438,52.246,41.016,-22.949,0
1484987575.610,47.852,55.176,70.312,58.594,38.574,0
1484987575.614,58.594,61.035,73.730,61.523,30.273,0
1484987575.618,58.105,67.871,90.332,58.105,28.809,0
1484987575.621,66.406,77.637,92.773,70.312,33.691,0
1484987575.625,51.758,42.969,62.012,68.848,20.508,0
1484987575.629,25.391,62.012,58.105,47.852,20.996,0
1484987575.633,15.625,57.129,57.129,26.367,17.090,0
1484987575.637,32.715,21.973,42.480,39.551,3.906,0
1484987575.641,39.551,22.949,44.922,40.039,16.602,0
1484987575.645,31.738,8.301,51.758,35.156,-4.395,0
1484987575.649,34.180,-10.742,59.082,48.340,6.836,0
1484987575.653,23.926,-6.348,63.477,43.457,22.949,0
1484987575.657,30.273,14.648,68.359,47.363,23.438,0
1484987575.660,38.574,23.926,63.965,36.133,10.742,0
1484987575.664,12.207,26.855,61.035,26.367,-29.297,0
1484987575.668,10.742,31.738,55.176,36.621,-4.883,0
1484987575.672,23.926,32.227,50.293,34.668,23.438,0
1484987575.676,13.184,25.879,51.270,25.879,35.156,0
1484987575.680,4.883,26.367,41.504,36.621,45.410,0
1484987575.684,6.836,23.926,33.691,52.246,37.598,0
1484987575.688,15.625,39.062,50.781,47.363,25.879,0
1484987575.692,30.273,33.691,60.547,36.621,-2.441,0
1484987575.696,33.203,6.348,52.734,39.062,-2.441,0
1484987575.700,26.367,3.418,43.457,27.832,24.902,0
1484987575.703,26.367,-12.207,44.434,23.926,25.391,0
1484987575.707,14.160,-0.488,41.504,20.508,16.113,0
1484987575.711,10.254,36.621,42.969,15.137,20.020,0
1484987575.715,11.719,22.949,60.547,21.973,21.973,0
1484987575.719,25.391,22.949,69.336,30.273,15.625,0
1484987575.723,31.250,45.898,56.641,35.645,7.812,0
1484987575.727,16.113,46.387,47.852,35.645,22.949,0
1484987575.731,10.254,44.922,46.387,33.691,42.480,0
1484987575.735,19.043,42.480,47.363,40.039,-3.418,0
1484987575.739,21.973,7.324,54.199,44.434,-2.441,0
1484987575.743,8.301,-25.391,39.062,24.414,29.785,0
1484987575.746,11.230,-0.488,40.527,24.902,16.113,0
1484987575.750,19.043,15.625,51.758,28.320,2.441,0
1484987575.754,15.625,2.441,43.945,18.066,11.719,0
1484987575.758,22.949,5.859,29.785,23.438,51.758,0
1484987575.762,24.414,1.953,36.133,12.207,42.969,0
1484987575.766,13.184,-7.324,36.621,6.836,12.207,0
1484987575.770,1.465,-6.348,33.691,13.672,15.625,0
1484987575.774,5.371,-4.883,35.645,14.648,9.766,0
1484987575.778,23.926,-16.113,43.945,36.133,0.000,0
1484987575.782,33.691,-8.789,49.316,38.086,-5.859,0
1484987575.785,25.879,23.438,36.621,27.832,0.488,0
1484987575.789,11.719,33.691,32.227,25.391,25.391,0
1484987575.793,4.883,11.719,30.762,22.461,-1.465,0
1484987575.797,-16.602,-20.508,26.367,10.254,-26.367,0
1484987575.801,-9.766,-20.020,32.227,16.602,-15.137,0
1484987575.805,3.906,1.465,34.180,26.367,7.812,0
1484987575.809,-12.207,4.395,20.996,4.883,41.992,0
1484987575.813,-37.109,6.348,6.836,-19.043,32.227,0
1484987575.817,-41.016,-8.301,10.254,-22.461,40.039,0
1484987575.821,-11.719,-9.766,31.250,-0.488,67.383,0
1484987575.825,-1.465,-5.371,32.715,24.902,17.578,0
1484987575.828,-9.277,1.953,21.973,20.508,-1.953,0
1484987575.832,-30.273,8.301,19.531,-2.441,19.531,0
1484987575.836,-21.973,27.832,21.484,3.418,11.230,0
1484987575.840,-3.418,42.969,41.504,14.648,19.531,0
1484987575.844,-3.906,24.414,32.715,6.836,28.320,0
1484987575.848,-5.371,15.625,17.578,5.371,18.555,0
1484987575.852,0.977,10.254,28.320,8.301,14.648,0
1484987575.856,-4.395,-6.836,27.832,9.766,-27.832,0
1484987575.860,2.930,-11.719,25.879,18.555,-45.898,0
1484987575.864,5.371,4.883,27.344,10.254,0.000,0
1484987575.868,-10.254,21.484,26.367,-0.488,-4.395,0
1484987575.871,-3.418,29.297,20.020,4.883,-0.977,0
1484987575.875,-7.324,7.324,34.180,3.418,11.719,0
1484987575.879,-28.809,-3.906,43.457,-13.672,0.488,0
1484987575.883,-16.113,19.043,32.715,-0.488,-17.090,0
1484987575.887,6.348,22.949,31.738,15.625,-19.043,0
1484987575.891,-2.930,6.836,27.344,6.348,2.930,0
1484987575.895,-20.020,-0.488,27.344,0.488,2.441,0
1484987575.899,-18.555,11.230,34.180,6.348,-9.277,0
1484987575.903,-10.742,-1.953,36.133,8.789,30.273,0
1484987575.907,-6.348,2.930,36.621,7.812,29.785,0
1484987575.910,-5.859,14.160,24.902,10.742,35.645,0
1484987575.914,-14.160,3.418,30.762,0.488,42.969,0
1484987575.918,-26.855,30.762,36.621,-8.301,15.625,0
1484987575.922,-33.691,42.480,15.137,-9.277,33.691,0
1484987575.926,-23.926,24.902,12.207,-1.953,40.039,0
1484987575.930,-3.418,21.484,28.809,13.184,20.508,0
1484987575.934,-0.977,20.508,42.969,21.484,-5.371,0
1484987575.938,6.348,12.695,41.504,29.297,15.625,0
1484987575.942,13.672,4.883,44.434,32.715,18.555,0
1484987575.946,-11.230,2.930,48.340,13.184,8.301,0
1484987575.950,-4.395,17.578,62.500,23.926,33.691,0
1484987575.953,8.301,50.293,68.359,36.133,59.570,0
1484987575.957,-1.953,73.730,51.270,20.996,27.344,0
1484987575.961,2.930,69.336,45.410,25.879,4.883,0
1484987575.965,7.812,39.062,40.039,24.902,13.184,0
1484987575.969,-6.348,30.762,32.715,12.695,2.441,0
1484987575.973,-8.301,40.039,34.668,8.789,0.488,0
1484987575.977,7.812,26.367,38.574,18.066,-15.137,0
1484987575.981,3.418,-2.441,36.133,28.320,-8.789,0
1484987575.985,9.766,1.465,47.852,30.273,27.832,0
1484987575.989,20.996,34.180,65.430,37.598,36.133,0
1484987575.993,15.137,58.105,57.129,35.156,18.066,0
1484987575.996,7.812,51.270,35.156,8.789,4.883,0
1484987576.000,-1.953,23.438,35.156,2.930,33.691,0
1484987576.004,13.672,28.320,53.711,33.203,26.855,0
1484987576.008,33.203,52.246,71.289,47.363,12.695,0
1484987576.012,41.016,43.457,69.336,51.758,42.969,0
1484987576.016,42.969,38.574,63.477,51.270,17.090,0
1484987576.020,50.781,62.012,71.289,57.617,-11.230,0
1484987576.024,60.547,62.012,68.359,74.707,-16.113,0
1484987576.028,44.922,47.852,51.270,55.664,5.371,0
1484987576.032,24.414,46.387,56.152,33.203,43.457,0
1484987576.035,47.363,40.527,69.336,52.734,18.555,0
1484987576.039,49.316,23.438,55.176,62.988,16.113,0
1484987576.043,25.879,20.020,48.340,46.875,47.363,0
1484987576.047,34.180,-5.859,76.172,46.875,23.438,0
1484987576.051,34.180,-16.113,70.312,59.082,-1.465,0
1484987576.055,44.434,48.340,50.293,71.777,0.977,0
1484987576.059,50.781,72.754,65.430,73.730,22.949,0
1484987576.063,35.645,56.152,65.430,68.359,32.227,0
1484987576.067,28.809,45.410,55.664,53.711,-35.645,0
1484987576.071,35.156,40.039,54.688,58.594,-17.090,0
1484987576.075,41.992,44.434,66.895,82.520,57.617,0
1484987576.078,53.223,28.320,78.613,84.961,43.457,0
1484987576.082,37.109,29.297,63.965,57.129,16.602,0
1484987576.086,23.438,56.641,51.758,50.781,40.039,0
1484987576.090,33.691,55.176,64.453,64.941,66.895,0
1484987576.094,35.156,59.082,71.289,70.801,24.902,0
1484987576.098,45.410,80.566,72.266,66.406,9.766,0
1484987576.102,73.242,86.426,83.984,87.402,51.758,0
1484987576.106,62.012,57.617,83.008,95.703,65.918,0
1484987576.110,37.598,43.457,71.289,69.336,17.090,0
1484987576.114,41.504,59.082,75.195,66.406,-4.883,0
1484987576.118,56.641,55.176,78.613,79.590,30.762,0
1484987576.121,63.965,51.270,72.754,86.914,21.973,0
1484987576.125,53.711,56.641,66.895,76.660,-5.371,0
1484987576.129,45.898,52.246,70.312,67.871,15.625,0
1484987576.133,28.809,45.410,71.289,61.035,37.598,0
1484987576.137,34.668,30.273,70.801,62.500,30.273,0
1484987576.141,46.387,41.016,65.430,65.430,33.691,0
1484987576.145,39.062,48.828,68.359,59.082,28.320,0
1484987576.149,38.574,25.879,74.219,64.941,18.555,0
1484987576.153,34.180,8.789,69.824,76.172,21.973,0
1484987576.157,48.340,2.441,84.961,86.426,17.578,0
1484987576.160,57.617,14.160,79.102,84.961,15.137,0
1484987576.164,49.805,57.129,61.523,80.566,18.066,0
1484987576.168,60.059,61.523,84.473,92.285,0.977,0
1484987576.172,60.547,43.457,88.379,101.562,2.930,0
1484987576.176,63.477,33.691,75.684,94.238,31.250,0
1484987576.180,78.125,33.691,72.266,89.355,15.625,0
1484987576.184,59.570,37.109,68.848,82.031,-0.488,0
1484987576.188,49.316,24.902,71.777,73.730,-2.441,0
1484987576.192,39.551,15.625,56.641,60.547,14.160,0
1484987576.196,31.250,13.672,53.711,59.570,25.879,0
1484987576.200,35.645,24.902,63.477,63.477,27.344,0
1484987576.203,31.738,33.203,64.453,63.477,23.926,0
1484987576.207,43.457,10.254,62.500,59.570,-2.930,0
1484987576.211,48.828,-21.484,67.871,47.852,14.648,0
1484987576.215,29.297,-5.859,59.082,45.898,4.883,0
1484987576.219,14.648,25.391,27.832,41.992,-7.324,0
1484987576.223,16.113,33.203,31.250,32.715,21.973,0
1484987576.227,22.949,37.109,55.176,44.434,17.090,0
1484987576.231,16.602,26.855,61.523,53.223,17.090,0
1484987576.235,25.879,5.371,67.383,58.594,29.785,0
1484987576.239,39.062,14.160,82.520,69.336,29.297,0
1484987576.243,32.715,36.621,79.102,61.523,33.203,0
1484987576.246,34.668,40.039,73.242,61.523,12.207,0
1484987576.250,41.016,39.551,65.430,66.895,10.254,0
1484987576.254,41.992,44.434,59.570,68.848,29.785,0
1484987576.258,21.484,47.852,62.500,56.152,35.156,0
1484987576.262,13.184,32.715,64.941,50.293,31.250,0
1484987576.266,10.742,2.441,55.176,50.781,50.293,0
1484987576.270,-5.859,-18.066,49.805,30.762,55.176,0
1484987576.274,-3.906,2.441,50.293,29.297,34.668,0
1484987576.278,5.859,30.762,34.668,34.180,45.410,0
1484987576.282,17.578,41.992,41.016,32.227,11.719,0
1484987576.285,21.484,33.203,49.316,24.414,14.648,0
1484987576.289,31.250,-14.648,50.781,29.785,29.297,0
1484987576.293,20.508,-24.902,54.688,28.320,16.602,0
1484987576.297,-2.441,27.344,56.641,29.297,5.859,0
1484987576.301,3.418,38.574,58.594,39.551,-2.441,0
1484987576.305,13.672,26.367,56.152,38.086,5.371,0
1484987576.309,19.531,44.922,55.664,40.527,-8.789,0
1484987576.313,20.020,57.617,65.430,37.109,3.418,0
1484987576.317,19.531,42.969,67.871,32.227,11.230,0
1484987576.321,4.883,36.621,46.387,31.738,-17.578,0
1484987576.325,-11.230,12.207,41.016,15.625,-19.043,0
1484987576.328,9.277,-6.836,50.781,23.438,19.043,0
1484987576.332,6.836,10.742,45.898,35.645,27.344,0
1484987576.336,4.883,30.273,46.387,35.645,19.043,0
1484987576.340,20.020,64.941,54.688,41.992,18.066,0
1484987576.344,26.855,83.984,67.871,49.805,19.531,0
1484987576.348,31.738,47.363,57.617,46.387,38.574,0
1484987576.352,22.461,26.367,62.012,42.480,21.973,0
1484987576.356,20.996,36.621,73.242,53.711,15.625,0
1484987576.360,11.230,28.320,47.363,56.641,39.062,0
1484987576.364,2.930,29.785,36.621,38.086,31.738,0
1484987576.368,15.625,17.090,48.340,42.969,35.645,0
1484987576.371,47.363,1.465,54.199,69.336,21.484,0
1484987576.375,44.922,22.949,48.340,66.406,25.391,0
1484987576.379,28.809,39.062,47.363,58.594,34.180,0
1484987576.383,25.879,35.645,53.711,59.082,23.438,0
1484987576.387,26.367,24.902,52.246,62.988,20.020,0
1484987576.391,19.531,20.996,55.176,52.734,23.438,0
1484987576.395,27.832,39.062,53.711,47.852,-13.672,0
1484987576.399,31.250,48.828,46.387,51.758,-36.621,0
1484987576.403,21.484,56.152,47.852,54.199,4.395,0
1484987576.407,22.461,41.016,69.336,57.129,12.695,0
1484987576.410,28.809,20.996,52.734,56.641,-14.160,0
1484987576.414,32.715,41.016,23.926,54.688,20.996,0
1484987576.418,31.738,63.965,32.227,53.223,56.641,0
1484987576.422,25.391,55.664,33.203,43.457,28.320,0
1484987576.426,27.832,52.734,34.180,27.344,24.902,0
1484987576.430,26.855,52.246,41.016,29.785,14.160,0
1484987576.434,28.809,21.484,42.480,40.527,1.465,0
1484987576.438,31.250,25.879,51.758,44.434,20.020,0
1484987576.442,15.625,41.992,37.109,40.527,11.230,0
1484987576.446,7.812,35.645,29.785,33.691,6.348,0
1484987576.450,12.695,28.809,40.039,26.855,18.555,0
1484987576.453,12.695,14.160,36.621,22.461,-10.254,0
1484987576.457,19.531,-1.465,48.828,29.297,2.930,0
1484987576.461,29.785,19.043,44.434,40.039,54.199,0
1484987576.465,19.531,40.527,24.414,37.109,26.367,0
1484987576.469,10.742,34.668,23.926,27.344,-1.465,0
1484987576.473,8.789,17.090,29.785,23.926,19.043,0
1484987576.477,19.043,12.695,37.598,36.621,23.926,0
1484987576.481,26.367,9.277,45.410,39.062,9.766,0
1484987576.485,20.020,15.625,48.340,38.574,-15.137,0
1484987576.489,25.879,29.297,50.293,52.246,-27.832,0
1484987576.493,25.391,26.367,46.387,53.711,5.859,0
1484987576.496,8.301,21.973,39.062,25.391,42.480,0
1484987576.500,-3.906,35.645,36.621,17.578,-0.977,0
1484987576.504,-1.953,42.480,48.828,24.414,-13.672,0
1484987576.508,18.555,41.992,44.922,41.992,14.648,0
1484987576.512,29.785,34.668,40.527,42.480,21.484,0
1484987576.516,31.250,32.715,37.598,38.086,26.855,0
1484987576.520,32.227,39.062,35.645,52.246,33.203,0
1484987576.524,24.414,35.645,38.574,42.969,46.387,0
1484987576.528,19.531,34.180,40.527,36.621,50.781,0
1484987576.532,33.691,37.598,55.664,41.992,32.227,0
1484987576.535,32.227,28.809,56.641,41.504,7.324,0
1484987576.539,21.484,19.043,35.156,33.691,35.645,0
1484987576.543,21.484,21.484,40.527,33.203,56.152,0
1484987576.547,25.391,30.273,41.504,31.250,-8.301,0
1484987576.551,16.602,30.762,30.762,22.461,-16.602,0
1484987576.555,10.742,36.133,36.621,32.715,29.297,0
1484987576.559,26.367,43.945,39.062,45.410,-1.953,0
1484987576.563,23.926,47.852,28.320,36.133,-16.602,0
1484987576.567,21.484,35.645,23.926,24.414,8.789,0
1484987576.571,21.484,16.602,25.391,18.555,3.418,0
1484987576.575,16.602,0.977,29.297,25.391,-20.020,0
1484987576.578,31.738,7.324,29.297,44.434,-23.926,0
1484987576.582,25.391,27.344,27.832,29.785,-6.836,0
1484987576.586,10.254,31.250,20.996,12.207,-11.230,0
1484987576.590,6.348,36.621,17.090,17.090,-32.715,0
1484987576.594,18.066,33.691,21.973,33.203,-35.645,0
1484987576.598,15.625,25.391,47.852,20.996,13.184,0
1484987576.602,6.348,30.273,45.898,6.348,21.973,0
1484987576.606,23.926,50.293,14.160,33.691,35.156,0
1484987576.610,21.484,43.457,27.832,38.574,37.598,0
1484987576.614,15.137,24.902,34.180,37.598,27.344,0
1484987576.618,26.367,33.691,18.555,36.621,37.109,0
1484987576.621,30.273,37.109,21.484,27.344,13.184,0
1484987576.625,27.832,30.273,31.250,26.855,17.090,0
1484987576.629,31.250,38.574,29.297,26.367,28.809,0
1484987576.633,21.973,46.387,31.250,26.367,20.996,0
1484987576.637,15.137,40.039,29.785,33.691,-20.020,0
1484987576.641,15.137,18.066,37.598,30.762,-40.527,0
1484987576.645,10.254,16.113,38.574,19.043,24.414,0
1484987576.649,10.254,35.156,24.902,22.461,30.762,0
1484987576.653,-1.465,28.320,27.344,16.113,-5.859,0
1484987576.657,-3.906,20.020,41.504,14.160,29.785,0
1484987576.660,20.996,13.184,48.340,33.203,52.246,0
