timestamps,TP9,AF7,AF8,TP10,Right AUX,Marker0
1484995725.869,33.203,42.969,29.785,46.387,20.996,0
1484995725.873,29.785,32.227,26.855,40.039,22.461,0
1484995725.876,32.715,25.391,33.691,38.574,28.320,0
1484995725.880,27.344,28.809,31.738,44.434,58.594,0
1484995725.884,25.879,10.254,25.879,37.598,55.664,0
1484995725.888,30.762,1.953,23.926,29.297,27.344,0
1484995725.892,38.086,23.926,36.621,47.852,15.625,0
1484995725.896,38.574,34.180,42.480,58.105,12.207,0
1484995725.900,37.598,21.484,33.203,46.875,26.855,0
1484995725.904,39.062,14.648,31.738,48.340,57.129,0
1484995725.908,28.809,34.668,31.250,42.969,54.688,0
1484995725.912,23.926,22.949,33.203,50.293,42.480,0
1484995725.916,28.809,16.602,40.039,59.082,35.645,0
1484995725.919,28.809,31.250,40.527,44.434,29.785,0
1484995725.923,35.156,26.367,42.969,42.480,45.898,0
1484995725.927,28.320,30.762,39.551,36.133,50.293,0
1484995725.931,26.855,21.973,32.227,43.457,43.945,0
1484995725.935,38.086,18.555,34.180,61.523,47.363,0
1484995725.939,37.109,5.859,34.180,58.594,43.457,0
1484995725.943,36.621,-2.441,32.715,52.246,35.645,0
1484995725.947,28.809,8.301,32.715,55.664,54.199,0
1484995725.951,27.832,14.160,29.785,53.223,57.129,0
1484995725.955,28.320,27.344,29.297,45.898,21.484,0
1484995725.958,20.996,37.109,28.809,37.598,15.137,0
1484995725.962,29.785,36.133,27.832,27.832,56.152,0
1484995725.966,42.969,31.738,31.738,37.598,59.570,0
1484995725.970,43.457,24.414,33.691,52.246,31.738,0
1484995725.974,41.504,26.855,29.785,43.457,29.785,0
1484995725.978,50.293,30.762,38.086,51.270,42.480,0
1484995725.982,41.992,36.133,44.434,58.594,27.344,0
1484995725.986,34.180,21.484,29.785,54.688,-24.902,0
1484995725.990,24.902,12.695,20.996,58.105,-10.742,0
1484995725.994,20.508,21.973,24.414,41.504,61.035,0
1484995725.998,18.066,22.949,28.320,32.227,39.062,0
1484995726.001,26.855,12.695,31.250,42.480,12.207,0
1484995726.005,37.598,21.973,33.691,48.340,52.246,0
1484995726.009,31.738,30.273,37.109,50.293,43.945,0
1484995726.013,20.508,31.738,35.156,51.270,29.297,0
1484995726.017,27.344,41.016,39.551,52.246,41.016,0
1484995726.021,31.738,40.527,41.016,42.480,43.457,0
1484995726.025,21.973,30.273,38.574,42.969,9.277,0
1484995726.029,20.508,33.203,36.621,43.457,-7.324,0
1484995726.033,32.227,32.227,37.598,44.922,18.066,0
1484995726.037,28.320,33.691,36.133,49.316,51.270,0
1484995726.041,25.391,23.926,32.715,51.758,68.359,0
1484995726.044,33.203,28.320,37.109,57.129,64.453,0
1484995726.048,45.898,30.273,44.922,66.406,56.641,0
1484995726.052,43.945,11.719,46.387,61.523,57.617,0
1484995726.056,35.645,16.113,40.527,52.246,46.875,0
1484995726.060,36.621,23.438,34.180,52.246,36.621,0
1484995726.064,30.762,25.879,25.879,36.621,41.016,0
1484995726.068,26.855,42.969,25.879,31.738,39.551,0
1484995726.072,27.832,52.246,38.574,40.039,43.945,0
1484995726.076,20.996,40.527,35.645,39.551,56.641,0
1484995726.080,22.461,27.344,30.273,42.480,41.016,0
1484995726.083,31.250,11.230,35.645,49.805,31.738,0
1484995726.087,23.926,19.043,30.762,49.316,0.488,0
1484995726.091,32.227,21.484,31.738,51.758,-22.461,0
1484995726.095,49.805,20.508,40.039,59.570,5.371,0
1484995726.099,43.945,38.086,39.062,58.594,45.898,0
1484995726.103,40.039,35.645,32.227,58.594,22.949,0
1484995726.107,41.504,25.391,34.180,57.617,9.277,0
1484995726.111,35.156,20.996,38.574,49.805,41.016,0
1484995726.115,37.598,15.625,35.645,42.480,45.410,0
1484995726.119,44.434,34.180,38.574,42.480,19.531,0
1484995726.123,26.855,41.016,32.227,41.016,30.273,0
1484995726.126,19.531,29.297,19.531,35.645,39.551,0
1484995726.130,29.785,18.066,23.926,37.598,27.832,0
1484995726.134,34.668,5.371,23.438,50.293,-4.395,0
1484995726.138,30.762,16.602,23.438,49.805,-16.602,0
1484995726.142,32.715,7.812,30.273,49.316,30.762,0
1484995726.146,43.457,-7.812,30.273,59.082,33.203,0
1484995726.150,33.691,-1.953,26.367,53.223,22.949,0
1484995726.154,27.832,6.836,26.855,41.016,29.785,0
1484995726.158,31.250,13.184,26.367,46.875,54.688,0
1484995726.162,38.086,8.789,26.367,54.199,48.828,0
1484995726.166,37.109,3.906,24.414,48.340,26.367,0
1484995726.169,35.156,7.324,30.273,48.828,28.809,0
1484995726.173,41.992,22.949,30.273,44.922,38.086,0
1484995726.177,32.715,20.508,20.020,34.668,19.531,0
1484995726.181,32.227,15.137,23.438,32.227,-18.066,0
1484995726.185,39.062,17.090,26.367,38.086,11.719,0
1484995726.189,33.691,32.227,25.879,47.852,26.367,0
1484995726.193,38.574,27.344,30.273,50.781,17.090,0
1484995726.197,51.758,9.277,34.180,49.805,39.551,0
1484995726.201,47.363,11.230,27.344,46.387,71.777,0
1484995726.205,46.875,6.836,25.391,51.270,70.312,0
1484995726.208,41.016,18.066,31.250,57.617,23.926,0
1484995726.212,37.598,25.879,30.762,48.340,1.465,0
1484995726.216,31.738,19.043,23.926,38.574,15.137,0
1484995726.220,32.715,15.137,23.438,50.293,54.199,0
1484995726.224,24.414,21.973,28.320,52.246,34.180,0
1484995726.228,21.484,12.207,24.902,40.527,30.273,0
1484995726.232,8.789,0.000,17.090,34.668,59.082,0
1484995726.236,11.230,13.184,19.531,24.414,29.297,0
1484995726.240,33.203,19.531,21.484,30.762,11.719,0
1484995726.244,30.762,27.344,20.020,50.293,25.879,0
1484995726.248,35.156,40.039,24.414,49.805,31.250,0
1484995726.251,49.805,26.855,30.273,45.898,39.551,0
1484995726.255,47.852,11.230,37.109,47.363,39.551,0
1484995726.259,34.180,45.410,36.621,47.363,42.969,0
1484995726.263,41.992,54.199,42.480,48.828,32.227,0
1484995726.267,38.574,16.602,40.527,45.410,10.254,0
1484995726.271,18.555,22.461,23.438,36.621,15.625,0
1484995726.275,22.461,17.578,23.926,47.363,20.996,0
1484995726.279,33.691,-3.418,31.250,49.805,52.734,0
1484995726.283,25.391,3.418,31.738,41.504,29.785,0
1484995726.287,31.250,4.395,36.621,48.340,0.488,0
1484995726.291,42.480,13.184,31.250,49.316,28.320,0
1484995726.294,40.527,24.902,24.414,41.016,24.902,0
1484995726.298,47.852,32.715,38.086,50.293,25.879,0
1484995726.302,44.434,40.527,41.504,60.059,36.133,0
1484995726.306,33.691,52.734,37.598,55.664,51.270,0
1484995726.310,50.781,38.574,43.945,56.641,41.016,0
1484995726.314,51.758,27.344,39.551,57.617,-2.930,0
1484995726.318,40.527,42.969,35.156,49.316,7.812,0
1484995726.322,50.781,16.113,41.992,50.293,45.410,0
1484995726.326,43.945,25.879,45.410,55.664,52.734,0
1484995726.330,41.504,38.086,48.828,56.641,56.152,0
1484995726.333,40.527,20.996,45.898,61.035,81.055,0
1484995726.337,32.227,29.297,39.062,62.012,82.520,0
1484995726.341,45.410,20.996,40.039,52.246,47.852,0
1484995726.345,48.340,30.762,43.945,52.246,11.230,0
1484995726.349,43.457,47.363,42.969,56.152,17.090,0
1484995726.353,56.641,48.828,39.551,60.547,38.574,0
1484995726.357,51.758,39.551,41.504,56.152,35.645,0
1484995726.361,22.461,46.875,27.832,30.273,24.902,0
1484995726.365,32.227,39.062,28.320,35.156,44.434,0
1484995726.369,59.570,19.531,41.016,62.988,60.059,0
1484995726.373,52.246,34.668,37.109,55.664,35.156,0
1484995726.376,30.273,53.223,33.203,37.109,22.461,0
1484995726.380,47.852,50.293,46.387,50.293,37.598,0
1484995726.384,71.777,54.688,56.641,65.430,41.016,0
1484995726.388,54.199,43.457,48.340,59.570,33.203,0
1484995726.392,33.203,28.320,36.133,46.387,38.086,0
1484995726.396,36.133,36.621,35.645,37.109,36.621,0
1484995726.400,45.898,40.039,44.922,43.457,48.828,0
1484995726.404,41.992,43.457,44.922,47.363,43.945,0
1484995726.408,35.645,54.199,38.086,46.875,29.297,0
1484995726.412,25.879,59.082,38.086,42.969,42.480,0
1484995726.416,31.738,36.621,44.434,41.992,69.336,0
1484995726.419,36.133,33.691,41.504,42.480,31.738,0
1484995726.423,19.531,58.105,29.297,32.227,22.461,1
1484995726.427,30.762,29.297,36.133,42.969,88.867,0
1484995726.431,49.316,13.672,41.016,61.523,62.988,0
1484995726.435,36.133,26.367,39.062,59.570,32.715,0
1484995726.439,41.016,21.484,44.434,66.895,65.430,0
1484995726.443,44.434,31.738,43.457,73.730,52.246,0
1484995726.447,52.734,17.090,43.457,71.289,27.832,0
1484995726.451,53.223,31.738,41.992,62.988,29.297,0
1484995726.455,45.410,49.316,42.480,58.105,34.180,0
1484995726.458,55.664,48.340,47.852,62.988,45.410,0
1484995726.462,50.293,48.340,52.734,64.941,47.852,0
1484995726.466,40.039,49.805,44.922,56.641,26.855,0
1484995726.470,41.992,39.551,35.156,41.992,-0.977,0
1484995726.474,43.945,39.062,35.156,42.969,21.484,0
1484995726.478,43.457,28.809,40.527,57.617,60.547,0
1484995726.482,42.969,28.809,41.504,52.734,39.551,0
1484995726.486,41.016,51.758,43.457,54.199,45.410,0
1484995726.490,50.293,43.457,43.457,60.059,69.336,0
1484995726.494,53.711,26.367,37.109,54.199,54.199,0
1484995726.498,52.246,41.504,39.062,49.316,38.574,0
1484995726.501,62.012,38.574,39.062,51.270,59.570,0
1484995726.505,61.035,31.250,39.062,50.781,22.949,0
1484995726.509,52.734,40.039,38.086,50.781,-24.414,0
1484995726.513,45.410,41.992,38.086,50.781,38.574,0
1484995726.517,38.086,48.340,43.457,50.293,85.449,0
1484995726.521,26.367,36.133,43.457,53.711,59.082,0
1484995726.525,20.020,49.805,46.875,41.504,33.203,0
1484995726.529,28.320,53.711,52.734,31.738,71.777,0
1484995726.533,26.855,25.391,45.898,50.293,83.008,0
1484995726.537,30.762,20.508,42.969,52.734,53.711,0
1484995726.541,42.480,15.625,46.875,45.410,43.945,0
1484995726.544,32.227,8.301,47.363,43.945,12.207,0
1484995726.548,24.414,17.090,43.457,37.109,26.855,0
1484995726.552,26.855,28.809,46.387,40.039,50.293,0
1484995726.556,30.273,29.297,48.828,44.434,14.648,0
1484995726.560,28.809,37.109,44.922,39.551,32.227,0
1484995726.564,32.715,43.945,44.434,41.016,67.871,0
1484995726.568,33.203,31.250,47.363,47.363,33.691,0
1484995726.572,35.645,26.855,49.316,46.387,27.344,0
1484995726.576,42.480,53.223,60.059,55.664,69.824,0
1484995726.580,43.457,40.527,66.406,67.871,65.918,0
1484995726.583,36.133,23.438,51.270,53.223,28.809,0
1484995726.587,27.832,28.320,43.945,47.852,26.855,0
1484995726.591,28.809,19.531,42.969,44.434,42.969,0
1484995726.595,35.156,16.602,45.410,42.480,32.715,0
1484995726.599,36.133,15.137,51.270,56.152,26.855,0
1484995726.603,39.062,20.508,55.176,63.477,26.367,0
1484995726.607,36.621,31.250,56.641,57.617,55.664,0
1484995726.611,44.434,47.852,58.594,62.988,54.688,0
1484995726.615,44.922,46.875,58.105,69.336,59.082,0
1484995726.619,33.691,36.621,46.387,58.594,57.617,0
1484995726.623,40.527,38.086,34.668,46.875,35.156,0
1484995726.626,40.039,30.762,27.344,42.480,38.574,0
1484995726.630,39.062,24.414,28.320,50.781,27.344,0
1484995726.634,40.527,18.555,30.762,48.828,29.785,0
1484995726.638,30.273,22.461,22.461,41.992,24.902,0
1484995726.642,19.043,22.949,20.996,39.062,18.066,0
1484995726.646,19.043,11.719,21.484,36.133,15.137,0
1484995726.650,22.949,13.184,16.113,26.855,47.852,0
1484995726.654,21.484,7.324,20.020,17.578,30.273,0
1484995726.658,12.695,39.062,22.949,20.508,15.625,0
1484995726.662,16.113,39.551,24.902,24.414,23.926,0
1484995726.666,31.250,20.996,37.109,39.062,53.223,0
1484995726.669,30.273,41.016,35.645,42.969,43.945,0
1484995726.673,20.996,39.551,28.809,33.203,27.344,0
1484995726.677,22.949,33.203,32.227,35.156,44.922,0
1484995726.681,41.016,20.020,35.156,48.340,46.387,0
1484995726.685,37.598,18.555,37.109,59.570,44.434,0
1484995726.689,32.227,37.109,37.598,52.734,13.184,0
1484995726.693,20.996,37.598,33.691,44.434,46.875,0
1484995726.697,18.555,21.973,33.203,54.688,93.750,0
1484995726.701,22.949,30.762,36.621,49.316,53.223,0
1484995726.705,15.625,49.316,34.180,34.668,18.066,0
1484995726.708,21.973,13.184,40.039,48.340,29.297,0
1484995726.712,28.809,27.344,44.922,58.594,49.316,0
1484995726.716,36.133,46.875,36.621,45.898,25.879,0
1484995726.720,39.551,17.578,40.527,47.852,24.414,0
1484995726.724,48.828,20.996,49.316,59.082,41.992,0
1484995726.728,40.039,25.879,48.828,49.316,55.176,0
1484995726.732,34.180,26.855,41.992,54.688,38.086,0
1484995726.736,41.992,34.668,40.039,65.430,10.254,0
1484995726.740,48.340,39.062,38.574,56.641,30.273,0
1484995726.744,44.434,47.852,41.504,51.270,56.152,0
1484995726.748,41.992,50.781,40.527,49.316,34.668,0
1484995726.751,28.809,56.641,38.086,42.480,17.578,0
1484995726.755,23.438,52.246,42.480,38.086,41.504,0
1484995726.759,42.480,33.691,42.969,43.945,22.949,0
1484995726.763,43.457,32.715,39.551,44.922,9.766,0
1484995726.767,36.621,49.805,34.180,40.039,42.480,0
1484995726.771,39.062,41.992,40.039,51.270,53.223,0
1484995726.775,44.434,28.320,42.969,54.199,49.316,0
1484995726.779,33.203,45.898,36.621,46.875,38.574,0
1484995726.783,41.504,34.180,43.945,56.152,26.855,0
1484995726.787,61.035,27.832,54.688,62.988,30.273,0
1484995726.791,54.688,34.180,51.270,56.641,34.180,0
1484995726.794,39.062,21.484,41.504,44.434,-6.348,0
1484995726.798,36.133,55.176,39.062,44.922,4.395,0
1484995726.802,53.223,64.941,47.363,65.430,49.805,0
1484995726.806,55.176,34.668,50.293,69.336,32.227,0
1484995726.810,47.363,27.344,43.457,61.035,3.906,0
1484995726.814,41.504,37.598,41.992,52.246,24.414,0
1484995726.818,46.875,40.039,41.992,69.824,52.734,0
1484995726.822,53.223,43.457,43.457,77.637,27.832,0
1484995726.826,50.293,50.293,44.434,59.082,16.113,0
1484995726.830,60.059,37.598,46.387,62.012,41.992,0
1484995726.833,52.246,34.180,44.922,66.895,60.547,0
1484995726.837,57.617,34.668,48.828,71.289,42.480,0
1484995726.841,62.500,41.992,60.059,76.660,13.672,0
1484995726.845,41.016,65.430,49.316,62.012,65.430,0
1484995726.849,32.227,41.992,36.133,53.223,62.012,0
1484995726.853,44.922,18.066,36.621,53.223,22.461,0
1484995726.857,38.574,39.551,32.715,42.480,32.227,0
1484995726.861,27.344,29.785,39.551,51.758,25.879,0
1484995726.865,41.016,24.414,44.434,62.012,45.410,0
1484995726.869,41.504,25.879,40.039,50.781,46.387,0
1484995726.873,22.949,48.340,37.109,41.504,31.250,0
1484995726.876,32.227,52.734,44.922,47.852,33.203,0
1484995726.880,54.199,29.297,53.711,68.848,10.742,0
1484995726.884,42.969,38.086,50.781,73.730,30.762,0
1484995726.888,25.391,31.738,42.969,57.129,41.504,0
1484995726.892,26.367,24.902,37.598,46.875,19.531,0
1484995726.896,31.250,27.832,42.480,45.898,42.480,0
1484995726.900,27.832,30.762,40.527,48.340,13.672,0
1484995726.904,25.391,35.156,39.551,42.969,9.277,0
1484995726.908,25.391,39.551,48.828,51.270,61.523,0
1484995726.912,35.156,41.504,44.434,57.617,46.875,0
1484995726.916,45.898,29.785,34.668,42.480,39.062,0
1484995726.919,44.922,42.969,41.016,50.293,45.898,0
1484995726.923,48.340,69.824,50.293,68.848,34.668,0
1484995726.927,41.016,43.457,48.340,54.688,23.438,0
1484995726.931,19.043,42.969,35.645,35.156,-4.395,0
1484995726.935,24.902,54.688,40.527,44.434,33.691,0
1484995726.939,32.715,51.758,48.340,58.594,69.336,0
1484995726.943,39.062,43.457,42.480,59.082,31.250,0
1484995726.947,36.133,26.367,38.574,47.852,33.203,0
1484995726.951,41.992,30.273,41.504,46.387,54.688,0
1484995726.955,38.574,35.156,42.969,51.270,60.547,0
1484995726.958,35.156,42.969,40.527,50.781,66.895,0
1484995726.962,52.734,54.688,48.828,66.895,49.316,0
1484995726.966,44.922,32.227,46.387,73.242,47.852,0
1484995726.970,34.668,31.250,33.691,56.152,28.809,0
1484995726.974,43.945,36.133,38.086,54.688,-1.465,0
1484995726.978,47.852,21.973,42.969,53.711,3.418,0
1484995726.982,29.785,59.082,38.086,41.016,21.484,0
1484995726.986,30.273,48.828,36.621,45.410,7.324,0
1484995726.990,41.504,16.113,39.551,48.340,7.324,0
1484995726.994,39.551,39.062,33.691,37.109,42.480,0
1484995726.998,25.391,41.992,37.598,33.691,48.828,0
1484995727.001,40.527,41.992,48.340,48.828,26.855,0
1484995727.005,34.180,58.105,41.016,47.852,12.207,0
1484995727.009,22.461,40.039,34.668,46.875,49.805,0
1484995727.013,41.504,25.391,43.945,58.105,41.992,0
1484995727.017,38.086,29.785,43.457,49.805,23.926,0
1484995727.021,45.898,31.738,40.527,54.688,14.160,0
1484995727.025,40.527,45.410,41.992,58.594,7.324,0
1484995727.029,38.574,47.852,43.457,59.570,39.551,0
1484995727.033,40.039,52.734,34.668,55.176,37.598,0
1484995727.037,52.734,48.828,40.527,58.105,28.320,0
1484995727.041,65.430,48.340,52.734,75.195,44.922,0
1484995727.044,40.527,60.059,40.039,59.570,50.293,0
1484995727.048,35.645,35.645,37.598,47.852,48.828,0
1484995727.052,50.293,25.391,42.969,53.711,61.035,0
1484995727.056,47.363,37.109,40.039,53.711,47.852,0
1484995727.060,34.180,34.668,42.480,49.316,50.781,0
1484995727.064,35.156,39.551,42.480,45.410,32.227,0
1484995727.068,51.270,37.109,48.828,59.570,12.695,0
1484995727.072,36.621,17.578,50.293,63.965,38.086,0
1484995727.076,33.203,30.273,41.504,51.758,40.527,0
1484995727.080,38.574,41.016,39.062,45.898,43.457,0
1484995727.083,38.574,24.414,38.574,48.828,20.996,0
1484995727.087,33.691,43.457,33.691,41.504,12.695,0
1484995727.091,37.109,46.875,36.621,44.434,10.742,0
1484995727.095,41.992,24.902,39.062,51.758,22.949,0
1484995727.099,29.297,36.621,31.738,46.875,52.734,0
1484995727.103,38.574,37.109,30.762,49.316,29.785,0
1484995727.107,52.734,30.273,41.504,58.594,15.137,0
1484995727.111,55.664,34.180,45.898,59.570,23.438,0
1484995727.115,42.480,32.227,39.062,46.875,28.320,0
1484995727.119,41.504,52.246,40.039,42.969,48.340,0
1484995727.123,57.617,56.641,50.781,54.688,19.531,0
1484995727.126,48.340,40.039,47.852,55.176,6.836,0
1484995727.130,34.668,40.039,37.598,50.781,41.016,0
1484995727.134,47.363,37.598,41.504,56.152,20.508,0
1484995727.138,38.086,48.828,40.527,54.688,12.207,0
1484995727.142,39.551,48.828,48.340,46.875,47.852,0
1484995727.146,53.711,39.551,50.293,41.016,52.246,0
1484995727.150,52.734,41.992,41.992,52.246,49.316,0
1484995727.154,38.574,65.430,41.016,49.805,32.715,0
1484995727.158,42.969,60.547,50.293,56.641,13.184,0
1484995727.162,53.223,49.316,53.223,63.477,29.785,0
1484995727.166,50.293,58.594,43.457,61.035,36.133,0
1484995727.169,50.293,46.387,45.898,58.594,25.879,0
1484995727.173,41.504,49.316,42.969,45.898,33.691,0
1484995727.177,24.902,45.898,34.668,42.969,60.059,0
1484995727.181,26.367,32.227,34.668,52.734,50.293,0
1484995727.185,40.527,17.578,45.410,63.477,40.527,0
1484995727.189,35.645,32.715,43.945,47.363,33.203,0
1484995727.193,23.438,50.293,38.574,38.574,12.207,0
1484995727.197,29.785,32.715,46.387,45.898,22.949,0
1484995727.201,37.109,28.809,44.434,46.387,26.367,0
1484995727.205,34.668,43.457,41.992,45.898,13.672,0
1484995727.208,41.504,39.062,48.828,55.664,22.461,0
1484995727.212,24.414,27.832,47.852,51.758,28.320,0
1484995727.216,23.438,30.762,39.551,36.621,3.418,0
1484995727.220,38.086,25.879,35.645,39.551,39.551,0
1484995727.224,29.297,28.809,37.109,43.457,84.961,0
1484995727.228,19.043,46.387,38.574,37.109,52.246,0
1484995727.232,18.066,45.898,36.621,33.203,24.414,0
1484995727.236,32.227,29.297,36.621,39.062,46.387,0
1484995727.240,33.691,25.391,34.180,43.457,47.852,0
1484995727.244,40.527,20.020,37.109,51.270,41.992,0
1484995727.248,46.875,30.273,43.945,62.012,38.086,0
1484995727.251,35.645,42.969,38.574,53.223,17.090,0
1484995727.255,26.855,45.898,33.691,45.410,29.785,0
1484995727.259,32.227,25.879,38.086,55.176,15.137,0
1484995727.263,42.969,31.250,41.504,51.758,5.859,0
1484995727.267,28.809,41.992,36.621,46.387,-1.465,0
1484995727.271,23.926,27.344,34.668,46.387,12.695,0
1484995727.275,41.992,21.484,44.434,47.363,16.602,0
1484995727.279,44.434,38.574,45.898,54.199,-4.883,0
1484995727.283,53.223,34.180,47.852,63.477,36.133,0
1484995727.287,34.668,38.086,40.039,49.805,25.879,0
1484995727.291,27.344,48.828,29.785,44.434,17.090,0
1484995727.294,53.223,25.391,38.086,49.316,30.273,0
1484995727.298,58.594,19.531,37.598,48.828,31.250,0
1484995727.302,42.969,53.223,33.203,44.434,24.414,0
1484995727.306,36.133,64.941,31.738,44.922,30.273,0
1484995727.310,17.578,37.109,34.668,42.480,41.992,0
1484995727.314,15.625,31.250,38.574,42.969,11.230,0
1484995727.318,35.156,30.273,39.062,53.711,5.371,0
1484995727.322,23.926,14.160,36.133,56.641,38.086,0
1484995727.326,25.879,24.902,30.762,50.293,35.645,0
1484995727.330,41.504,36.133,32.227,50.293,13.184,0
1484995727.333,54.688,33.203,47.852,64.453,28.320,0
1484995727.337,63.477,47.363,51.270,69.824,15.137,0
1484995727.341,48.340,46.387,40.039,64.941,27.832,0
1484995727.345,35.156,19.531,34.668,57.129,32.227,0
1484995727.349,34.180,28.809,34.668,47.363,-3.906,0
1484995727.353,36.621,37.598,29.785,43.945,12.207,0
1484995727.357,34.180,26.367,32.715,42.480,40.527,0
1484995727.361,36.133,39.062,35.645,49.316,29.297,0
1484995727.365,37.598,49.316,35.645,43.945,26.855,0
1484995727.369,30.273,47.363,39.062,41.992,32.227,0
1484995727.373,41.016,48.828,46.875,60.059,60.059,0
1484995727.376,38.574,58.594,49.316,58.105,71.777,0
1484995727.380,42.480,50.293,47.363,63.477,48.340,0
1484995727.384,60.547,21.484,50.781,69.824,56.152,0
1484995727.388,50.781,25.879,44.434,56.641,55.664,0
1484995727.392,38.086,36.133,37.109,50.781,29.297,0
1484995727.396,35.645,22.949,43.945,50.293,21.484,0
1484995727.400,28.320,33.691,37.109,41.504,13.184,0
1484995727.404,36.621,50.293,26.367,46.387,26.855,0
1484995727.408,43.945,35.645,36.621,61.035,27.832,0
1484995727.412,50.781,29.785,46.875,67.871,5.371,0
1484995727.416,48.340,44.434,36.621,56.641,19.531,0
1484995727.419,45.410,52.246,30.273,44.922,45.410,0
1484995727.423,47.852,40.039,31.250,45.898,25.391,0
1484995727.427,55.664,27.832,33.691,59.082,0.000,0
1484995727.431,60.547,31.250,38.574,62.988,36.621,0
1484995727.435,57.617,39.062,32.715,53.223,48.340,0
1484995727.439,55.176,30.762,33.691,52.734,-0.977,0
1484995727.443,39.551,21.973,30.762,52.246,-3.418,0
1484995727.447,43.945,23.438,28.809,46.387,15.625,0
1484995727.451,42.480,36.621,30.762,39.062,-11.230,0
1484995727.455,32.227,40.039,28.809,35.156,-1.465,0
1484995727.458,29.297,48.828,26.367,30.273,22.461,0
1484995727.462,17.578,38.086,23.438,23.926,48.340,0
1484995727.466,24.414,27.832,22.461,20.508,41.016,0
1484995727.470,31.250,19.531,30.762,27.344,23.438,0
1484995727.474,28.320,31.250,31.250,26.855,38.086,0
1484995727.478,42.480,36.621,38.574,39.551,49.805,0
1484995727.482,42.480,33.691,42.969,48.340,26.855,0
1484995727.486,36.621,37.109,39.551,44.434,16.602,0
1484995727.490,46.387,35.156,44.922,54.688,32.715,0
1484995727.494,41.504,30.762,47.852,48.828,43.945,0
1484995727.498,23.438,30.273,34.180,34.668,32.715,0
1484995727.501,25.879,21.973,27.832,33.691,25.391,0
1484995727.505,34.668,35.156,24.902,28.809,1.953,0
1484995727.509,40.527,43.945,28.320,35.156,6.348,0
1484995727.513,28.809,48.828,32.715,39.551,9.277,0
1484995727.517,35.156,66.895,34.668,37.109,4.883,0
1484995727.521,59.082,55.176,42.969,49.805,50.781,0
1484995727.525,60.547,37.109,46.875,56.641,27.344,0
1484995727.529,55.176,37.598,43.945,58.594,-6.836,0
1484995727.533,45.410,29.297,35.645,56.641,-19.043,0
1484995727.537,37.598,30.762,27.832,43.457,11.719,0
1484995727.541,37.109,35.156,25.879,40.527,34.668,0
1484995727.544,40.527,23.926,31.250,50.781,24.902,0
1484995727.548,38.086,28.320,33.691,49.316,17.578,0
1484995727.552,46.875,37.598,36.133,51.758,21.973,0
1484995727.556,56.641,37.598,40.039,55.664,30.762,0
1484995727.560,46.387,41.016,40.527,54.688,42.480,0
1484995727.564,50.781,52.246,46.875,64.453,36.133,0
1484995727.568,57.617,52.246,54.199,66.895,52.246,0
1484995727.572,42.480,22.461,42.480,54.199,74.219,0
1484995727.576,21.484,21.484,29.297,36.133,38.086,0
1484995727.580,13.672,30.762,29.297,19.531,18.066,0
1484995727.583,19.531,36.621,23.438,15.137,29.297,0
1484995727.587,27.832,27.832,27.344,32.227,28.809,0
1484995727.591,34.180,20.996,33.691,51.270,6.348,0
1484995727.595,30.762,27.344,32.227,46.387,23.438,0
1484995727.599,39.062,20.020,36.621,45.898,43.457,0
1484995727.603,41.504,24.902,41.504,49.316,26.367,0
1484995727.607,33.203,39.551,43.457,46.875,26.367,0
1484995727.611,15.625,38.086,37.109,43.945,14.160,0
1484995727.615,13.184,28.320,35.156,41.504,-4.395,0
1484995727.619,27.344,29.297,34.180,43.945,6.348,0
1484995727.623,28.809,25.391,29.297,42.480,6.836,0
1484995727.626,19.531,23.926,28.809,38.086,14.160,0
1484995727.630,17.090,48.340,25.879,38.574,18.555,0
1484995727.634,34.180,41.016,34.668,53.711,4.883,0
1484995727.638,39.062,28.320,41.992,50.781,11.719,0
1484995727.642,29.297,41.016,36.133,34.668,36.133,0
1484995727.646,32.227,18.066,38.574,48.340,41.016,0
1484995727.650,46.875,17.578,39.062,59.082,15.137,0
1484995727.654,43.945,33.203,35.156,53.711,32.227,0
1484995727.658,23.926,25.391,32.715,49.316,72.754,0
1484995727.662,17.090,20.508,26.855,46.875,36.133,0
1484995727.666,36.621,36.621,32.227,56.152,15.137,0
1484995727.669,43.457,45.410,39.551,56.641,39.062,0
1484995727.673,24.902,26.855,34.668,51.758,31.738,0
1484995727.677,28.809,24.902,35.156,47.852,12.695,0
1484995727.681,40.527,27.344,43.457,50.293,-6.348,0
1484995727.685,26.855,25.879,38.574,49.805,7.324,0
1484995727.689,30.273,31.250,38.086,44.434,40.039,0
1484995727.693,36.133,41.016,39.551,38.086,27.832,2
1484995727.697,25.879,36.133,33.203,32.227,4.395,0
1484995727.701,21.484,42.480,33.203,28.809,56.152,0
1484995727.705,28.809,31.250,34.668,32.715,52.734,0
1484995727.708,43.945,26.367,35.645,43.945,43.945,0
1484995727.712,33.203,51.758,34.180,41.016,47.852,0
1484995727.716,36.621,57.617,33.691,38.086,25.391,0
1484995727.720,59.082,39.551,45.898,50.781,28.320,0
1484995727.724,50.781,42.480,38.574,52.734,9.277,0
1484995727.728,41.992,48.828,26.855,39.551,35.645,0
1484995727.732,41.016,-61.523,33.203,33.691,64.453,0
1484995727.736,35.156,-169.434,31.738,44.922,45.898,0
1484995727.740,35.156,-172.852,40.527,41.504,21.973,0
1484995727.744,44.434,-164.062,40.527,35.645,18.066,0
1484995727.748,37.109,-131.348,22.949,42.480,67.383,0
1484995727.751,36.133,-128.906,32.227,49.805,29.297,0
1484995727.755,46.875,-109.863,40.527,58.594,8.301,0
1484995727.759,39.062,-52.734,38.574,50.293,71.289,0
1484995727.763,52.734,-68.359,45.898,57.129,68.848,0
1484995727.767,55.664,-82.031,39.551,62.988,33.691,0
1484995727.771,34.668,-52.246,29.297,57.129,19.043,0
1484995727.775,30.273,-39.062,32.227,51.270,55.664,0
1484995727.779,35.645,-34.668,32.715,42.969,45.410,0
1484995727.783,41.992,-33.203,34.180,41.504,7.324,0
1484995727.787,41.992,-23.438,34.668,45.898,19.043,0
1484995727.791,37.598,-25.391,32.227,43.457,21.973,0
1484995727.794,38.574,5.371,36.621,34.180,27.832,0
1484995727.798,37.109,11.230,34.668,32.715,31.738,0
1484995727.802,45.898,-27.832,25.879,32.227,41.992,0
1484995727.806,40.039,-13.184,26.367,42.480,45.898,0
1484995727.810,26.855,20.508,28.809,41.992,39.551,0
1484995727.814,39.551,21.973,39.551,46.875,29.785,0
1484995727.818,44.922,25.879,43.457,57.129,17.578,0
1484995727.822,47.363,31.738,38.574,47.852,44.434,0
1484995727.826,50.293,15.137,40.039,53.223,38.574,0
1484995727.830,41.992,20.020,42.969,47.363,33.691,0
1484995727.833,39.551,32.227,49.316,42.969,40.527,0
1484995727.837,29.297,33.203,34.668,41.504,32.715,0
1484995727.841,21.973,13.672,29.297,32.715,21.973,0
1484995727.845,30.273,17.090,35.645,38.574,4.395,0
1484995727.849,36.133,16.113,34.668,42.969,1.953,0
1484995727.853,45.898,14.648,41.016,43.457,15.137,0
1484995727.857,39.062,31.738,45.898,43.457,17.578,0
1484995727.861,39.062,31.738,42.480,47.852,13.672,0
1484995727.865,33.691,35.156,40.039,41.016,19.531,0
1484995727.869,37.598,41.992,44.922,45.410,45.410,0
1484995727.873,41.992,67.871,50.293,52.246,25.879,0
1484995727.876,32.227,50.293,43.457,42.969,18.066,0
1484995727.880,24.902,20.996,34.180,34.180,41.504,0
1484995727.884,16.113,33.203,33.203,29.297,25.879,0
1484995727.888,19.531,47.852,39.062,37.598,26.855,0
1484995727.892,27.832,50.293,41.016,42.480,45.410,0
1484995727.896,38.086,32.715,41.504,53.223,52.734,0
1484995727.900,41.016,21.973,48.828,72.754,50.781,0
1484995727.904,38.086,34.668,49.316,64.453,17.578,0
1484995727.908,41.504,35.645,34.180,48.828,15.625,0
1484995727.912,37.109,46.875,29.785,62.012,51.758,0
1484995727.916,42.480,54.199,36.133,62.012,42.969,0
1484995727.919,49.316,44.922,36.133,46.387,-8.301,0
1484995727.923,37.109,65.918,38.086,41.016,-0.977,0
1484995727.927,35.645,59.570,37.598,47.852,36.621,0
1484995727.931,42.480,43.457,31.250,52.246,20.020,0
1484995727.935,41.504,37.598,34.668,51.758,6.348,0
1484995727.939,45.898,14.160,39.062,61.523,41.992,0
1484995727.943,40.527,41.016,33.691,60.547,62.500,0
1484995727.947,36.621,60.059,31.250,39.062,27.832,0
1484995727.951,35.645,26.855,36.133,39.551,11.230,0
1484995727.955,26.855,13.672,26.855,30.762,24.414,0
1484995727.958,19.043,22.461,26.855,22.949,43.457,0
1484995727.962,20.020,37.598,31.738,30.273,39.062,0
1484995727.966,24.902,39.551,23.926,25.879,29.785,0
1484995727.970,27.344,28.809,28.809,28.809,45.898,0
1484995727.974,26.855,38.574,32.715,35.156,50.781,0
1484995727.978,23.926,46.875,37.109,41.992,41.504,0
1484995727.982,33.691,22.949,39.062,43.457,28.320,0
1484995727.986,32.227,30.762,26.367,39.062,28.320,0
1484995727.990,21.484,59.570,35.156,47.363,32.227,0
1484995727.994,24.414,46.387,41.016,53.223,37.109,0
1484995727.998,23.438,41.992,24.414,33.691,28.809,0
1484995728.001,15.137,39.551,21.973,23.438,19.531,0
1484995728.005,29.297,23.926,24.414,28.320,32.227,0
1484995728.009,39.551,28.809,27.832,39.062,17.578,0
1484995728.013,32.227,29.297,34.668,47.852,-1.953,0
1484995728.017,32.715,34.668,34.668,41.992,25.391,0
1484995728.021,32.715,38.574,30.762,34.180,35.645,0
1484995728.025,24.902,34.668,31.250,34.180,-8.789,0
1484995728.029,17.578,64.453,35.156,41.992,19.043,0
1484995728.033,24.902,55.664,38.086,41.016,41.992,0
1484995728.037,29.785,7.812,28.320,37.109,-13.672,0
1484995728.041,24.414,21.484,27.344,40.527,4.395,0
1484995728.044,10.742,24.902,28.320,35.156,20.996,0
1484995728.048,19.531,11.719,27.832,35.645,-8.789,0
1484995728.052,19.043,30.273,30.762,33.691,1.465,0
1484995728.056,19.531,28.320,29.785,46.387,3.906,0
1484995728.060,18.555,25.391,30.762,44.434,11.719,0
1484995728.064,17.090,25.391,30.762,32.715,58.594,0
1484995728.068,36.621,26.367,40.527,43.945,46.387,0
1484995728.072,42.480,45.410,44.922,54.688,18.066,0
1484995728.076,26.855,42.969,33.691,49.805,39.062,0
1484995728.080,11.719,30.273,26.367,38.574,56.152,0
1484995728.083,11.719,32.227,28.320,34.180,61.523,0
1484995728.087,21.973,38.086,31.738,35.645,61.035,0
1484995728.091,10.742,32.227,36.133,29.785,50.293,0
1484995728.095,2.930,37.598,33.203,25.391,37.109,0
1484995728.099,21.973,23.438,38.574,46.875,4.395,0
1484995728.103,23.926,39.062,49.805,51.758,-2.441,0
1484995728.107,18.555,62.012,43.945,44.922,31.738,0
1484995728.111,25.879,29.297,35.645,47.363,24.414,0
1484995728.115,20.020,32.227,23.438,35.645,17.578,0
1484995728.119,27.832,27.344,24.414,45.898,31.738,0
1484995728.123,40.039,26.855,33.203,67.383,49.805,0
1484995728.126,36.133,49.805,25.391,55.664,40.039,0
1484995728.130,41.504,42.480,29.785,48.340,23.438,0
1484995728.134,47.363,37.109,40.039,56.641,30.762,0
1484995728.138,34.180,45.410,39.062,53.711,20.020,0
1484995728.142,29.785,51.270,35.645,51.270,15.625,0
1484995728.146,38.086,41.016,31.738,48.828,12.207,0
1484995728.150,26.367,30.762,29.297,43.457,42.480,0
1484995728.154,21.484,37.109,37.598,48.828,55.664,0
1484995728.158,32.227,34.668,41.992,48.340,34.180,0
1484995728.162,31.250,33.691,39.551,41.992,36.621,0
1484995728.166,20.508,30.762,43.945,50.781,33.203,0
1484995728.169,22.461,46.875,39.062,41.504,53.223,0
1484995728.173,30.762,57.617,41.504,35.645,16.602,0
1484995728.177,36.621,36.621,55.664,61.035,12.695,0
1484995728.181,29.785,40.039,54.199,59.570,34.668,0
1484995728.185,22.949,36.621,50.293,44.434,37.109,0
1484995728.189,21.484,30.762,45.898,40.527,16.602,0
1484995728.193,21.973,41.504,39.062,38.086,-4.395,3
1484995728.197,28.320,41.016,40.527,38.574,29.785,0
1484995728.201,39.551,29.297,46.875,48.340,33.203,0
1484995728.205,38.086,33.691,48.340,50.781,39.062,0
1484995728.208,43.945,41.016,50.781,58.105,50.781,0
1484995728.212,43.945,42.969,47.363,61.035,50.293,0
1484995728.216,34.668,58.105,41.016,52.246,28.320,0
1484995728.220,56.152,53.223,51.270,65.918,14.160,0
1484995728.224,53.223,41.504,49.316,53.711,41.992,0
1484995728.228,37.109,34.180,39.062,37.109,72.754,0
1484995728.232,43.945,21.973,42.480,56.641,52.246,0
1484995728.236,43.945,40.039,43.945,57.129,14.648,0
1484995728.240,42.969,37.598,42.969,52.246,20.996,0
1484995728.244,38.574,47.363,42.480,52.246,52.734,0
1484995728.248,40.039,52.246,43.945,51.270,44.434,0
1484995728.251,42.969,29.785,44.922,54.688,25.391,0
1484995728.255,43.945,29.297,44.922,52.246,21.973,0
1484995728.259,44.922,34.668,46.875,57.617,22.461,0
1484995728.263,52.246,34.180,53.223,70.312,39.551,0
1484995728.267,40.527,46.387,42.480,59.570,29.297,0
1484995728.271,38.574,46.875,39.551,50.781,11.230,0
1484995728.275,50.293,29.297,48.340,54.688,17.578,0
1484995728.279,36.621,54.199,48.828,58.594,28.320,0
1484995728.283,30.273,62.500,42.969,56.641,30.273,0
1484995728.287,40.527,31.738,45.410,55.176,50.293,0
1484995728.291,31.738,37.598,37.109,40.039,54.688,0
1484995728.294,33.203,46.387,38.086,43.945,30.762,0
1484995728.298,52.246,30.762,44.434,52.734,23.926,0
1484995728.302,34.180,16.602,40.039,40.039,54.688,0
1484995728.306,36.621,13.672,44.922,41.016,43.945,0
1484995728.310,43.945,56.641,42.969,44.922,25.879,0
1484995728.314,37.109,61.523,43.945,47.852,23.438,0
1484995728.318,51.758,43.945,50.781,53.711,3.906,0
1484995728.322,40.527,47.363,44.434,48.828,10.254,0
1484995728.326,25.391,38.086,33.203,38.574,9.277,0
1484995728.330,37.109,45.410,33.203,39.551,20.020,0
1484995728.333,43.945,62.500,45.410,46.875,13.672,0
1484995728.337,43.945,52.734,48.340,55.664,9.277,0
1484995728.341,42.480,27.832,38.574,57.617,9.766,0
1484995728.345,41.504,20.508,39.551,55.176,19.531,0
1484995728.349,43.457,39.551,44.922,60.547,58.105,0
1484995728.353,55.664,45.898,47.363,63.477,46.875,0
1484995728.357,60.547,28.320,44.434,61.523,19.531,0
1484995728.361,51.758,38.086,39.551,56.641,28.809,0
1484995728.365,45.410,63.965,38.086,49.316,39.062,0
1484995728.369,47.363,42.480,42.480,55.176,35.156,0
1484995728.373,56.152,32.715,42.480,56.641,27.832,0
1484995728.376,52.246,44.434,40.039,56.152,36.133,0
1484995728.380,51.270,42.480,44.922,62.988,58.594,0
1484995728.384,35.156,62.988,37.598,45.410,57.129,0
1484995728.388,42.969,58.594,28.809,39.551,50.781,0
1484995728.392,52.246,28.320,35.645,54.688,54.199,0
1484995728.396,43.457,30.273,32.715,51.270,34.180,0
1484995728.400,33.691,43.457,29.785,36.621,2.441,0
1484995728.404,20.020,39.551,27.832,31.250,16.602,0
1484995728.408,32.715,23.438,37.109,48.828,57.129,0
1484995728.412,15.137,55.176,41.992,37.109,42.480,0
1484995728.416,12.695,67.871,45.410,45.898,25.391,0
1484995728.419,43.457,47.363,52.246,68.359,17.578,0
1484995728.423,41.504,36.133,45.898,59.570,3.418,0
1484995728.427,36.621,51.758,43.457,55.664,-10.254,0
1484995728.431,41.016,62.500,40.039,53.711,-19.531,0
1484995728.435,44.434,36.621,42.969,55.664,1.953,0
1484995728.439,45.898,28.320,41.016,48.828,12.695,0
1484995728.443,45.898,28.809,37.598,48.340,31.250,0
1484995728.447,27.344,38.086,39.062,47.363,67.871,0
1484995728.451,20.508,36.133,40.527,41.016,71.777,0
1484995728.455,34.668,30.762,41.504,41.992,45.898,0
1484995728.458,29.785,46.387,41.016,45.898,38.086,0
1484995728.462,19.531,49.316,35.156,45.410,28.320,0
1484995728.466,28.320,43.457,41.504,46.387,16.113,0
1484995728.470,39.062,47.852,42.480,41.992,41.992,0
1484995728.474,25.879,45.898,32.227,29.297,17.578,0
1484995728.478,30.762,37.109,39.062,33.691,-11.230,0
1484995728.482,39.062,43.945,43.945,44.434,31.250,0
1484995728.486,21.484,48.340,33.691,44.922,34.668,0
1484995728.490,21.484,37.109,25.879,41.016,23.926,0
1484995728.494,36.621,23.438,35.156,40.039,56.152,0
1484995728.498,34.180,44.434,33.203,36.133,79.590,0
1484995728.501,35.156,48.340,35.645,45.898,58.105,0
1484995728.505,35.156,41.992,46.875,48.828,45.898,0
1484995728.509,34.668,41.016,43.945,44.922,32.715,0
1484995728.513,41.992,30.273,38.574,44.434,16.113,0
1484995728.517,37.109,43.945,33.203,40.039,15.625,0
1484995728.521,34.668,61.523,29.297,39.551,-0.977,0
1484995728.525,38.574,38.574,32.227,44.922,-11.230,0
1484995728.529,33.691,27.344,32.715,42.969,47.363,0
1484995728.533,46.387,38.574,32.715,46.875,43.457,0
1484995728.537,40.039,41.016,30.273,45.410,9.277,0
1484995728.541,33.203,34.180,34.668,45.898,39.551,0
1484995728.544,29.297,37.598,43.457,47.852,25.879,0
1484995728.548,22.949,40.039,37.109,46.387,8.789,0
1484995728.552,34.668,32.715,31.738,50.293,36.621,0
1484995728.556,39.551,20.996,36.621,49.316,48.828,0
1484995728.560,27.344,34.180,29.785,44.434,17.090,0
1484995728.564,26.855,30.762,26.855,46.875,22.461,0
1484995728.568,30.762,26.855,35.156,58.105,12.207,0
1484995728.572,40.527,41.992,42.969,67.871,14.648,0
1484995728.576,34.668,45.410,36.621,59.082,21.484,0
1484995728.580,33.203,37.109,37.109,45.898,21.484,0
1484995728.583,36.621,24.414,36.133,39.062,58.594,0
1484995728.587,24.414,24.902,27.344,43.457,86.914,0
1484995728.591,34.180,34.180,32.715,48.828,48.340,0
1484995728.595,40.039,34.668,35.156,45.410,43.945,0
1484995728.599,44.434,23.438,33.691,53.223,51.758,0
1484995728.603,42.480,32.715,33.203,51.270,25.879,0
1484995728.607,40.039,41.016,34.180,45.410,-3.418,0
1484995728.611,44.922,36.621,26.855,46.387,-5.371,0
1484995728.615,49.805,39.062,27.344,41.016,12.695,0
1484995728.619,35.645,46.875,27.344,43.457,29.297,0
1484995728.623,30.762,37.109,26.367,39.062,5.859,0
1484995728.626,51.270,29.297,25.879,30.273,-29.785,0
1484995728.630,44.922,30.762,30.762,34.668,-7.324,0
1484995728.634,40.039,25.879,32.227,32.715,21.484,0
1484995728.638,50.781,43.457,31.738,41.992,30.762,0
1484995728.642,51.758,43.457,41.992,52.734,15.625,0
1484995728.646,35.156,26.367,38.574,33.691,14.160,0
1484995728.650,36.621,25.879,40.039,38.574,41.016,0
1484995728.654,48.340,40.527,39.551,51.758,53.711,0
1484995728.658,31.738,35.156,27.344,39.551,38.086,0
1484995728.662,32.715,10.742,34.668,49.316,39.551,0
1484995728.666,22.949,43.945,30.762,41.504,35.645,0
1484995728.669,31.738,43.945,31.250,41.992,-7.324,0
1484995728.673,43.457,22.949,43.457,62.012,8.789,0
1484995728.677,38.086,41.504,43.457,63.965,52.246,0
1484995728.681,48.340,41.016,39.551,66.895,29.297,0
1484995728.685,55.176,27.344,43.457,76.172,18.555,0
1484995728.689,58.594,33.691,46.387,68.848,10.742,0
1484995728.693,48.340,24.414,40.527,61.035,22.461,4
1484995728.697,27.344,27.832,27.832,44.922,31.738,0
1484995728.701,14.648,41.504,17.578,27.832,-11.230,0
1484995728.705,31.738,31.250,29.297,39.062,3.906,0
1484995728.708,47.852,34.668,39.062,45.410,41.992,0
1484995728.712,47.363,38.574,35.645,55.664,28.809,0
1484995728.716,56.641,28.809,40.527,64.453,17.578,0
1484995728.720,61.035,25.391,34.180,54.199,26.855,0
1484995728.724,48.828,32.227,30.273,42.969,39.551,0
1484995728.728,39.062,36.621,38.574,46.387,41.016,0
1484995728.732,27.344,41.016,32.715,45.410,42.480,0
1484995728.736,26.855,25.391,25.879,35.645,50.781,0
1484995728.740,27.344,29.297,25.391,34.668,46.875,0
1484995728.744,23.926,29.785,27.832,40.527,51.270,0
1484995728.748,26.855,24.414,27.832,36.621,14.648,0
1484995728.751,37.109,30.273,35.156,35.645,-2.930,0
1484995728.755,45.410,24.414,49.316,49.805,54.688,0
1484995728.759,33.691,27.344,48.828,49.316,18.066,0
1484995728.763,28.809,20.508,41.504,47.852,4.395,0
1484995728.767,28.809,25.879,34.180,41.992,45.410,0
1484995728.771,21.484,25.391,25.879,30.762,14.160,0
1484995728.775,7.324,16.113,20.508,34.668,-1.465,0
1484995728.779,13.672,10.254,30.762,45.410,23.926,0
1484995728.783,31.738,18.066,36.133,38.574,29.785,0
1484995728.787,32.227,18.555,33.203,42.480,10.254,0
1484995728.791,32.227,13.184,39.062,48.340,21.973,0
1484995728.794,29.785,13.184,41.992,40.527,17.578,0
1484995728.798,33.691,17.578,29.785,39.551,24.902,0
1484995728.802,36.133,29.785,28.809,48.828,26.367,0
1484995728.806,37.109,29.297,40.039,59.082,-16.602,0
1484995728.810,24.414,32.227,30.762,34.668,5.371,0
1484995728.814,25.391,22.461,25.879,31.738,56.641,0
1484995728.818,29.785,22.949,30.273,52.734,40.527,0
1484995728.822,24.902,43.945,26.367,39.062,12.695,0
1484995728.826,26.367,30.273,28.809,40.527,43.457,0
1484995728.830,36.621,13.672,35.645,60.547,48.340,0
1484995728.833,31.250,30.273,32.715,47.363,35.645,0
1484995728.837,26.855,19.531,33.203,43.945,43.457,0
1484995728.841,31.738,22.461,34.668,50.293,51.758,0
1484995728.845,26.367,39.551,27.832,46.387,51.270,0
1484995728.849,36.133,36.621,35.645,44.922,31.738,0
1484995728.853,39.551,37.598,38.086,44.434,18.555,0
1484995728.857,28.320,18.066,36.621,48.340,30.273,0
1484995728.861,17.090,20.996,34.180,42.969,28.320,0
1484995728.865,34.180,36.133,37.109,44.434,32.227,0
1484995728.869,43.945,40.039,41.504,43.457,53.223,0
1484995728.873,38.086,41.504,30.273,31.738,50.781,0
1484995728.876,32.227,49.805,22.949,28.809,13.184,0
1484995728.880,31.738,20.020,32.227,40.527,1.953,0
1484995728.884,42.480,21.484,38.574,56.152,23.926,0
1484995728.888,32.227,44.922,30.762,42.969,59.082,0
1484995728.892,31.738,32.227,26.367,30.762,36.621,0
1484995728.896,39.551,23.438,31.738,44.922,3.418,0
1484995728.900,41.016,33.691,32.227,45.898,37.598,0
1484995728.904,46.387,38.086,39.062,58.105,38.574,0
1484995728.908,34.180,40.527,37.109,53.711,14.160,0
1484995728.912,31.738,43.457,40.039,41.992,19.531,0
1484995728.916,31.738,36.621,37.598,44.434,44.922,0
1484995728.919,37.598,30.273,28.320,41.016,43.457,0
1484995728.923,31.738,44.434,35.645,45.410,50.781,0
1484995728.927,30.273,43.457,40.527,51.758,49.316,0
1484995728.931,36.133,31.250,32.715,43.945,46.875,0
1484995728.935,41.504,26.855,37.109,50.293,35.156,0
1484995728.939,47.363,29.785,41.992,70.312,29.297,0
1484995728.943,47.852,41.504,38.086,72.266,29.297,0
1484995728.947,41.992,53.711,38.086,61.035,19.531,0
1484995728.951,41.016,62.012,35.645,44.434,22.461,0
1484995728.955,43.945,43.457,41.992,49.316,10.742,0
1484995728.958,47.363,8.789,46.875,61.035,24.902,0
1484995728.962,39.551,33.691,41.016,57.129,66.895,0
1484995728.966,30.762,40.527,39.551,55.664,55.664,0
1484995728.970,33.691,25.879,31.738,42.969,45.898,0
1484995728.974,32.227,29.785,31.250,43.457,48.340,0
1484995728.978,34.180,40.039,34.180,47.852,38.574,0
1484995728.982,38.086,41.504,38.086,42.480,33.203,0
1484995728.986,37.598,12.207,40.527,43.945,28.320,0
1484995728.990,29.297,16.113,34.180,31.250,17.090,0
1484995728.994,30.273,33.203,29.785,26.367,33.691,0
1484995728.998,47.363,33.203,35.645,51.270,26.367,0
1484995729.001,38.574,41.504,41.992,54.688,4.395,0
1484995729.005,22.949,30.273,30.273,34.180,43.457,0
1484995729.009,20.020,19.531,23.438,36.133,67.871,0
1484995729.013,32.227,20.996,29.297,51.270,71.289,0
1484995729.017,29.297,51.270,26.367,29.785,70.312,0
1484995729.021,32.227,54.688,35.156,25.879,42.969,0
1484995729.025,47.363,19.531,42.480,49.805,43.945,0
1484995729.029,42.480,24.414,34.180,42.969,49.805,0
1484995729.033,34.180,26.367,29.785,33.691,41.992,0
1484995729.037,34.180,17.578,31.738,44.434,56.641,0
1484995729.041,33.691,31.738,43.457,54.199,53.711,0
1484995729.044,27.344,28.320,32.715,45.898,15.625,0
1484995729.048,23.438,25.391,20.996,41.992,-8.789,0
1484995729.052,33.203,57.617,35.645,42.480,18.066,0
1484995729.056,45.410,52.734,44.434,56.641,25.879,0
1484995729.060,40.039,22.949,38.574,62.500,-6.836,0
1484995729.064,25.391,17.578,31.738,53.711,-0.977,0
1484995729.068,25.391,32.715,38.086,52.734,52.246,0
1484995729.072,37.598,43.945,46.387,56.641,46.387,0
1484995729.076,38.574,50.293,43.945,64.453,20.020,0
1484995729.080,34.180,39.062,42.969,65.430,37.109,0
1484995729.083,30.762,15.625,38.574,54.688,38.086,0
1484995729.087,28.320,24.902,41.016,42.480,31.250,0
1484995729.091,30.762,41.992,38.086,39.062,20.508,0
1484995729.095,33.691,36.621,35.156,46.387,61.523,0
1484995729.099,35.156,38.086,39.551,53.223,62.988,0
1484995729.103,26.855,24.414,39.062,52.246,17.578,0
1484995729.107,17.578,33.203,33.691,43.457,43.945,0
1484995729.111,36.133,30.273,35.156,53.711,82.031,0
1484995729.115,43.945,9.766,51.758,62.012,66.406,0
1484995729.119,38.086,32.227,48.828,61.035,43.945,0
1484995729.123,47.852,43.457,38.574,71.777,41.992,0
1484995729.126,42.480,22.949,42.480,75.195,50.293,0
1484995729.130,43.945,20.996,42.969,78.125,49.316,0
1484995729.134,44.434,31.250,44.922,74.219,29.297,0
1484995729.138,31.738,27.832,35.156,62.012,5.859,0
1484995729.142,25.391,29.785,21.973,55.664,38.574,0
1484995729.146,26.855,49.316,26.855,62.012,38.086,0
1484995729.150,46.875,39.551,40.039,68.848,32.227,0
1484995729.154,45.410,39.551,40.039,59.570,27.344,0
1484995729.158,51.758,41.504,44.922,75.684,49.316,0
1484995729.162,61.035,29.785,54.688,86.914,54.688,0
1484995729.166,46.875,46.387,41.992,61.035,34.180,0
1484995729.169,51.758,47.363,44.922,65.430,16.602,0
1484995729.173,48.828,27.832,49.805,72.754,34.180,0
1484995729.177,34.668,21.484,34.668,62.012,38.086,0
1484995729.181,38.574,39.551,32.715,66.406,3.906,0
1484995729.185,37.598,43.945,34.180,59.570,26.367,0
1484995729.189,50.293,35.645,37.109,63.965,48.340,0
1484995729.193,50.781,44.922,41.992,69.824,46.875,0
1484995729.197,50.293,33.203,53.711,75.684,55.176,5
1484995729.201,54.688,38.574,46.875,80.566,61.035,0
1484995729.205,40.039,33.203,38.086,64.453,35.645,0
1484995729.208,28.809,26.855,38.574,53.223,43.457,0
1484995729.212,30.762,22.949,34.668,56.152,62.012,0
1484995729.216,29.785,24.414,35.156,54.688,40.039,0
1484995729.220,31.250,24.414,36.621,55.664,4.395,0
1484995729.224,42.969,16.602,44.434,63.477,-14.648,0
1484995729.228,47.363,30.273,45.410,59.082,19.531,0
1484995729.232,52.246,27.832,40.039,61.523,53.223,0
1484995729.236,40.527,47.852,38.086,59.082,53.711,0
1484995729.240,40.039,54.688,41.504,63.965,22.949,0
1484995729.244,46.387,31.738,34.180,57.129,9.766,0
1484995729.248,34.668,7.812,29.297,48.340,30.273,0
1484995729.251,27.344,29.785,28.809,45.410,45.410,0
1484995729.255,40.527,40.039,32.227,53.223,47.363,0
1484995729.259,52.246,12.207,40.039,67.383,27.832,0
1484995729.263,34.180,27.832,40.039,59.082,12.695,0
1484995729.267,35.156,44.922,36.621,57.617,11.230,0
1484995729.271,39.062,22.949,37.109,62.988,-0.977,0
1484995729.275,64.941,20.020,53.711,81.543,4.395,0
1484995729.279,78.125,41.504,52.246,83.984,29.785,0
1484995729.283,46.875,32.715,29.297,57.129,38.574,0
1484995729.287,47.852,28.809,28.809,51.270,8.301,0
1484995729.291,61.523,28.809,38.574,61.035,31.738,0
1484995729.294,49.805,45.898,30.273,55.176,54.199,0
1484995729.298,39.551,42.969,28.809,44.434,40.527,0
1484995729.302,41.016,32.715,37.598,52.246,53.711,0
1484995729.306,45.410,47.363,37.598,59.570,47.852,0
1484995729.310,49.805,47.363,44.434,60.059,42.969,0
1484995729.314,61.523,31.250,46.387,60.059,32.715,0
1484995729.318,64.941,29.785,39.062,64.941,24.414,0
1484995729.322,60.547,30.273,45.898,73.730,55.664,0
1484995729.326,53.711,27.832,45.898,65.430,35.156,0
1484995729.330,37.598,32.227,35.645,45.898,34.668,0
1484995729.333,43.457,22.949,35.645,49.805,63.965,0
1484995729.337,44.434,31.738,41.016,58.105,59.570,0
1484995729.341,37.109,38.086,44.922,59.570,22.461,0
1484995729.345,41.504,30.273,41.016,59.570,27.344,0
1484995729.349,34.180,58.105,33.691,47.363,60.059,0
1484995729.353,26.367,59.082,34.180,34.668,65.430,0
1484995729.357,35.645,37.109,41.992,45.898,65.918,0
1484995729.361,48.828,45.898,40.527,54.688,34.668,0
1484995729.365,53.223,35.156,35.645,48.340,13.672,0
1484995729.369,40.039,32.715,37.598,44.434,30.273,0
1484995729.373,35.645,36.621,38.574,45.410,26.367,0
1484995729.376,40.527,30.762,37.109,47.852,23.926,0
1484995729.380,40.039,42.480,39.551,44.434,34.180,0
1484995729.384,40.527,42.480,42.480,42.480,61.523,0
1484995729.388,36.621,36.621,44.922,52.246,46.387,0
1484995729.392,29.297,39.551,41.504,52.734,30.762,0
1484995729.396,30.762,46.387,38.574,45.898,39.062,0
1484995729.400,40.527,52.246,38.574,45.410,38.086,0
1484995729.404,39.062,40.039,36.133,46.875,23.438,0
1484995729.408,36.133,37.109,35.156,47.363,22.461,0
1484995729.412,36.621,56.152,36.621,46.387,32.227,0
1484995729.416,43.457,50.293,39.551,49.316,18.066,0
1484995729.419,40.039,38.086,35.156,38.086,31.250,0
1484995729.423,35.156,56.152,33.691,28.809,50.293,0
1484995729.427,33.203,60.547,35.156,31.738,45.898,0
1484995729.431,26.855,31.738,37.109,43.945,17.578,0
1484995729.435,44.922,41.016,39.062,50.293,9.277,0
1484995729.439,44.434,62.988,34.668,41.504,15.137,0
1484995729.443,28.320,53.711,33.203,36.133,47.363,0
1484995729.447,34.180,40.039,29.297,34.180,25.879,0
1484995729.451,29.785,40.039,27.344,38.086,8.789,0
1484995729.455,37.109,52.734,32.227,42.480,42.969,0
1484995729.458,36.621,71.289,30.762,41.992,6.348,0
1484995729.462,32.227,57.617,31.738,45.410,4.883,0
1484995729.466,34.180,40.039,34.180,51.270,9.766,0
1484995729.470,48.340,34.668,41.504,62.500,10.742,0
1484995729.474,62.012,37.598,45.410,68.359,41.992,0
1484995729.478,66.406,40.527,42.480,63.965,26.855,0
1484995729.482,70.312,47.852,47.852,62.012,20.996,0
1484995729.486,66.406,43.457,51.270,60.059,45.898,0
1484995729.490,40.039,41.504,46.387,50.781,31.738,0
1484995729.494,18.066,59.570,35.645,44.434,36.621,0
1484995729.498,38.574,59.082,36.133,54.688,43.945,0
1484995729.501,61.035,58.105,41.992,65.918,25.879,0
1484995729.505,66.895,59.570,40.039,64.941,32.715,0
1484995729.509,62.500,56.641,34.668,48.828,26.855,0
1484995729.513,62.988,41.016,44.434,46.387,19.043,0
1484995729.517,65.430,44.922,53.223,60.059,30.273,0
1484995729.521,59.570,48.828,46.387,64.941,24.414,0
1484995729.525,60.547,55.176,45.898,66.406,23.438,0
1484995729.529,45.898,57.129,45.898,61.523,37.109,0
1484995729.533,28.809,39.551,39.551,48.828,57.129,0
1484995729.537,26.367,50.781,39.551,44.922,37.598,0
1484995729.541,32.715,52.246,45.410,53.711,20.020,0
1484995729.544,38.574,50.781,46.387,58.594,29.297,0
1484995729.548,35.645,75.195,46.875,52.734,26.367,0
1484995729.552,39.062,67.871,45.898,48.340,26.367,0
1484995729.556,48.828,44.434,48.828,53.711,3.418,0
1484995729.560,24.902,46.387,36.621,36.621,19.043,0
1484995729.564,24.414,41.992,28.809,40.039,47.363,0
1484995729.568,35.645,33.691,40.527,61.035,32.227,0
1484995729.572,26.367,35.645,39.062,51.270,33.691,0
1484995729.576,31.250,36.133,37.598,47.363,55.176,0
1484995729.580,19.043,52.246,32.715,39.551,46.387,0
1484995729.583,19.043,67.871,25.879,34.668,12.207,0
1484995729.587,39.551,40.039,35.645,56.641,28.809,0
1484995729.591,41.992,26.855,42.480,70.312,41.016,0
1484995729.595,45.410,48.340,41.016,71.777,20.020,0
1484995729.599,45.410,48.340,40.527,66.406,10.742,0
1484995729.603,37.109,47.363,30.273,54.688,2.930,0
1484995729.607,42.969,44.922,34.668,58.594,18.066,0
1484995729.611,40.527,46.875,37.109,60.059,77.637,0
1484995729.615,30.762,56.152,33.691,55.664,100.098,0
1484995729.619,48.340,52.734,39.551,56.641,70.801,0
1484995729.623,47.363,48.828,39.062,54.688,61.523,0
1484995729.626,46.875,43.945,38.086,61.523,46.387,0
1484995729.630,42.480,50.293,32.715,43.945,28.809,0
1484995729.634,26.367,47.363,30.762,36.133,42.480,0
1484995729.638,40.527,41.504,34.180,58.105,41.016,0
1484995729.642,47.852,49.316,33.691,59.082,27.832,0
1484995729.646,38.574,34.668,33.691,47.852,12.207,0
1484995729.650,43.457,34.180,29.785,43.457,36.133,0
1484995729.654,41.016,49.805,29.297,51.270,58.594,0
1484995729.658,41.992,57.617,34.180,58.105,0.000,0
1484995729.662,49.316,71.289,44.434,54.199,-9.766,0
1484995729.666,41.504,56.152,37.109,49.316,39.062,0
1484995729.669,25.879,41.504,24.414,41.016,60.547,0
1484995729.673,21.973,51.758,23.926,36.133,37.109,0
1484995729.677,40.527,35.156,36.133,43.457,4.395,0
1484995729.681,62.012,42.969,55.176,61.035,21.973,0
1484995729.685,49.805,62.012,46.387,62.988,56.641,0
1484995729.689,41.016,54.199,30.762,57.617,32.715,0
1484995729.693,49.316,43.945,35.645,57.617,26.367,0
1484995729.697,43.945,47.363,32.715,45.410,27.832,0
1484995729.701,47.363,40.039,29.297,47.852,5.371,0
1484995729.705,56.152,38.574,40.039,57.129,-13.184,0
1484995729.708,48.340,28.809,41.504,54.199,9.277,0
1484995729.712,33.203,42.480,30.762,45.410,44.922,0
1484995729.716,29.785,84.473,24.414,40.527,24.414,0
1484995729.720,42.480,45.898,42.480,55.664,20.020,0
1484995729.724,35.156,28.320,43.457,57.617,16.113,0
1484995729.728,36.621,39.551,35.156,49.316,15.625,0
1484995729.732,36.621,38.574,37.109,46.875,12.207,0
1484995729.736,40.039,46.875,34.668,50.781,-41.992,0
1484995729.740,46.875,34.668,38.574,59.082,-27.344,0
1484995729.744,39.062,48.340,38.574,58.594,19.531,0
1484995729.748,47.363,55.664,40.039,56.641,24.414,0
1484995729.751,46.875,45.898,39.062,50.293,13.672,0
1484995729.755,50.293,41.992,41.504,55.176,10.254,0
1484995729.759,45.410,37.109,35.645,55.176,22.461,0
1484995729.763,36.621,66.406,34.668,45.410,21.484,0
1484995729.767,49.805,79.102,42.969,51.758,7.324,0
1484995729.771,37.109,65.430,29.785,47.363,47.363,0
1484995729.775,25.879,45.410,23.438,46.387,49.316,0
1484995729.779,45.898,42.480,34.180,57.129,27.344,0
1484995729.783,55.664,46.387,39.551,60.547,12.207,0
1484995729.787,52.734,44.434,39.551,67.871,7.812,0
1484995729.791,52.246,62.988,41.992,66.406,38.574,0
1484995729.794,47.363,56.641,47.363,72.754,16.602,0
1484995729.798,46.387,54.688,44.922,70.801,5.859,0
1484995729.802,55.664,69.824,41.504,62.988,43.945,0
1484995729.806,52.734,52.734,43.457,63.965,78.125,0
1484995729.810,46.387,30.273,50.781,68.848,76.172,0
1484995729.814,41.504,42.969,55.176,69.824,22.949,0
1484995729.818,52.734,43.945,52.246,67.871,9.766,0
1484995729.822,41.504,63.965,49.316,59.082,39.062,0
1484995729.826,48.340,65.430,57.617,68.848,22.461,0
1484995729.830,60.059,45.410,58.105,77.148,-1.953,0
1484995729.833,42.969,69.336,50.293,66.895,36.621,0
1484995729.837,49.805,50.293,56.152,79.102,14.648,0
1484995729.841,45.410,47.852,47.363,67.383,-26.855,0
1484995729.845,42.969,70.801,50.781,64.941,24.414,0
1484995729.849,60.547,39.551,63.965,87.402,23.926,0
1484995729.853,57.129,52.734,61.035,71.777,29.785,0
1484995729.857,50.781,77.148,62.500,69.824,42.480,0
1484995729.861,52.246,62.988,57.129,74.219,26.855,0
1484995729.865,51.758,41.016,52.734,71.289,12.207,0
1484995729.869,59.082,43.945,53.711,77.148,-8.789,0
1484995729.873,57.129,59.570,52.246,72.266,15.625,0
1484995729.876,43.457,50.293,51.270,62.988,46.387,0
1484995729.880,41.504,47.852,48.828,53.711,41.016,0
1484995729.884,49.316,63.965,38.574,57.129,17.578,0
1484995729.888,34.180,62.500,37.598,55.176,0.488,0
1484995729.892,40.039,33.691,43.945,57.617,11.230,0
1484995729.896,47.852,37.109,41.016,67.383,7.812,0
1484995729.900,41.016,43.457,40.039,64.941,-8.789,0
1484995729.904,34.180,57.129,30.762,43.945,0.488,0
1484995729.908,43.945,59.082,35.156,51.758,12.207,0
1484995729.912,56.152,49.805,53.711,70.312,-0.977,0
1484995729.916,65.918,35.156,53.223,62.012,-7.324,0
1484995729.919,65.430,43.457,42.969,59.570,-8.789,0
1484995729.923,62.012,39.062,41.992,62.012,3.906,0
1484995729.927,53.223,51.758,42.969,54.199,6.836,0
1484995729.931,41.504,54.688,44.922,54.199,-4.883,0
1484995729.935,42.969,29.297,47.363,62.012,27.832,0
1484995729.939,39.062,33.203,43.457,59.082,23.438,0
1484995729.943,44.434,49.805,40.527,59.082,6.836,0
1484995729.947,54.199,62.500,42.969,62.012,16.113,0
1484995729.951,54.688,45.898,44.922,64.941,29.785,0
1484995729.955,47.363,40.039,44.922,64.941,32.715,0
1484995729.958,39.551,52.734,41.016,59.570,17.090,0
1484995729.962,41.992,45.410,39.551,50.293,33.203,0
1484995729.966,47.852,32.715,40.039,48.828,25.391,0
1484995729.970,38.574,44.434,39.551,43.945,26.855,0
1484995729.974,39.551,50.293,49.805,60.547,26.367,0
1484995729.978,52.734,65.918,60.547,77.637,0.488,0
1484995729.982,52.246,50.781,50.781,61.035,44.434,0
1484995729.986,53.711,26.367,44.434,56.641,56.152,0
1484995729.990,51.270,46.875,47.363,53.223,-12.695,0
1484995729.994,50.293,62.012,48.340,43.457,-5.859,0
1484995729.998,54.688,52.246,51.758,49.805,29.297,0
1484995730.001,51.270,47.852,44.922,50.781,15.625,0
1484995730.005,46.387,58.105,36.621,47.852,44.434,0
1484995730.009,49.316,63.477,41.016,60.547,42.480,0
1484995730.013,59.082,48.340,53.711,81.055,21.484,0
1484995730.017,51.758,50.293,47.852,71.777,22.949,0
1484995730.021,64.941,52.246,47.363,68.359,8.301,0
1484995730.025,68.848,65.430,47.852,64.453,63.477,0
1484995730.029,59.082,51.758,47.363,66.406,60.547,0
1484995730.033,51.270,39.551,47.852,65.430,12.207,0
1484995730.037,36.621,53.711,49.805,55.176,38.574,0
1484995730.041,50.781,50.293,64.941,63.477,47.852,0
1484995730.044,59.570,42.969,55.664,66.406,43.945,0
1484995730.048,33.203,47.852,31.738,52.734,38.574,0
1484995730.052,27.832,41.504,30.762,47.363,52.734,0
1484995730.056,45.898,41.016,36.621,52.246,57.617,0
1484995730.060,37.109,51.758,30.762,48.828,44.922,0
1484995730.064,38.086,38.574,35.156,55.664,23.926,0
1484995730.068,46.875,39.551,45.898,61.523,29.297,0
1484995730.072,37.109,53.711,46.387,54.199,49.805,0
1484995730.076,31.738,39.551,37.109,48.828,16.602,0
1484995730.080,44.434,30.762,41.992,61.035,11.719,0
1484995730.083,45.410,40.527,46.875,62.988,31.250,0
1484995730.087,38.574,43.457,39.062,53.223,34.180,0
1484995730.091,34.180,42.969,37.109,55.664,26.367,0
1484995730.095,45.898,27.832,45.410,58.105,28.809,0
1484995730.099,47.852,20.996,49.316,54.199,46.875,0
1484995730.103,33.203,20.508,46.875,53.711,50.781,0
1484995730.107,32.715,31.250,43.945,65.918,44.434,0
1484995730.111,40.039,47.363,48.340,73.730,32.715,0
1484995730.115,42.969,60.547,58.105,66.406,69.824,0
1484995730.119,41.992,41.504,53.223,58.105,84.961,0
1484995730.123,49.805,29.785,50.781,61.523,29.297,0
1484995730.126,66.895,36.133,58.105,75.195,32.715,0
1484995730.130,73.730,38.574,54.199,79.102,50.293,0
1484995730.134,57.129,48.828,47.363,62.500,50.781,0
1484995730.138,46.387,50.293,44.434,61.523,42.969,0
1484995730.142,42.480,38.574,42.480,59.570,50.781,0
1484995730.146,50.781,17.578,48.828,55.664,66.406,0
1484995730.150,35.156,37.109,44.434,44.922,41.504,0
1484995730.154,33.691,34.668,39.062,43.457,50.293,0
1484995730.158,41.504,19.531,45.898,54.688,44.922,0
1484995730.162,47.852,41.016,47.852,59.082,47.363,0
1484995730.166,54.199,43.457,44.434,57.129,41.504,0
1484995730.169,41.504,41.504,41.992,53.711,11.719,0
1484995730.173,40.527,43.457,46.875,57.617,26.367,0
1484995730.177,38.574,46.387,44.922,51.758,43.457,0
1484995730.181,45.898,34.668,41.992,58.594,26.367,0
1484995730.185,38.574,39.551,39.551,57.617,-3.418,0
1484995730.189,36.133,40.527,41.016,51.270,25.879,0
1484995730.193,36.621,26.855,46.875,59.082,60.547,0
1484995730.197,43.457,43.457,51.270,65.430,17.578,0
1484995730.201,46.875,58.105,51.758,59.570,-3.906,0
1484995730.205,35.156,44.434,47.363,59.082,15.137,0
1484995730.208,31.250,48.340,42.480,49.316,-3.906,0
1484995730.212,41.992,34.668,47.363,54.199,-28.809,0
1484995730.216,57.129,21.484,59.082,75.195,-18.555,0
1484995730.220,53.711,40.039,61.523,65.918,13.184,0
1484995730.224,40.039,42.480,52.246,51.758,34.180,0
1484995730.228,49.316,46.875,48.828,52.734,13.184,0
1484995730.232,54.688,40.527,51.758,55.176,5.371,0
1484995730.236,39.062,43.457,52.734,48.828,21.484,0
1484995730.240,51.758,49.805,64.453,62.012,20.996,0
1484995730.244,45.410,47.363,61.523,61.523,8.301,0
1484995730.248,26.367,51.270,44.922,43.945,19.531,0
1484995730.251,36.133,31.738,41.992,46.875,20.508,0
1484995730.255,39.062,24.414,50.293,46.387,31.738,0
1484995730.259,41.992,44.922,62.500,55.176,39.062,0
1484995730.263,43.945,55.664,60.547,61.523,16.113,0
1484995730.267,43.457,23.438,59.570,57.129,48.340,0
1484995730.271,28.809,33.203,48.340,37.598,48.340,0
1484995730.275,17.090,56.152,43.457,31.250,25.879,0
1484995730.279,32.227,41.016,53.223,47.363,33.691,0
1484995730.283,47.363,56.641,54.199,61.523,41.992,0
1484995730.287,50.781,66.406,55.176,66.895,31.738,0
1484995730.291,56.641,48.340,52.246,59.570,20.508,0
1484995730.294,54.688,41.992,49.805,49.805,5.859,0
1484995730.298,56.152,43.945,45.898,51.270,5.859,0
1484995730.302,38.086,46.875,38.086,50.293,16.113,0
1484995730.306,22.461,48.828,33.691,37.598,23.438,0
1484995730.310,32.715,38.086,38.574,40.527,43.457,0
1484995730.314,27.344,23.438,43.457,43.457,37.109,0
1484995730.318,35.645,16.602,43.945,51.758,33.203,0
1484995730.322,36.133,39.062,41.504,55.664,58.594,0
1484995730.326,25.879,34.668,37.109,47.363,61.523,0
1484995730.330,25.391,29.297,31.738,37.598,56.152,0
1484995730.333,25.879,38.086,31.738,37.598,54.688,0
1484995730.337,32.227,40.039,50.293,57.617,53.223,0
1484995730.341,34.180,38.574,63.965,67.383,44.922,0
1484995730.345,21.484,32.715,44.922,50.781,43.457,0
1484995730.349,16.113,32.227,41.016,46.875,47.852,0
1484995730.353,24.414,26.855,44.434,49.316,49.805,0
1484995730.357,31.738,22.949,40.527,47.363,54.688,0
1484995730.361,34.180,27.832,48.828,56.152,46.387,0
1484995730.365,25.879,29.785,50.293,51.758,44.922,0
1484995730.369,18.066,22.949,38.574,42.480,42.969,0
1484995730.373,19.531,0.977,34.180,43.457,42.480,0
1484995730.376,13.672,20.508,28.320,35.645,47.852,0
1484995730.380,30.273,17.578,40.039,48.340,45.410,0
1484995730.384,38.086,4.395,49.316,58.594,30.762,0
1484995730.388,20.508,28.320,42.969,47.852,48.340,0
1484995730.392,14.160,30.762,40.039,48.340,23.438,0
1484995730.396,21.484,18.555,41.016,46.875,-0.488,0
1484995730.400,26.855,31.738,43.457,42.480,28.320,0
1484995730.404,23.926,44.434,37.598,38.574,27.832,0
1484995730.408,12.695,23.926,34.668,46.875,18.555,0
1484995730.412,30.762,14.160,40.039,60.547,19.043,0
1484995730.416,47.363,18.066,48.340,63.965,34.668,0
1484995730.419,32.227,23.926,45.410,49.805,46.387,0
1484995730.423,20.996,25.391,35.156,37.598,25.879,0
1484995730.427,37.109,20.020,36.621,53.223,42.969,0
1484995730.431,37.598,22.461,36.133,55.664,90.332,0
1484995730.435,25.391,38.574,34.668,50.293,64.941,0
1484995730.439,16.602,35.156,30.762,34.668,25.879,0
1484995730.443,12.207,26.367,26.367,29.297,25.879,0
1484995730.447,34.668,21.484,32.715,54.688,53.223,0
1484995730.451,29.785,32.715,27.344,52.246,50.293,0
1484995730.455,23.438,34.180,27.832,46.875,30.762,0
1484995730.458,27.344,16.113,30.273,38.086,47.852,0
1484995730.462,27.832,25.391,26.855,38.574,76.172,0
1484995730.466,37.109,23.926,33.691,56.152,49.805,0
1484995730.470,17.090,24.414,23.926,44.922,18.066,0
1484995730.474,20.508,13.672,21.484,48.340,47.363,0
1484995730.478,28.320,18.066,34.180,59.082,53.711,0
1484995730.482,24.414,40.039,36.621,47.852,26.855,0
1484995730.486,19.531,45.898,27.832,36.621,19.043,0
1484995730.490,13.672,37.109,22.461,38.574,38.574,0
1484995730.494,25.879,7.324,30.762,47.852,45.410,0
1484995730.498,29.785,4.883,33.691,41.992,49.805,0
1484995730.501,24.902,18.555,28.809,33.691,20.996,0
1484995730.505,22.949,21.484,19.531,31.738,25.879,0
1484995730.509,24.414,25.879,16.602,27.344,61.035,0
1484995730.513,19.531,25.879,16.113,30.273,44.922,0
1484995730.517,22.949,3.418,20.996,41.016,63.965,0
1484995730.521,17.090,17.090,20.020,37.598,46.387,0
1484995730.525,20.020,21.484,15.625,42.480,11.719,0
1484995730.529,33.691,12.695,20.996,49.316,18.555,0
1484995730.533,22.461,26.855,20.996,46.875,34.668,0
1484995730.537,25.879,28.320,18.066,48.828,62.988,0
1484995730.541,35.156,47.363,21.973,50.293,25.879,0
1484995730.544,33.203,41.992,21.973,52.734,-9.277,0
1484995730.548,28.320,27.344,19.043,48.340,31.250,0
1484995730.552,34.668,15.625,22.461,51.758,62.988,0
1484995730.556,30.273,28.320,24.902,52.246,43.457,0
1484995730.560,18.555,42.480,34.180,53.223,40.527,0
1484995730.564,37.109,10.742,40.527,68.359,49.316,0
1484995730.568,37.109,19.043,27.832,54.688,63.965,0
1484995730.572,41.016,34.180,32.227,56.152,65.918,0
1484995730.576,42.969,23.926,38.574,67.383,48.828,0
1484995730.580,35.156,16.602,22.949,52.246,33.203,0
1484995730.583,37.598,24.414,21.973,57.129,12.695,0
1484995730.587,40.527,30.762,29.785,62.012,14.160,0
1484995730.591,31.738,39.551,26.855,49.805,4.395,0
1484995730.595,27.832,35.645,25.391,52.246,12.207,0
1484995730.599,31.250,41.504,23.438,46.875,57.617,0
1484995730.603,29.297,53.223,22.949,41.504,49.805,0
1484995730.607,32.227,26.855,30.762,54.688,32.227,0
1484995730.611,33.691,17.578,22.949,50.781,49.805,0
1484995730.615,25.391,13.184,11.719,42.969,65.918,0
1484995730.619,28.320,-3.906,20.996,51.270,61.035,0
1484995730.623,36.133,-4.395,27.344,55.664,14.648,0
1484995730.626,31.738,17.090,22.949,56.152,14.160,0
1484995730.630,25.391,33.691,23.926,56.152,51.758,0
1484995730.634,35.645,32.227,22.949,46.387,37.598,0
1484995730.638,41.992,35.156,22.461,46.875,35.645,0
1484995730.642,28.809,36.621,25.391,52.246,66.895,0
1484995730.646,20.020,30.762,24.414,43.457,45.410,0
1484995730.650,16.602,54.199,27.344,25.879,32.715,0
1484995730.654,27.344,40.527,26.367,34.180,47.852,0
1484995730.658,25.879,32.227,12.695,43.945,41.992,0
1484995730.662,12.207,37.109,12.207,36.621,22.949,0
1484995730.666,41.016,11.719,28.320,47.363,17.578,0
1484995730.669,39.551,30.762,25.391,47.363,14.648,0
1484995730.673,34.668,24.902,25.879,52.246,26.367,0
1484995730.677,34.180,26.855,26.855,51.270,37.109,0
1484995730.681,36.133,31.250,21.973,41.992,13.184,0
1484995730.685,38.086,25.879,22.461,44.922,20.020,0
1484995730.689,36.621,42.969,24.902,44.434,19.043,0
1484995730.693,52.246,28.809,33.203,52.734,3.418,0
1484995730.697,44.922,29.297,25.879,45.410,32.227,0
1484995730.701,25.879,38.086,17.090,31.738,61.035,0
1484995730.705,32.715,22.461,26.855,39.551,36.621,0
1484995730.708,27.344,34.180,34.668,40.039,13.672,0
1484995730.712,20.508,58.105,30.762,39.062,16.602,0
1484995730.716,40.039,46.875,32.715,42.480,24.902,0
1484995730.720,41.504,24.414,33.691,39.062,28.809,0
1484995730.724,26.367,22.461,19.043,38.574,0.488,0
1484995730.728,30.762,23.438,22.461,43.945,3.418,0
1484995730.732,40.039,30.273,28.320,57.617,35.156,0
1484995730.736,35.156,35.156,23.926,51.758,33.203,0
1484995730.740,41.016,36.621,19.531,42.480,25.879,0
1484995730.744,34.180,41.992,22.949,47.852,33.691,0
1484995730.748,15.137,37.598,25.879,36.133,23.438,0
1484995730.751,19.531,46.387,22.461,25.391,1.953,0
1484995730.755,30.273,44.434,28.809,41.504,11.719,0
1484995730.759,36.621,23.926,27.344,42.969,14.648,0
1484995730.763,35.156,12.695,24.902,37.598,22.949,0
1484995730.767,28.320,9.766,23.438,36.621,51.270,0
1484995730.771,31.738,22.949,19.531,37.109,59.570,0
1484995730.775,29.297,33.691,25.879,37.109,35.645,0
1484995730.779,25.879,34.180,24.414,34.668,38.574,0
1484995730.783,35.645,32.715,26.855,43.457,21.973,0
1484995730.787,30.762,37.109,25.391,37.598,-7.324,0
1484995730.791,32.227,39.062,26.855,38.574,30.273,0
1484995730.794,32.715,37.109,38.574,54.199,43.945,0
1484995730.798,23.438,34.668,32.227,39.551,21.484,0
1484995730.802,30.762,37.109,28.320,39.551,18.555,0
1484995730.806,13.184,41.504,18.066,34.180,43.945,0
1484995730.810,13.184,27.344,20.020,33.203,38.086,0
1484995730.814,39.062,23.438,32.227,49.805,5.371,0
1484995730.818,37.109,26.855,28.320,45.898,6.836,0
1484995730.822,38.574,15.625,38.086,51.270,33.203,0
1484995730.826,32.715,41.016,41.504,52.246,47.363,0
1484995730.830,37.598,60.547,35.645,51.758,27.344,0
1484995730.833,39.551,38.086,28.809,56.641,25.879,0
1484995730.837,27.344,38.574,27.832,54.688,54.199,0
1484995730.841,35.156,28.320,36.621,57.129,40.527,0
1484995730.845,19.043,22.949,28.320,45.898,19.043,0
1484995730.849,5.859,39.551,25.879,31.738,60.059,0
1484995730.853,23.926,26.855,32.227,38.086,63.477,0
1484995730.857,24.414,22.461,30.762,39.062,15.625,0
1484995730.861,30.273,42.480,41.504,47.363,2.930,0
1484995730.865,37.598,55.176,40.527,55.176,58.105,0
1484995730.869,30.273,49.805,26.367,36.133,74.707,0
1484995730.873,10.742,38.086,18.066,17.090,15.137,0
1484995730.876,13.672,17.578,24.902,30.762,-11.230,0
1484995730.880,22.461,36.133,23.926,36.621,12.207,0
1484995730.884,30.762,39.062,32.227,51.758,43.945,0
1484995730.888,40.039,20.508,41.504,67.383,40.039,0
1484995730.892,28.809,36.621,31.738,60.547,17.090,0
1484995730.896,24.414,46.875,32.715,59.082,25.391,0
1484995730.900,32.715,47.363,35.156,49.316,46.875,0
1484995730.904,33.691,25.879,34.668,40.527,34.668,0
1484995730.908,20.020,27.832,21.484,27.344,0.488,0
1484995730.912,20.020,36.133,10.742,27.832,46.875,0
1484995730.916,20.020,19.531,18.555,45.410,67.383,0
1484995730.919,18.066,20.508,23.438,46.875,12.695,0
1484995730.923,35.156,23.438,26.855,43.457,27.832,0
1484995730.927,21.973,40.039,25.879,42.969,47.852,0
1484995730.931,23.438,53.223,28.320,50.293,38.086,0
1484995730.935,52.734,42.969,40.527,58.105,32.715,0
1484995730.939,42.969,41.992,34.180,51.270,20.996,0
1484995730.943,30.273,30.273,20.508,46.387,38.086,0
1484995730.947,23.926,16.113,24.414,41.992,55.176,0
1484995730.951,16.602,19.043,23.926,42.969,42.480,0
1484995730.955,28.809,33.203,24.902,52.246,52.246,0
1484995730.958,26.855,47.852,28.809,47.363,39.062,0
1484995730.962,35.645,51.758,32.227,45.898,23.926,0
1484995730.966,39.551,48.340,35.156,54.199,39.551,0
1484995730.970,39.551,47.852,38.574,53.223,68.359,0
1484995730.974,43.945,42.969,37.598,50.781,87.891,0
1484995730.978,36.621,33.203,27.344,51.758,75.195,0
1484995730.982,26.367,24.902,25.391,42.480,57.129,0
1484995730.986,30.762,11.719,26.367,52.246,70.801,0
1484995730.990,21.973,35.156,22.949,49.316,58.105,0
1484995730.994,17.578,52.734,30.273,41.504,43.457,0
1484995730.998,45.898,39.062,38.574,53.711,48.828,0
1484995731.001,31.738,48.340,29.297,50.781,46.387,0
1484995731.005,20.508,33.203,33.691,53.711,25.879,0
1484995731.009,52.246,20.020,44.922,62.012,5.371,0
1484995731.013,62.500,36.133,53.223,74.219,0.977,0
1484995731.017,42.969,36.621,42.969,67.383,48.828,0
1484995731.021,28.809,22.461,23.926,43.457,47.852,0
1484995731.025,27.832,22.949,25.879,46.875,13.672,0
1484995731.029,15.137,40.527,28.809,52.734,28.809,0
1484995731.033,14.160,36.621,26.367,39.551,38.086,0
1484995731.037,24.414,17.090,28.809,44.922,33.691,0
1484995731.041,14.648,29.297,34.180,53.223,48.828,0
1484995731.044,31.250,40.039,38.574,58.594,49.805,0
1484995731.048,52.734,42.480,42.969,62.012,22.461,0
1484995731.052,46.875,27.344,45.410,68.359,24.414,0
1484995731.056,32.227,47.363,33.691,57.617,24.902,0
1484995731.060,28.320,51.758,23.926,41.016,26.855,0
1484995731.064,35.156,9.277,31.738,51.758,49.316,0
1484995731.068,44.434,20.996,31.250,52.246,41.992,0
1484995731.072,44.922,38.574,27.344,45.898,27.832,0
1484995731.076,34.180,54.199,26.367,41.016,64.941,0
1484995731.080,35.645,43.945,32.227,39.062,64.453,0
1484995731.083,45.410,31.738,39.062,43.945,2.930,0
1484995731.087,43.457,35.645,34.180,43.945,12.207,0
1484995731.091,37.598,30.762,33.203,53.223,42.969,0
1484995731.095,41.992,36.621,39.062,56.641,28.809,0
1484995731.099,42.480,41.504,34.180,49.316,2.930,0
1484995731.103,24.414,46.875,26.367,38.086,19.531,0
1484995731.107,25.879,44.434,24.414,41.016,50.781,0
1484995731.111,33.691,31.738,30.273,55.664,19.531,0
1484995731.115,36.621,26.367,38.086,56.641,32.227,0
1484995731.119,52.246,30.762,39.062,54.688,38.574,0
1484995731.123,39.062,61.523,38.086,47.363,39.551,0
1484995731.126,29.297,60.059,42.480,48.340,43.945,0
1484995731.130,32.715,38.574,46.875,46.387,35.156,0
1484995731.134,44.434,27.832,43.945,51.270,47.363,0
1484995731.138,41.992,39.551,31.250,52.734,36.133,0
1484995731.142,34.668,46.387,30.762,46.875,8.301,0
1484995731.146,32.227,43.457,33.203,44.922,8.301,0
1484995731.150,31.250,52.246,33.203,46.387,38.086,0
1484995731.154,49.316,39.062,42.480,65.430,49.805,0
1484995731.158,52.246,40.039,52.734,73.730,21.973,0
1484995731.162,43.457,55.176,50.781,54.199,9.766,0
1484995731.166,31.250,65.430,34.180,34.668,32.227,0
1484995731.169,36.621,51.270,36.621,44.922,7.812,0
1484995731.173,45.410,27.832,44.434,57.617,3.906,0
1484995731.177,41.504,26.855,37.598,46.875,37.598,0
1484995731.181,31.738,29.785,36.133,41.016,47.363,0
1484995731.185,23.926,44.434,27.832,36.133,29.297,0
1484995731.189,29.785,47.363,21.484,36.621,-12.695,0
1484995731.193,42.969,31.738,31.250,52.734,9.766,0
1484995731.197,39.062,40.039,37.598,54.199,63.965,0
1484995731.201,32.227,32.227,32.715,47.852,32.715,0
1484995731.205,40.527,33.203,33.203,52.246,-7.324,0
1484995731.208,36.621,27.832,29.297,42.480,37.598,0
1484995731.212,15.137,25.879,17.090,25.879,40.039,0
1484995731.216,10.254,40.039,16.602,25.879,36.133,0
1484995731.220,20.996,38.086,28.809,35.645,55.664,0
1484995731.224,25.879,38.086,33.203,46.875,45.898,0
1484995731.228,33.203,35.645,29.297,48.828,24.414,0
1484995731.232,31.738,14.160,30.273,46.387,13.184,0
1484995731.236,20.020,10.742,26.855,42.969,11.719,0
1484995731.240,18.555,23.926,33.203,39.062,27.344,0
1484995731.244,17.090,62.500,34.180,37.109,59.570,0
1484995731.248,26.855,57.617,27.344,36.133,43.457,0
1484995731.251,26.855,21.973,27.832,36.133,22.949,0
1484995731.255,21.973,25.391,28.320,43.457,25.879,0
1484995731.259,30.762,36.133,31.250,45.898,19.531,0
1484995731.263,45.898,44.434,32.715,40.039,16.602,0
1484995731.267,49.316,38.086,31.250,39.551,30.762,0
1484995731.271,33.691,41.504,24.902,41.016,38.574,0
1484995731.275,28.809,34.668,21.973,47.363,41.016,0
1484995731.279,34.668,36.621,31.250,47.852,33.203,0
1484995731.283,44.922,44.434,39.062,43.457,-5.859,0
1484995731.287,27.832,33.691,31.738,38.086,13.184,0
1484995731.291,27.832,34.180,30.273,35.645,19.043,0
1484995731.294,34.668,37.109,34.668,40.527,-26.855,0
1484995731.298,29.297,59.082,33.691,42.969,-23.438,0
1484995731.302,31.250,64.941,34.180,49.805,1.465,0
1484995731.306,32.227,53.711,35.645,44.922,4.395,0
1484995731.310,40.527,40.039,33.203,40.039,15.137,0
1484995731.314,29.297,32.227,33.203,36.133,49.805,0
1484995731.318,31.738,45.898,38.574,45.898,41.992,0
1484995731.322,42.480,51.758,44.922,60.059,-12.207,0
1484995731.326,41.504,29.785,36.621,49.805,-1.953,0
1484995731.330,42.969,18.555,34.668,46.387,30.762,0
1484995731.333,39.551,47.852,34.180,46.387,20.996,0
1484995731.337,34.668,59.570,34.668,42.969,-17.090,0
1484995731.341,27.832,53.711,40.039,41.016,-38.574,0
1484995731.345,38.574,53.223,41.504,49.316,4.883,0
1484995731.349,50.293,44.922,46.875,64.941,42.969,0
1484995731.353,34.180,61.523,46.875,57.617,16.602,0
1484995731.357,37.109,60.547,45.410,50.781,-1.953,0
1484995731.361,46.387,51.758,43.945,54.688,35.645,0
1484995731.365,44.922,48.828,39.062,60.547,50.781,0
1484995731.369,48.340,52.734,41.504,67.871,28.320,0
1484995731.373,48.340,70.312,51.270,64.453,12.207,0
1484995731.376,74.219,84.473,77.637,79.102,13.184,0
1484995731.380,93.750,110.840,100.098,110.352,37.109,0
1484995731.384,102.051,118.164,106.445,131.836,31.250,0
1484995731.388,115.723,113.281,114.258,135.254,19.531,0
1484995731.392,111.816,119.141,111.816,123.535,36.133,0
1484995731.396,91.309,117.676,98.145,100.586,12.695,0
1484995731.400,68.848,110.840,84.961,84.473,-3.418,0
1484995731.404,54.199,104.980,74.219,79.102,46.387,0
1484995731.408,62.988,94.238,67.383,84.473,54.199,0
1484995731.412,68.848,94.238,64.941,83.008,11.719,0
1484995731.416,68.359,80.566,71.777,93.262,-17.578,0
1484995731.419,80.078,79.102,70.312,97.168,-32.227,0
1484995731.423,70.312,76.660,63.477,77.148,3.906,0
1484995731.427,70.312,63.965,73.242,80.566,11.230,0
1484995731.431,72.266,83.984,71.777,87.402,-33.203,0
1484995731.435,67.383,65.918,59.570,69.336,-10.742,0
1484995731.439,57.617,60.059,60.059,59.570,25.391,0
1484995731.443,43.945,65.430,56.152,66.406,22.949,0
1484995731.447,53.711,62.988,48.828,66.895,31.738,0
1484995731.451,43.457,77.148,42.969,58.594,42.969,0
1484995731.455,41.504,64.941,43.457,49.316,47.852,0
1484995731.458,50.781,47.363,50.293,51.270,12.207,0
1484995731.462,54.688,55.176,53.223,61.035,19.043,0
1484995731.466,41.016,81.055,47.363,50.781,36.133,0
1484995731.470,49.316,52.734,45.898,55.176,15.625,0
1484995731.474,46.875,38.086,42.969,53.711,10.254,0
1484995731.478,28.809,50.293,47.363,49.316,-3.418,0
1484995731.482,46.875,35.156,53.223,53.711,36.133,0
1484995731.486,53.223,38.574,46.875,46.875,70.801,0
1484995731.490,39.551,47.363,39.551,45.898,45.898,0
1484995731.494,23.926,48.828,38.086,42.969,26.855,0
1484995731.498,22.461,42.969,41.992,42.969,45.898,0
1484995731.501,34.668,37.109,47.852,51.270,59.570,0
1484995731.505,36.621,34.180,49.316,43.945,54.688,0
1484995731.509,36.133,37.598,41.992,39.551,47.852,0
1484995731.513,35.645,39.551,40.039,38.086,38.086,0
1484995731.517,45.410,51.758,45.410,43.457,33.203,0
1484995731.521,41.016,49.316,46.387,50.781,15.625,0
1484995731.525,37.598,35.156,45.410,44.434,21.484,0
1484995731.529,40.527,60.547,43.457,40.527,44.434,0
1484995731.533,40.527,38.574,46.387,41.992,32.227,0
1484995731.537,42.969,38.574,43.945,43.945,17.578,0
1484995731.541,34.668,56.641,31.250,33.691,35.645,0
1484995731.544,41.016,20.996,38.086,36.133,48.828,0
1484995731.548,35.645,33.203,36.621,32.227,39.062,0
1484995731.552,32.227,45.898,34.668,34.180,32.227,0
1484995731.556,47.852,37.598,50.293,55.664,62.500,0
1484995731.560,45.410,54.688,45.410,57.617,70.801,0
1484995731.564,39.551,56.641,34.180,54.688,50.781,0
1484995731.568,45.898,40.527,41.016,55.664,39.551,0
1484995731.572,42.969,47.852,42.969,43.457,43.457,0
1484995731.576,36.621,48.828,40.527,36.133,19.531,0
1484995731.580,34.180,43.945,39.062,35.156,-9.277,0
1484995731.583,28.809,36.621,38.086,32.227,5.859,0
1484995731.587,29.785,39.062,35.645,44.922,29.785,0
1484995731.591,32.227,39.062,37.598,49.316,15.137,0
1484995731.595,47.852,33.203,47.852,64.941,6.348,0
1484995731.599,44.434,43.945,40.527,64.941,15.137,0
1484995731.603,24.414,33.691,34.180,42.480,35.156,0
1484995731.607,33.203,38.086,37.598,48.828,22.949,0
1484995731.611,34.668,44.434,41.992,51.758,-12.695,0
1484995731.615,42.969,36.133,45.898,54.688,20.996,0
1484995731.619,43.945,41.504,44.922,53.223,53.223,0
1484995731.623,36.133,27.344,45.898,61.523,37.109,0
1484995731.626,43.945,15.137,47.363,67.871,19.043,0
1484995731.630,40.527,32.227,40.039,58.105,33.203,0
1484995731.634,42.969,35.156,41.016,55.176,51.270,0
1484995731.638,45.410,25.879,43.945,59.082,42.969,0
1484995731.642,28.320,45.898,41.992,52.246,12.695,0
1484995731.646,38.086,45.410,43.457,58.594,-4.883,0
1484995731.650,31.250,44.434,35.645,58.105,30.762,0
1484995731.654,29.785,55.664,34.668,55.664,30.273,0
1484995731.658,46.387,41.016,45.898,62.012,7.324,0
1484995731.662,54.688,19.531,46.875,55.664,35.645,0
1484995731.666,45.898,33.203,41.992,51.758,57.617,0
1484995731.669,24.414,52.734,40.527,46.387,20.020,0
1484995731.673,35.645,41.504,38.086,43.457,5.371,0
1484995731.677,56.641,26.367,45.410,51.758,23.438,0
1484995731.681,44.434,27.832,41.504,50.781,26.367,0
1484995731.685,42.480,29.785,32.227,42.480,20.508,0
1484995731.689,37.109,45.410,32.715,48.828,41.992,0
1484995731.693,31.738,50.293,35.156,60.059,39.062,0
1484995731.697,52.734,40.527,42.969,59.082,4.883,0
1484995731.701,55.664,36.621,48.340,62.500,21.973,0
1484995731.705,36.133,35.645,41.504,56.152,27.832,0
1484995731.708,35.645,38.574,34.180,45.898,37.598,0
1484995731.712,49.805,30.273,40.039,56.152,26.367,0
1484995731.716,42.480,41.504,38.574,55.176,0.488,0
1484995731.720,36.621,48.340,35.156,52.246,28.320,0
1484995731.724,49.316,43.945,41.504,60.059,69.336,0
1484995731.728,41.992,29.785,41.992,58.594,37.109,0
1484995731.732,35.156,4.883,41.016,54.199,5.371,0
1484995731.736,44.434,5.859,41.992,54.688,35.156,0
1484995731.740,46.875,26.367,44.922,65.430,33.203,0
1484995731.744,41.016,40.527,47.852,61.523,21.973,0
1484995731.748,36.133,36.621,41.504,49.316,35.645,0
1484995731.751,36.621,28.320,38.086,57.129,49.805,0
1484995731.755,42.969,28.320,44.434,58.105,37.598,0
1484995731.759,30.762,52.734,40.039,33.691,8.301,0
1484995731.763,39.062,49.316,41.016,40.039,14.160,0
1484995731.767,51.758,32.227,37.109,49.316,15.625,0
1484995731.771,38.574,31.738,30.762,40.527,3.418,0
1484995731.775,20.996,55.664,26.367,27.344,0.977,0
1484995731.779,25.391,49.805,31.738,36.133,10.742,0
1484995731.783,37.109,14.160,38.086,45.410,38.086,0
1484995731.787,37.109,8.301,31.250,41.016,21.973,0
1484995731.791,44.922,23.926,39.062,50.781,30.762,0
1484995731.794,35.645,25.391,35.156,37.109,33.203,0
1484995731.798,21.484,41.504,17.090,20.508,46.387,0
1484995731.802,34.668,55.176,23.926,34.180,66.895,0
1484995731.806,44.922,34.180,37.598,48.828,24.414,0
1484995731.810,30.762,29.297,35.156,47.363,33.691,0
1484995731.814,21.484,33.691,28.320,41.504,59.570,0
1484995731.818,10.254,30.762,29.785,27.832,37.109,0
1484995731.822,22.461,32.227,41.016,37.598,11.230,0
1484995731.826,37.109,35.645,40.527,54.199,4.883,0
1484995731.830,28.320,30.273,32.715,53.711,18.066,0
1484995731.833,27.344,39.062,28.809,45.410,15.625,0
1484995731.837,24.902,42.969,26.367,33.203,31.250,0
1484995731.841,33.691,28.809,35.156,41.504,57.617,0
1484995731.845,30.273,27.344,39.062,52.246,35.156,0
1484995731.849,9.766,47.852,32.227,32.715,2.441,0
1484995731.853,17.090,47.363,34.668,33.203,0.488,0
1484995731.857,40.527,47.363,41.504,47.852,32.227,0
1484995731.861,36.621,57.617,40.527,51.270,24.902,0
1484995731.865,22.949,33.203,38.086,41.016,7.812,0
1484995731.869,20.996,25.879,35.156,37.109,23.926,0
1484995731.873,24.902,30.762,30.762,44.434,39.062,0
1484995731.876,21.973,36.621,28.809,38.086,40.039,0
1484995731.880,20.996,35.156,35.156,41.016,17.090,0
1484995731.884,29.785,14.648,32.715,44.922,15.625,0
1484995731.888,21.973,20.996,27.832,46.875,21.973,0
1484995731.892,19.043,43.945,35.156,41.992,5.859,0
1484995731.896,33.691,47.852,34.668,35.156,3.418,0
1484995731.900,27.832,40.039,30.273,38.086,12.695,0
1484995731.904,34.180,28.320,33.203,46.387,39.062,0
1484995731.908,35.645,48.828,35.156,47.852,48.828,0
1484995731.912,32.715,52.246,37.598,52.734,37.598,0
1484995731.916,38.574,38.086,40.039,54.688,47.363,0
1484995731.919,20.508,53.223,34.668,39.551,62.500,0
1484995731.923,21.484,32.715,36.621,37.598,41.504,0
1484995731.927,32.227,10.254,40.039,38.574,33.203,0
1484995731.931,32.227,28.320,40.527,44.922,62.500,0
1484995731.935,27.832,48.340,38.086,49.316,38.086,0
1484995731.939,31.250,41.992,35.645,43.945,0.000,0
1484995731.943,38.086,38.086,40.039,54.199,34.180,0
1484995731.947,36.621,44.922,34.180,57.129,69.336,0
1484995731.951,40.039,46.387,37.109,58.105,60.059,0
1484995731.955,43.945,42.969,43.945,60.059,11.719,0
1484995731.958,36.621,49.805,38.574,48.340,-1.465,0
1484995731.962,32.715,44.434,41.504,51.758,22.949,0
1484995731.966,34.180,37.598,43.457,54.688,39.062,0
1484995731.970,24.414,41.016,38.574,43.945,31.250,0
1484995731.974,21.973,22.461,33.203,41.992,18.555,0
1484995731.978,21.973,18.555,24.902,45.898,30.762,0
1484995731.982,28.809,24.902,26.367,43.945,30.273,0
1484995731.986,21.484,42.969,30.762,32.715,0.000,0
1484995731.990,28.809,41.504,31.250,39.062,29.297,0
1484995731.994,34.668,37.109,31.738,45.898,59.570,0
1484995731.998,30.762,47.852,32.227,44.922,34.668,0
1484995732.001,32.227,54.199,40.039,43.457,22.949,0
1484995732.005,40.039,43.457,46.387,53.223,41.992,0
1484995732.009,38.086,36.621,37.109,54.688,62.988,0
1484995732.013,33.691,36.621,31.250,45.898,49.316,0
1484995732.017,32.227,32.227,30.762,46.387,34.668,0
1484995732.021,28.809,40.039,34.180,46.387,39.062,0
1484995732.025,26.367,68.848,31.250,39.551,62.012,0
1484995732.029,33.203,47.363,37.598,43.457,69.336,0
1484995732.033,41.504,14.160,45.410,48.340,21.484,0
1484995732.037,37.109,34.668,36.621,44.922,8.789,0
1484995732.041,47.363,34.180,41.992,61.523,51.270,0
1484995732.044,42.969,32.227,43.457,53.711,19.043,0
1484995732.048,40.527,32.715,35.645,46.387,30.762,0
1484995732.052,30.273,31.250,32.715,43.457,50.781,0
1484995732.056,16.602,37.598,26.855,27.344,43.945,0
1484995732.060,18.555,34.180,31.250,31.738,50.781,0
1484995732.064,24.414,32.715,36.133,40.039,38.086,0
1484995732.068,20.996,47.363,32.227,28.809,43.457,0
1484995732.072,29.785,41.992,36.133,40.039,29.785,0
1484995732.076,38.574,30.273,37.109,59.570,23.438,0
1484995732.080,38.086,39.551,37.109,52.734,48.340,0
1484995732.083,50.293,38.574,40.039,53.223,55.176,0
1484995732.087,43.457,41.016,39.551,57.617,30.273,0
1484995732.091,37.598,43.945,41.016,57.617,13.672,0
1484995732.095,52.734,41.016,37.109,55.176,29.297,0
1484995732.099,49.316,49.805,35.645,49.316,46.875,0
1484995732.103,38.086,40.039,39.062,62.500,16.113,0
1484995732.107,30.273,33.203,36.621,44.922,-6.348,0
1484995732.111,20.996,48.828,34.180,25.391,28.809,0
1484995732.115,40.039,41.992,37.109,41.992,40.039,0
1484995732.119,43.457,30.762,41.992,59.082,41.504,0
1484995732.123,50.293,44.434,52.734,68.848,46.875,0
1484995732.126,54.199,45.898,42.480,53.223,57.617,0
1484995732.130,35.645,26.367,23.926,37.598,31.250,0
1484995732.134,42.969,18.066,36.621,58.105,-10.254,0
1484995732.138,51.270,36.133,42.480,62.012,8.789,0
1484995732.142,37.598,56.152,34.180,56.641,49.805,0
1484995732.146,33.203,42.969,39.551,54.688,24.414,0
1484995732.150,37.109,21.484,34.180,43.945,3.906,0
1484995732.154,32.715,18.555,26.855,42.480,47.363,0
1484995732.158,31.738,29.785,28.320,43.457,45.898,0
1484995732.162,30.762,28.809,27.344,34.668,24.414,0
1484995732.166,35.645,22.949,32.227,36.133,43.457,0
1484995732.169,37.109,34.180,32.715,42.969,31.738,0
1484995732.173,28.809,33.203,30.273,33.691,28.809,0
1484995732.177,24.414,23.926,25.391,32.715,41.992,0
1484995732.181,29.297,11.230,21.484,38.086,13.184,0
1484995732.185,36.621,-0.488,27.344,49.316,20.020,0
1484995732.189,32.227,26.367,28.320,49.805,32.227,0
1484995732.193,38.574,52.734,25.391,44.434,45.410,0
1484995732.197,45.410,48.340,29.785,49.316,30.762,0
1484995732.201,44.434,47.852,29.785,45.410,40.527,0
1484995732.205,58.105,48.340,32.715,62.500,63.477,0
1484995732.208,62.500,34.668,35.156,70.801,52.734,0
1484995732.212,50.781,31.738,26.855,48.340,57.129,0
1484995732.216,38.086,24.902,24.414,42.969,59.082,0
1484995732.220,22.949,25.879,26.367,39.551,26.367,0
1484995732.224,19.043,37.109,28.809,32.227,0.488,0
1484995732.228,26.855,18.066,31.738,34.668,21.973,0
1484995732.232,32.715,0.977,36.133,45.898,59.570,0
1484995732.236,41.016,24.902,31.250,49.316,60.059,0
1484995732.240,49.316,36.133,37.598,52.246,48.340,0
1484995732.244,52.246,44.434,41.992,50.293,55.664,0
1484995732.248,34.180,32.715,24.902,34.668,46.387,0
1484995732.251,23.438,16.113,18.066,25.879,20.996,0
1484995732.255,30.762,16.113,20.996,27.832,6.836,0
1484995732.259,20.020,21.973,22.949,32.227,-4.395,0
1484995732.263,17.090,26.855,21.484,29.297,10.254,0
1484995732.267,21.484,25.391,18.066,33.691,26.855,0
1484995732.271,28.320,22.461,26.855,39.551,22.949,0
1484995732.275,38.574,2.930,28.809,44.922,41.504,0
1484995732.279,46.875,2.441,29.297,48.340,44.922,0
1484995732.283,52.734,37.598,44.434,55.664,26.855,0
1484995732.287,37.598,56.641,28.320,42.480,10.742,0
1484995732.291,36.621,21.484,16.602,29.297,29.785,0
1484995732.294,35.156,3.906,22.949,37.109,21.973,0
1484995732.298,31.250,20.020,23.926,30.762,7.812,0
1484995732.302,33.203,26.367,24.902,23.926,17.090,0
1484995732.306,28.320,18.066,28.320,31.738,20.020,0
1484995732.310,18.555,29.785,24.902,26.855,21.484,0
1484995732.314,21.484,28.809,29.297,29.297,11.230,0
1484995732.318,23.438,26.367,29.297,36.621,12.207,0
1484995732.322,31.738,32.715,34.180,42.480,25.391,0
1484995732.326,54.688,20.996,50.781,60.547,21.484,0
1484995732.330,37.109,24.414,41.992,50.781,30.273,0
1484995732.333,19.531,26.855,32.715,39.062,21.484,0
1484995732.337,39.062,23.438,36.133,49.805,33.203,0
1484995732.341,36.621,34.180,43.457,54.688,35.156,0
1484995732.345,39.551,30.762,49.805,59.082,12.695,0
1484995732.349,42.480,28.809,39.062,56.152,20.508,0
1484995732.353,26.855,34.668,29.297,38.574,27.832,0
1484995732.357,33.203,17.090,34.668,41.992,31.738,0
1484995732.361,45.898,23.438,43.457,61.523,15.137,0
1484995732.365,42.480,27.344,44.922,67.871,26.855,0
1484995732.369,39.062,19.531,35.645,55.176,66.895,0
1484995732.373,44.434,32.227,35.645,51.758,59.082,0
1484995732.376,27.344,30.273,33.691,49.316,19.043,0
1484995732.380,30.762,16.113,31.250,57.129,35.645,0
1484995732.384,39.551,41.504,31.738,55.176,63.477,0
1484995732.388,35.156,54.688,24.902,43.457,52.246,0
1484995732.392,42.480,24.414,31.738,56.152,45.410,0
1484995732.396,36.133,27.832,33.691,47.852,26.367,0
1484995732.400,30.762,69.336,33.203,38.086,24.902,0
1484995732.404,42.969,51.758,42.480,54.688,34.180,0
1484995732.408,55.664,19.531,47.852,60.059,11.230,0
1484995732.412,41.992,30.273,40.527,56.152,2.441,0
1484995732.416,27.344,39.062,28.320,46.387,59.082,0
1484995732.419,41.992,34.668,30.273,39.062,40.039,0
1484995732.423,45.898,26.855,38.086,42.969,-5.371,0
1484995732.427,47.363,22.461,39.062,51.270,26.855,0
1484995732.431,37.109,44.922,35.156,55.664,41.016,0
1484995732.435,40.039,59.570,37.598,53.223,33.203,0
1484995732.439,52.246,31.250,41.016,44.922,31.738,0
1484995732.443,37.109,51.270,42.480,37.598,32.227,0
1484995732.447,40.039,62.012,49.316,47.852,26.367,0
1484995732.451,36.621,29.297,41.992,52.246,28.320,0
1484995732.455,27.832,26.855,34.180,46.387,35.156,0
1484995732.458,24.902,27.832,36.133,40.527,46.387,0
1484995732.462,21.484,22.949,36.621,44.434,27.832,0
1484995732.466,25.391,37.109,33.691,46.875,1.465,0
1484995732.470,31.250,42.969,32.715,36.621,30.762,0
1484995732.474,42.969,35.645,40.527,50.293,49.316,0
1484995732.478,35.645,45.410,36.621,52.246,46.387,0
1484995732.482,42.480,37.598,37.598,46.875,36.133,0
1484995732.486,48.340,58.594,48.828,59.082,48.340,0
1484995732.490,31.738,60.059,40.039,52.734,46.875,0
1484995732.494,41.016,22.949,29.785,50.293,39.062,0
1484995732.498,42.969,38.574,28.809,46.875,45.898,0
1484995732.501,34.668,27.832,35.156,45.898,30.273,0
1484995732.505,33.203,36.133,34.668,54.199,40.527,0
1484995732.509,48.340,53.223,31.738,53.711,24.414,0
1484995732.513,47.363,34.180,34.668,54.199,3.906,0
1484995732.517,26.855,39.551,30.273,47.852,40.039,0
1484995732.521,54.199,36.133,38.574,54.688,33.203,0
1484995732.525,51.270,39.551,37.109,47.363,32.227,0
1484995732.529,36.133,74.219,32.715,34.668,43.457,0
1484995732.533,65.918,68.359,47.363,54.199,55.176,0
1484995732.537,64.453,41.504,44.434,56.641,29.297,0
1484995732.541,32.227,42.480,30.273,43.457,-8.789,0
1484995732.544,36.621,36.621,43.457,59.570,27.344,0
1484995732.548,46.387,44.434,51.270,71.289,43.457,0
1484995732.552,23.926,49.805,37.598,58.105,-9.766,0
1484995732.556,21.484,52.734,32.227,42.480,-14.160,0
1484995732.560,40.039,41.504,33.691,45.410,12.207,0
1484995732.564,40.527,38.574,37.598,48.828,49.316,0
1484995732.568,28.809,54.199,35.156,39.551,93.262,0
1484995732.572,35.156,52.734,40.527,46.875,53.223,0
1484995732.576,47.363,49.316,39.062,44.434,35.156,0
1484995732.580,34.180,38.086,32.715,30.273,53.711,0
1484995732.583,41.992,34.668,34.668,37.109,33.203,0
1484995732.587,55.176,34.180,34.180,45.410,7.324,0
1484995732.591,42.480,34.180,32.227,41.992,29.785,0
1484995732.595,30.762,29.785,28.809,27.344,41.504,0
1484995732.599,32.715,37.109,30.273,23.926,-21.973,0
1484995732.603,29.297,39.062,29.785,32.227,-20.508,0
1484995732.607,20.020,39.551,30.273,35.645,87.891,0
1484995732.611,40.527,45.410,39.551,50.781,94.727,0
1484995732.615,46.387,52.246,40.039,56.641,57.617,0
1484995732.619,36.133,45.898,35.645,44.922,28.809,0
1484995732.623,31.250,46.875,26.855,24.902,47.363,0
1484995732.626,28.320,36.133,29.785,33.203,65.430,0
1484995732.630,24.902,59.082,30.762,40.527,39.551,0
1484995732.634,35.645,55.176,36.133,40.039,41.016,0
1484995732.638,46.387,27.832,46.387,49.805,44.922,0
1484995732.642,43.457,45.898,41.016,40.527,24.414,0
1484995732.646,49.805,40.527,36.621,39.551,20.996,0
1484995732.650,38.574,31.250,39.062,45.410,25.391,0
1484995732.654,21.973,46.875,27.344,35.156,34.180,0
1484995732.658,27.344,61.523,22.461,27.344,23.926,0
1484995732.662,41.504,35.156,32.715,40.527,12.207,0
1484995732.666,31.738,29.785,34.668,41.504,45.898,0
1484995732.669,19.043,52.246,27.832,22.461,55.176,0
1484995732.673,32.715,34.180,25.879,29.785,13.672,0
1484995732.677,41.992,25.391,33.691,48.340,20.020,0
1484995732.681,32.227,48.340,32.227,43.457,45.898,0
1484995732.685,23.926,55.176,28.320,41.016,35.156,0
1484995732.689,44.434,41.504,30.273,47.852,10.254,0
1484995732.693,40.039,22.949,28.320,40.527,-11.230,0
1484995732.697,39.551,22.461,29.297,42.969,9.277,0
1484995732.701,44.922,26.855,28.320,53.711,4.395,0
1484995732.705,29.785,51.758,26.855,46.387,26.367,0
1484995732.708,37.598,47.363,36.621,49.316,35.645,0
1484995732.712,50.293,17.578,42.969,59.082,10.742,0
1484995732.716,48.828,46.875,38.086,53.711,18.555,0
1484995732.720,48.828,50.293,41.016,53.711,31.250,0
1484995732.724,56.152,33.203,42.969,56.641,45.410,0
1484995732.728,49.805,30.273,39.062,52.734,32.227,0
1484995732.732,23.438,29.785,29.785,35.156,7.812,0
1484995732.736,9.277,28.809,23.926,20.996,-2.441,0
1484995732.740,24.902,29.785,29.785,33.691,28.809,0
1484995732.744,35.645,28.809,32.715,41.016,39.551,0
1484995732.748,46.387,22.949,29.785,41.504,29.297,0
1484995732.751,45.898,46.387,28.809,39.551,22.461,0
1484995732.755,39.062,68.848,30.273,40.039,19.531,0
1484995732.759,59.570,49.316,42.969,55.176,31.738,0
1484995732.763,49.316,36.133,41.504,54.688,40.039,0
1484995732.767,32.227,52.734,27.344,36.621,7.812,0
1484995732.771,43.457,45.898,35.156,41.504,22.461,0
1484995732.775,46.387,21.484,41.016,49.805,29.297,0
1484995732.779,28.320,20.508,26.855,37.109,-22.461,0
1484995732.783,19.043,33.691,16.602,28.809,-14.648,0
1484995732.787,35.156,44.922,23.438,29.297,8.789,0
1484995732.791,40.039,31.250,35.645,36.621,23.926,0
1484995732.794,42.480,42.480,47.363,50.293,34.668,0
1484995732.798,40.039,79.590,45.410,47.363,43.945,0
1484995732.802,39.551,49.805,37.109,38.086,50.781,0
1484995732.806,56.641,25.391,31.250,56.641,42.480,0
1484995732.810,35.156,45.898,29.297,52.734,30.762,0
1484995732.814,19.043,43.945,28.320,42.969,18.066,0
1484995732.818,26.855,36.133,26.855,52.734,40.527,0
1484995732.822,33.691,33.691,35.645,54.199,58.594,0
1484995732.826,46.387,32.227,40.039,54.688,29.785,0
1484995732.830,44.922,50.293,33.691,50.293,11.230,0
1484995732.833,49.316,62.500,39.062,52.246,9.766,0
1484995732.837,53.223,41.992,44.922,52.734,20.996,0
1484995732.841,29.785,21.973,35.156,30.762,31.738,0
1484995732.845,41.016,34.668,32.715,38.574,28.320,0
1484995732.849,46.875,39.551,32.227,49.805,57.617,0
1484995732.853,33.203,42.480,22.949,36.133,35.156,0
1484995732.857,36.621,46.875,29.297,45.410,3.906,0
1484995732.861,50.293,43.457,41.504,56.641,44.922,0
1484995732.865,49.316,57.617,38.574,61.035,52.734,0
1484995732.869,37.109,48.828,33.203,54.199,32.227,0
1484995732.873,37.598,33.691,25.879,44.434,12.695,0
1484995732.876,44.922,35.645,32.715,53.711,7.812,0
1484995732.880,30.273,38.086,32.715,48.340,65.430,0
1484995732.884,21.973,36.621,31.738,45.410,65.430,0
1484995732.888,33.203,26.367,42.969,58.105,19.531,0
1484995732.892,40.527,20.508,45.410,62.988,19.043,0
1484995732.896,38.086,21.973,45.410,55.176,27.832,0
1484995732.900,34.668,34.180,46.387,54.688,0.977,0
1484995732.904,35.645,41.504,41.016,52.734,6.348,0
1484995732.908,46.875,45.410,40.527,58.594,18.555,0
1484995732.912,51.758,41.016,48.340,65.430,7.812,0
1484995732.916,35.156,42.969,42.969,49.316,26.367,0
1484995732.919,38.574,29.297,46.875,51.758,31.250,0
1484995732.923,42.480,32.227,44.922,55.176,12.695,0
1484995732.927,23.438,44.434,33.203,33.691,-5.859,0
1484995732.931,24.414,42.480,29.297,30.762,-8.789,0
1484995732.935,38.086,30.762,39.551,47.852,28.320,0
1484995732.939,54.199,40.039,44.922,64.941,13.672,0
1484995732.943,45.898,46.875,41.016,67.871,15.625,0
1484995732.947,41.992,20.020,43.457,69.824,41.992,0
1484995732.951,41.016,9.277,44.922,61.523,27.344,0
1484995732.955,27.832,36.621,39.062,49.805,23.438,0
1484995732.958,39.062,50.781,40.527,59.570,18.555,0
1484995732.962,42.969,39.551,44.922,57.617,24.902,0
1484995732.966,35.156,42.480,37.598,41.992,43.945,0
1484995732.970,39.062,37.109,35.645,49.316,44.922,0
1484995732.974,38.086,50.781,38.086,55.176,26.367,0
1484995732.978,32.227,50.781,37.109,42.480,14.648,0
1484995732.982,42.480,34.180,45.898,52.246,44.922,0
1484995732.986,42.969,27.344,47.363,59.082,25.391,0
1484995732.990,28.320,24.902,37.598,48.340,8.789,0
1484995732.994,46.387,12.695,40.039,48.340,39.551,0
1484995732.998,41.504,40.039,39.551,44.434,57.129,0
1484995733.001,33.203,35.156,38.574,38.574,68.359,0
1484995733.005,39.062,17.578,38.086,37.109,49.805,0
1484995733.009,42.969,34.668,35.156,43.457,21.973,0
1484995733.013,49.316,41.992,32.715,47.852,38.086,0
1484995733.017,28.809,53.223,35.645,21.973,47.852,0
1484995733.021,25.391,41.992,38.086,30.762,18.066,0
1484995733.025,37.109,20.020,31.738,55.176,37.109,0
1484995733.029,44.922,38.086,35.645,51.270,54.688,0
1484995733.033,46.387,49.316,47.852,48.340,29.297,0
1484995733.037,36.621,33.691,41.016,38.574,23.926,0
1484995733.041,35.645,21.484,31.250,33.203,56.152,0
1484995733.044,42.969,27.344,37.109,46.875,66.895,0
1484995733.048,25.879,31.738,34.668,43.945,33.203,0
1484995733.052,25.879,36.621,39.062,35.156,14.648,0
1484995733.056,58.105,35.156,48.828,49.316,23.438,0
1484995733.060,43.457,50.293,29.297,43.945,44.922,0
1484995733.064,32.715,46.387,29.297,44.922,25.391,0
1484995733.068,37.598,15.625,41.992,56.641,-2.930,0
1484995733.072,39.062,28.320,40.527,49.316,20.996,0
1484995733.076,53.223,38.086,40.527,47.852,31.250,0
1484995733.080,39.551,41.504,35.645,46.387,33.691,0
1484995733.083,26.367,36.621,32.715,41.504,50.781,0
1484995733.087,22.949,28.809,31.738,34.180,78.125,0
1484995733.091,31.738,46.387,38.086,46.387,39.062,0
1484995733.095,41.992,31.738,42.480,50.781,22.949,0
1484995733.099,37.598,8.789,35.645,46.875,74.219,0
1484995733.103,32.715,31.250,35.645,51.758,75.195,0
1484995733.107,27.344,51.758,38.086,51.270,34.180,0
1484995733.111,34.180,40.039,53.711,64.453,-8.301,0
1484995733.115,34.180,56.152,46.387,56.152,39.062,0
1484995733.119,20.508,51.270,37.109,39.551,58.594,0
1484995733.123,38.574,36.621,45.410,54.199,16.602,0
1484995733.126,47.363,42.969,50.293,59.082,47.852,0
1484995733.130,26.367,35.156,39.062,37.598,80.078,0
1484995733.134,27.832,38.086,34.180,30.273,57.617,0
1484995733.138,44.434,20.996,47.852,54.199,54.688,0
1484995733.142,26.367,55.664,31.738,42.969,60.547,0
1484995733.146,10.742,72.754,28.320,35.156,72.266,0
1484995733.150,31.738,24.902,44.922,54.199,54.688,0
1484995733.154,26.367,30.273,34.668,41.504,21.484,0
1484995733.158,22.461,38.574,26.855,37.598,3.906,0
1484995733.162,32.227,32.227,36.133,56.641,22.949,0
1484995733.166,25.391,32.715,38.574,48.340,49.805,0
1484995733.169,19.531,41.992,31.250,33.691,14.648,0
1484995733.173,26.855,53.711,32.715,37.109,13.184,0
1484995733.177,39.062,25.391,35.156,42.480,44.922,0
1484995733.181,31.738,27.344,31.250,41.504,39.551,0
1484995733.185,32.227,37.109,35.645,44.922,13.672,0
1484995733.189,20.020,36.621,27.344,26.367,-4.883,0
1484995733.193,20.996,30.762,24.414,23.926,30.762,0
1484995733.197,53.223,23.926,32.715,50.293,23.438,0
1484995733.201,41.992,44.922,26.855,45.410,21.973,0
1484995733.205,35.156,45.410,21.973,30.762,21.484,0
1484995733.208,46.875,33.203,26.855,46.387,9.277,0
1484995733.212,25.879,31.250,33.203,50.781,13.184,0
1484995733.216,19.531,38.086,27.832,25.879,8.789,0
1484995733.220,47.852,36.621,26.855,37.109,11.230,0
1484995733.224,44.922,25.879,39.551,56.641,15.625,0
1484995733.228,30.273,18.066,31.250,50.293,16.602,0
1484995733.232,39.551,20.020,32.715,48.828,-8.789,0
1484995733.236,38.574,27.832,35.156,47.363,12.207,0
1484995733.240,25.391,52.734,17.090,25.391,35.156,0
1484995733.244,29.785,38.574,21.973,18.066,33.203,0
1484995733.248,41.504,16.602,29.785,27.344,17.578,0
1484995733.251,32.227,32.715,25.391,37.109,26.367,0
1484995733.255,41.992,20.508,32.715,46.875,39.062,0
1484995733.259,49.805,22.949,33.691,38.574,14.648,0
1484995733.263,37.109,35.645,26.367,21.973,16.602,0
1484995733.267,28.320,32.715,25.391,28.809,30.273,0
1484995733.271,31.250,33.691,36.133,48.828,22.949,0
1484995733.275,28.809,42.969,46.387,41.992,13.672,0
1484995733.279,28.320,34.668,44.922,47.852,44.434,0
1484995733.283,38.086,51.758,39.062,56.641,47.363,0
1484995733.287,39.062,60.059,40.039,55.664,26.367,0
1484995733.291,41.016,50.293,41.016,47.852,18.066,0
1484995733.294,44.922,65.430,39.551,51.758,5.371,0
1484995733.298,51.758,42.969,49.805,71.777,17.090,0
1484995733.302,47.852,43.457,52.246,67.383,24.902,0
1484995733.306,52.734,47.852,43.945,57.617,5.371,0
1484995733.310,55.664,27.344,36.133,54.199,28.809,0
1484995733.314,45.898,18.555,28.320,47.852,56.641,0
1484995733.318,42.480,23.926,26.367,40.527,35.645,0
1484995733.322,44.434,42.969,32.715,47.852,45.898,0
1484995733.326,37.109,41.016,33.203,61.035,56.152,0
1484995733.330,33.203,31.250,31.738,55.664,78.125,0
1484995733.333,39.551,35.156,36.133,48.340,72.754,0
1484995733.337,45.410,50.293,37.109,47.363,47.363,0
1484995733.341,45.898,51.270,36.133,56.152,33.203,0
1484995733.345,51.270,33.691,43.457,63.477,47.852,0
1484995733.349,41.504,38.574,34.180,44.434,25.879,0
1484995733.353,37.598,33.203,30.273,41.992,0.488,0
1484995733.357,56.641,24.902,35.156,50.293,22.949,0
1484995733.361,46.387,20.996,30.273,44.434,41.016,0
1484995733.365,28.320,28.320,37.109,44.922,12.695,0
1484995733.369,48.828,32.227,42.969,63.965,6.836,0
1484995733.373,54.199,21.484,39.551,67.383,50.781,0
1484995733.376,44.922,34.668,40.039,59.082,24.414,0
1484995733.380,43.945,47.852,37.109,62.012,21.484,0
1484995733.384,52.734,29.785,39.062,66.895,23.438,0
1484995733.388,49.316,27.344,31.250,61.035,7.812,0
1484995733.392,31.250,41.992,22.461,47.852,10.742,0
1484995733.396,30.762,44.434,25.391,41.016,18.555,0
1484995733.400,35.645,35.156,27.344,44.922,13.672,0
1484995733.404,33.691,49.805,25.391,53.711,26.855,0
1484995733.408,38.086,44.922,35.156,56.641,34.180,0
1484995733.412,39.551,33.203,38.574,55.176,34.668,0
1484995733.416,41.504,21.973,37.598,55.664,61.035,0
1484995733.419,39.062,19.531,29.785,52.734,39.062,0
1484995733.423,37.109,35.156,29.785,49.316,4.883,0
1484995733.427,38.574,37.109,33.203,53.223,11.230,0
1484995733.431,28.320,46.387,23.926,53.223,34.668,0
1484995733.435,31.250,37.598,30.762,49.316,44.434,0
1484995733.439,27.344,42.969,32.227,44.434,25.391,0
1484995733.443,29.785,52.246,33.691,48.828,13.672,0
1484995733.447,44.434,34.180,41.992,61.035,35.156,0
1484995733.451,39.062,44.922,39.062,52.246,41.992,0
1484995733.455,33.203,34.180,32.715,37.109,48.828,0
1484995733.458,32.715,24.902,27.832,36.133,57.617,0
1484995733.462,36.133,33.203,25.391,34.668,64.941,0
1484995733.466,43.457,25.879,29.785,48.828,46.387,0
1484995733.470,48.340,32.227,32.715,62.500,20.020,0
1484995733.474,43.457,33.203,33.691,55.664,56.641,0
1484995733.478,38.086,36.621,32.227,47.852,25.391,0
1484995733.482,45.410,53.223,37.109,54.688,3.418,0
1484995733.486,57.129,56.152,45.898,66.895,31.250,0
1484995733.490,45.898,41.016,39.551,57.617,13.672,0
1484995733.494,30.762,57.129,26.855,40.527,27.344,0
1484995733.498,34.180,67.871,22.949,38.574,31.738,0
1484995733.501,35.156,44.922,28.809,38.086,13.672,0
1484995733.505,41.016,39.062,31.250,50.293,43.945,0
1484995733.509,52.246,42.969,35.156,60.059,57.129,0
1484995733.513,54.199,36.133,35.156,50.781,51.758,0
1484995733.517,52.734,41.992,40.039,47.852,61.523,0
1484995733.521,62.012,55.664,43.945,53.711,83.496,0
1484995733.525,65.918,62.500,44.922,59.082,57.129,0
1484995733.529,60.547,53.711,47.852,61.523,41.016,0
1484995733.533,43.457,43.945,37.598,61.523,53.223,0
1484995733.537,22.461,37.109,36.133,52.246,34.180,0
1484995733.541,35.156,36.133,37.109,50.781,53.711,0
1484995733.544,34.668,56.641,38.086,55.176,25.391,0
1484995733.548,37.109,60.059,40.527,63.477,-7.324,0
1484995733.552,54.688,44.922,46.387,66.895,57.129,0
1484995733.556,57.129,40.527,47.363,57.129,60.547,0
1484995733.560,41.016,57.129,31.250,45.410,16.113,0
1484995733.564,48.828,61.523,34.668,56.152,9.277,0
1484995733.568,47.852,64.941,39.062,53.223,29.297,0
1484995733.572,38.574,63.477,34.668,46.875,45.410,0
1484995733.576,46.875,48.828,35.156,54.199,30.273,0
1484995733.580,41.504,42.969,39.062,64.453,16.113,0
1484995733.583,45.898,62.012,49.316,64.453,18.066,0
1484995733.587,46.387,68.848,53.223,59.082,27.344,0
1484995733.591,38.086,57.129,51.270,61.035,-1.465,0
1484995733.595,38.574,36.621,41.016,51.758,6.836,0
1484995733.599,29.297,29.297,35.645,53.223,56.641,0
1484995733.603,25.879,52.246,39.551,53.223,53.223,0
1484995733.607,38.574,53.711,44.922,58.105,27.344,0
1484995733.611,46.387,51.758,50.293,71.289,30.762,0
1484995733.615,28.320,65.430,40.039,61.523,52.734,0
1484995733.619,29.297,63.965,42.969,62.500,14.648,0
1484995733.623,61.035,38.086,51.270,78.613,0.977,0
1484995733.626,60.547,47.852,44.434,73.242,29.297,0
1484995733.630,40.527,51.758,38.086,68.848,60.059,0
1484995733.634,37.598,41.016,36.621,62.012,26.367,0
1484995733.638,42.480,49.316,39.062,61.523,-11.719,0
1484995733.642,36.621,44.922,43.945,64.453,39.551,0
1484995733.646,37.598,48.828,50.781,69.336,64.453,0
1484995733.650,56.641,53.223,58.594,83.984,62.500,0
1484995733.654,60.059,41.992,53.223,75.684,60.547,0
1484995733.658,34.668,46.387,44.922,66.406,36.133,0
1484995733.662,14.648,67.383,47.363,60.547,24.902,0
1484995733.666,45.898,52.734,63.965,73.242,2.930,0
1484995733.669,58.594,38.086,63.477,77.148,14.160,0
1484995733.673,50.293,51.758,52.246,70.801,55.176,0
1484995733.677,62.988,76.172,56.152,88.379,39.062,0
1484995733.681,57.129,56.152,62.500,94.727,-0.488,0
1484995733.685,48.828,45.898,50.781,77.637,28.809,0
1484995733.689,56.152,54.688,51.758,77.637,61.523,0
1484995733.693,41.016,49.805,51.758,77.148,41.504,0
1484995733.697,38.086,66.895,50.781,75.684,33.203,0
1484995733.701,63.477,55.664,54.688,81.055,57.617,0
1484995733.705,68.359,44.434,49.805,78.125,61.523,0
1484995733.708,54.199,52.246,49.805,70.312,30.273,0
1484995733.712,53.711,50.781,55.176,69.336,25.879,0
1484995733.716,48.828,60.059,54.199,69.824,24.414,0
1484995733.720,47.852,58.594,50.293,76.172,9.766,0
1484995733.724,44.434,43.457,48.828,63.477,-0.977,0
1484995733.728,27.344,46.387,35.645,44.434,-13.184,0
1484995733.732,45.898,59.570,30.762,60.059,29.297,0
1484995733.736,57.617,59.082,46.875,69.336,45.898,0
1484995733.740,68.359,50.293,56.152,81.055,28.809,0
1484995733.744,61.035,58.105,48.828,78.125,38.574,0
1484995733.748,53.711,53.223,45.410,69.336,47.363,0
1484995733.751,57.617,54.688,45.898,71.289,39.551,0
1484995733.755,53.223,59.082,56.152,76.660,19.043,0
1484995733.759,76.660,57.129,67.383,93.262,14.648,0
1484995733.763,72.266,62.500,62.988,88.867,10.742,0
1484995733.767,55.176,60.547,62.012,76.660,29.297,0
1484995733.771,66.406,58.105,66.895,75.195,27.344,0
1484995733.775,76.660,64.941,67.871,94.727,24.414,0
1484995733.779,69.336,65.918,64.453,90.820,31.250,0
1484995733.783,62.012,49.805,53.711,64.453,40.039,0
1484995733.787,55.664,51.270,49.316,67.383,24.902,0
1484995733.791,50.293,53.711,47.363,72.754,36.621,0
1484995733.794,46.875,62.988,41.992,63.477,74.219,0
1484995733.798,42.969,38.574,46.875,63.965,60.547,0
1484995733.802,43.945,27.344,53.711,68.848,16.602,0
1484995733.806,45.898,56.152,54.199,65.918,29.297,0
1484995733.810,49.316,40.527,58.594,74.707,39.062,0
1484995733.814,39.551,27.832,53.711,72.266,11.230,0
1484995733.818,31.738,34.180,44.922,57.129,10.742,0
1484995733.822,19.043,42.969,42.969,49.316,39.062,0
1484995733.826,29.297,54.199,48.340,55.176,41.992,0
1484995733.830,45.898,55.664,54.688,63.477,29.785,0
1484995733.833,38.086,47.363,54.199,64.941,43.457,0
1484995733.837,31.250,55.664,45.410,60.547,58.105,0
1484995733.841,41.992,50.293,54.199,67.383,36.621,0
1484995733.845,39.062,38.086,60.059,73.242,17.090,0
1484995733.849,20.996,50.781,40.527,52.734,49.316,0
1484995733.853,36.621,31.738,40.527,56.152,80.078,0
1484995733.857,46.875,12.207,47.852,72.754,60.059,0
1484995733.861,36.133,27.344,41.504,73.242,27.344,0
1484995733.865,47.363,33.203,37.598,66.406,47.363,0
1484995733.869,32.227,37.598,38.086,54.199,44.922,0
1484995733.873,12.207,52.246,39.551,60.547,2.930,0
1484995733.876,31.738,51.270,39.062,74.707,6.348,0
1484995733.880,39.551,50.781,37.109,69.336,21.484,0
1484995733.884,42.480,23.438,33.691,67.383,17.090,0
1484995733.888,38.574,19.531,36.621,73.242,20.020,0
1484995733.892,42.480,44.922,39.551,74.707,15.137,0
1484995733.896,34.668,36.133,35.645,67.383,27.344,0
1484995733.900,28.320,21.484,38.086,69.336,32.227,0
1484995733.904,28.320,38.086,38.086,70.312,-13.184,0
1484995733.908,18.066,51.270,36.621,61.523,-13.672,0
1484995733.912,38.574,54.199,43.945,75.684,47.852,0
1484995733.916,48.828,31.738,44.434,85.449,56.641,0
1484995733.919,29.785,22.461,39.551,76.660,29.297,0
1484995733.923,34.668,33.203,45.898,76.172,25.879,0
1484995733.927,49.316,40.527,56.152,76.660,53.223,0
1484995733.931,53.711,52.734,59.082,78.125,54.199,0
1484995733.935,45.898,42.480,53.711,76.172,50.293,0
1484995733.939,31.738,43.457,44.922,55.176,57.617,0
1484995733.943,28.809,55.176,44.434,53.711,34.180,0
1484995733.947,38.574,33.691,49.316,71.289,40.039,0
1484995733.951,20.020,41.504,38.574,55.176,62.012,0
1484995733.955,22.461,44.434,37.109,49.316,38.574,0
1484995733.958,37.598,36.133,48.340,67.383,24.414,0
1484995733.962,42.969,51.270,45.410,70.312,26.855,0
1484995733.966,49.805,41.992,47.363,64.941,26.855,0
1484995733.970,52.246,45.410,45.410,66.895,75.195,0
1484995733.974,51.758,44.922,41.504,66.406,77.148,0
1484995733.978,41.504,36.133,38.574,63.477,28.809,0
1484995733.982,49.316,37.109,38.086,66.895,34.180,0
1484995733.986,49.316,32.227,41.016,72.266,40.039,0
1484995733.990,31.738,30.762,37.598,60.059,31.250,0
1484995733.994,20.508,57.617,31.250,43.457,46.387,0
1484995733.998,32.715,47.852,30.273,55.664,28.320,0
1484995734.001,44.434,20.508,33.203,67.383,16.602,0
1484995734.005,37.598,35.156,29.297,58.105,54.688,0
1484995734.009,31.738,32.715,29.297,57.129,13.184,0
1484995734.013,40.527,32.715,39.551,64.941,-17.578,0
1484995734.017,56.152,45.898,41.992,66.406,36.621,0
1484995734.021,62.012,30.273,41.992,75.684,59.570,0
1484995734.025,49.316,20.996,41.016,77.148,37.109,0
1484995734.029,37.598,34.180,35.156,68.359,14.160,0
1484995734.033,42.480,36.133,36.133,66.895,32.227,0
1484995734.037,44.922,26.855,40.527,62.012,35.156,0
1484995734.041,31.250,35.156,31.250,47.363,26.855,0
1484995734.044,30.273,36.133,31.250,53.711,13.184,0
1484995734.048,42.480,32.227,44.922,62.988,16.602,0
1484995734.052,46.387,35.645,48.340,62.988,10.742,0
1484995734.056,42.480,31.250,45.410,69.824,0.000,0
1484995734.060,24.902,26.855,31.250,52.734,39.062,0
1484995734.064,7.812,37.109,24.902,41.016,47.363,0
1484995734.068,17.578,47.363,31.250,41.016,48.828,0
1484995734.072,30.273,46.387,35.156,44.922,40.039,0
1484995734.076,46.387,18.066,40.039,65.430,15.625,0
1484995734.080,44.922,15.625,44.922,72.754,53.223,0
1484995734.083,50.781,39.551,46.875,80.566,44.434,0
1484995734.087,68.848,40.527,51.270,92.773,25.879,0
1484995734.091,51.758,40.039,47.363,80.078,59.570,0
1484995734.095,33.691,41.504,40.527,64.941,49.316,0
1484995734.099,31.250,47.363,32.715,59.082,0.977,0
1484995734.103,47.852,38.574,32.715,62.012,-10.254,0
1484995734.107,49.805,25.879,31.250,57.617,30.273,0
1484995734.111,44.434,33.691,31.250,56.641,52.246,0
1484995734.115,40.039,42.480,37.598,60.547,22.949,0
1484995734.119,41.992,27.344,38.574,62.988,-3.418,0
1484995734.123,29.785,46.875,39.551,39.551,36.133,0
1484995734.126,19.531,61.523,40.039,43.457,37.598,0
1484995734.130,51.758,37.109,51.758,86.914,26.855,0
1484995734.134,59.570,29.297,49.316,88.867,47.363,0
1484995734.138,45.898,29.297,30.762,69.336,31.250,0
1484995734.142,46.387,24.414,38.574,72.266,14.160,0
1484995734.146,50.781,31.738,42.969,74.707,15.137,0
1484995734.150,54.688,41.016,39.062,81.543,30.762,0
1484995734.154,46.875,26.855,41.016,78.125,29.785,0
1484995734.158,36.621,28.809,42.969,66.406,24.902,0
1484995734.162,46.875,25.879,43.457,71.777,9.277,0
1484995734.166,47.852,44.434,45.898,76.660,39.551,0
1484995734.169,27.832,65.918,55.664,70.312,44.922,0
1484995734.173,40.039,24.414,48.828,68.848,1.953,0
1484995734.177,38.574,33.691,36.133,61.523,-9.766,0
1484995734.181,28.320,47.852,34.180,53.711,2.441,0
1484995734.185,45.410,34.668,36.621,66.895,1.953,0
1484995734.189,53.711,38.086,41.992,75.195,-18.555,0
1484995734.193,45.898,42.480,40.527,73.730,-35.645,0
1484995734.197,50.293,55.664,41.504,69.824,6.836,0
1484995734.201,56.152,53.223,41.504,61.035,29.785,0
1484995734.205,66.895,47.852,43.945,69.336,3.418,0
1484995734.208,73.730,54.688,58.105,83.008,-12.695,0
1484995734.212,53.223,50.293,47.852,75.195,20.020,0
1484995734.216,44.922,34.180,35.645,58.594,37.109,0
1484995734.220,48.340,30.762,40.039,51.758,28.809,0
1484995734.224,42.969,55.664,37.598,49.805,17.090,0
1484995734.228,37.109,54.199,39.551,46.387,15.625,0
1484995734.232,35.645,53.223,36.621,48.340,6.836,0
1484995734.236,29.297,67.383,33.691,45.898,5.859,0
1484995734.240,38.574,57.617,44.922,55.664,35.645,0
1484995734.244,58.105,51.758,54.199,74.219,48.828,0
1484995734.248,51.270,44.922,40.527,62.500,28.320,0
1484995734.251,41.992,53.223,30.273,56.152,10.742,0
1484995734.255,36.621,62.012,31.738,56.152,34.180,0
1484995734.259,31.738,36.133,29.785,45.410,39.062,0
1484995734.263,30.762,21.484,36.621,42.480,25.879,0
1484995734.267,47.852,41.992,41.992,46.387,28.320,0
1484995734.271,58.105,71.289,41.504,55.664,22.461,0
1484995734.275,51.270,61.035,46.875,60.547,26.367,0
1484995734.279,40.527,68.359,51.758,64.453,20.020,0
1484995734.283,50.781,73.730,57.129,71.777,41.016,0
1484995734.287,37.598,62.012,46.387,56.152,36.133,0
1484995734.291,17.090,69.824,30.762,45.898,21.484,0
1484995734.294,36.133,43.945,40.039,58.105,25.879,0
1484995734.298,39.551,33.691,44.922,61.035,23.926,0
1484995734.302,43.945,42.480,49.316,68.848,32.715,0
1484995734.306,44.434,36.133,46.875,68.848,34.668,0
1484995734.310,36.621,32.227,35.156,57.129,35.156,0
1484995734.314,33.203,59.082,36.133,50.293,39.551,0
1484995734.318,52.246,65.430,57.617,67.871,45.898,0
1484995734.322,70.312,47.363,61.523,83.496,44.922,0
1484995734.326,48.340,66.895,48.340,68.359,28.320,0
1484995734.330,34.180,74.707,49.316,57.129,39.062,0
1484995734.333,65.430,71.777,57.129,75.684,55.664,0
1484995734.337,72.266,89.844,64.453,82.031,35.156,0
1484995734.341,67.383,88.379,73.242,90.820,16.113,0
1484995734.345,67.871,94.238,83.984,102.051,39.062,0
1484995734.349,74.219,100.586,82.031,93.750,43.945,0
1484995734.353,94.238,79.590,87.402,106.445,33.203,0
1484995734.357,92.773,76.660,93.262,113.770,52.734,0
1484995734.361,76.172,77.148,79.590,98.633,77.637,0
1484995734.365,82.031,71.289,82.520,99.609,51.270,0
1484995734.369,82.520,81.055,85.938,99.121,25.879,0
1484995734.373,76.172,94.238,87.402,103.027,15.137,0
1484995734.376,80.566,98.145,83.496,105.469,13.672,0
1484995734.380,80.566,87.402,83.008,101.074,42.969,0
1484995734.384,91.309,82.031,92.285,112.793,25.879,0
1484995734.388,97.168,82.520,96.680,113.281,12.695,0
1484995734.392,89.844,78.125,96.191,110.352,29.297,0
1484995734.396,88.867,86.426,90.820,104.980,10.254,0
1484995734.400,87.891,99.609,78.125,95.703,20.020,0
1484995734.404,89.844,84.961,79.102,104.980,8.301,0
1484995734.408,86.914,55.664,84.473,117.188,15.137,0
1484995734.412,73.730,80.566,71.289,94.238,16.602,0
1484995734.416,86.914,88.867,77.637,87.402,17.090,0
1484995734.419,97.168,84.961,82.031,95.703,34.180,0
1484995734.423,100.098,100.098,86.914,102.539,30.762,0
1484995734.427,95.703,95.215,101.562,110.352,12.695,0
1484995734.431,86.426,71.289,86.914,94.727,-19.531,0
1484995734.435,85.449,60.059,74.707,83.496,-0.977,0
1484995734.439,90.332,71.777,78.613,83.496,46.875,0
1484995734.443,85.449,62.988,75.684,84.473,31.250,0
1484995734.447,75.684,59.570,77.637,82.031,2.441,0
1484995734.451,73.730,73.730,81.055,81.055,29.785,0
1484995734.455,85.938,70.801,82.031,87.891,15.137,0
1484995734.458,95.215,56.641,89.355,95.703,-3.418,0
1484995734.462,75.684,116.211,82.031,83.984,10.742,0
1484995734.466,74.707,133.789,86.426,92.285,5.371,0
1484995734.470,96.680,65.430,93.750,104.492,0.977,0
1484995734.474,86.914,60.547,82.031,95.215,-25.391,0
1484995734.478,81.543,62.988,78.125,99.121,-27.832,0
1484995734.482,67.383,68.848,73.730,89.844,28.320,0
1484995734.486,65.918,67.383,81.055,90.820,18.066,0
1484995734.490,81.055,74.219,85.938,92.285,-14.648,0
1484995734.494,84.473,82.031,82.520,92.285,6.836,0
1484995734.498,73.730,75.684,69.824,91.797,43.945,0
1484995734.501,68.848,79.102,60.547,81.055,27.344,0
1484995734.505,95.215,81.055,77.148,93.262,5.371,0
1484995734.509,94.238,68.359,78.125,102.051,21.484,0
1484995734.513,78.125,62.012,70.312,88.867,20.996,0
1484995734.517,75.684,85.938,65.430,72.754,20.508,0
1484995734.521,79.102,80.078,67.871,75.684,31.738,0
1484995734.525,69.824,86.914,69.824,83.008,35.645,0
1484995734.529,65.430,106.934,68.848,77.148,45.898,0
1484995734.533,83.008,75.684,75.195,87.402,48.828,0
1484995734.537,80.566,74.707,71.777,90.820,49.805,0
1484995734.541,70.801,89.355,70.801,83.496,33.691,0
1484995734.544,79.590,78.613,79.590,87.891,54.688,0
1484995734.548,73.730,75.195,71.289,79.590,54.688,0
1484995734.552,61.523,62.500,59.570,69.824,29.785,0
1484995734.556,67.871,45.898,63.965,69.336,60.059,0
1484995734.560,75.684,74.219,70.312,75.195,51.270,0
1484995734.564,73.730,78.125,73.242,81.543,-6.348,0
1484995734.568,63.477,74.219,66.895,74.219,2.930,0
1484995734.572,60.059,87.402,64.941,64.453,30.762,0
1484995734.576,64.941,80.078,67.871,64.941,55.176,0
1484995734.580,73.730,77.637,69.824,78.613,62.988,0
1484995734.583,58.594,77.148,71.777,79.590,40.527,0
1484995734.587,52.246,76.172,65.430,68.359,52.246,0
1484995734.591,65.918,70.312,62.012,74.219,21.484,0
1484995734.595,62.500,55.176,64.941,83.496,1.953,0
1484995734.599,56.152,46.875,66.895,74.707,26.367,0
1484995734.603,73.730,30.762,66.895,75.684,26.855,0
1484995734.607,75.684,51.758,72.266,88.379,29.297,0
1484995734.611,72.754,77.148,76.660,79.590,5.859,0
1484995734.615,62.500,76.172,64.941,73.730,-2.930,0
1484995734.619,60.059,64.453,64.941,74.219,51.758,0
1484995734.623,61.035,76.172,65.430,66.406,58.105,0
1484995734.626,41.992,89.844,55.664,51.758,35.156,0
1484995734.630,47.852,62.500,59.082,61.035,57.129,0
1484995734.634,53.223,45.898,67.383,64.941,77.148,0
1484995734.638,45.410,68.359,61.035,56.152,69.824,0
1484995734.642,63.965,61.523,60.059,71.777,23.438,0
1484995734.646,80.566,51.270,66.406,77.637,11.719,0
1484995734.650,70.801,62.500,64.453,65.918,38.086,0
1484995734.654,59.570,57.129,66.895,62.500,23.438,0
1484995734.658,69.336,51.270,71.777,77.148,5.859,0
1484995734.662,69.336,67.871,57.617,62.988,22.461,0
1484995734.666,55.176,64.453,50.293,48.340,45.410,0
1484995734.669,48.340,60.059,51.270,55.176,22.461,0
1484995734.673,41.992,83.008,47.363,35.645,14.648,0
1484995734.677,47.852,67.383,57.617,39.551,60.059,0
1484995734.681,68.359,48.828,66.895,64.941,66.895,0
1484995734.685,56.641,78.125,62.500,68.848,42.480,0
1484995734.689,43.945,64.453,61.035,64.453,34.668,0
1484995734.693,65.430,40.527,58.594,67.383,56.152,0
1484995734.697,68.359,61.523,59.570,67.871,45.898,0
1484995734.701,53.711,55.176,60.059,66.406,22.949,0
1484995734.705,48.828,44.922,55.176,61.523,43.945,0
1484995734.708,56.641,59.082,50.781,61.035,56.152,0
1484995734.712,52.246,65.430,57.129,67.383,47.852,0
1484995734.716,57.129,58.594,62.012,75.684,50.781,0
1484995734.720,55.176,70.312,65.430,71.777,42.480,0
1484995734.724,46.387,72.266,59.570,60.059,72.754,0
1484995734.728,51.758,69.336,55.664,62.988,62.500,0
1484995734.732,71.777,70.312,71.289,83.984,31.738,0
1484995734.736,82.031,54.688,65.430,85.938,65.918,0
1484995734.740,65.918,60.547,59.570,65.918,73.730,0
1484995734.744,57.617,50.781,59.570,66.406,49.316,0
1484995734.748,63.965,38.086,56.641,61.523,4.883,0
1484995734.751,60.547,40.039,57.617,59.082,1.465,0
1484995734.755,50.293,43.457,48.340,60.059,36.133,0
1484995734.759,47.852,63.965,44.922,48.340,22.461,0
1484995734.763,60.059,63.965,49.316,50.781,37.109,0
1484995734.767,68.359,62.988,44.922,58.594,70.801,0
1484995734.771,50.293,54.199,50.781,56.641,43.457,0
1484995734.775,38.086,47.852,58.594,64.941,36.133,0
1484995734.779,49.805,78.613,58.594,71.777,50.781,0
1484995734.783,62.988,65.918,61.523,72.266,54.688,0
1484995734.787,46.387,50.293,49.805,62.012,25.879,0
1484995734.791,49.316,43.945,54.199,61.035,9.277,0
1484995734.794,61.523,61.035,58.594,66.406,36.133,0
1484995734.798,61.035,60.059,62.012,77.148,65.430,0
1484995734.802,62.500,48.340,60.547,68.848,61.035,0
1484995734.806,54.688,65.918,52.734,46.387,-9.277,0
1484995734.810,53.711,66.406,58.105,47.852,-4.883,0
1484995734.814,59.570,76.660,59.570,61.035,61.523,0
1484995734.818,53.223,75.195,63.965,68.359,58.105,0
1484995734.822,50.781,63.477,62.988,65.430,-11.719,0
1484995734.826,58.105,61.035,56.152,61.035,-0.977,0
1484995734.830,51.270,58.105,61.035,56.152,34.180,0
1484995734.833,52.246,52.246,63.965,55.664,30.273,0
1484995734.837,48.828,46.875,56.152,45.410,13.672,0
1484995734.841,44.922,47.363,46.387,39.062,8.789,0
1484995734.845,51.758,49.805,48.828,47.852,11.719,0
1484995734.849,52.246,52.734,62.012,56.152,-10.254,0
1484995734.853,50.781,65.430,60.547,58.105,-9.277,0
1484995734.857,51.270,64.941,54.688,62.012,36.621,0
1484995734.861,60.547,63.965,59.570,73.730,44.434,0
1484995734.865,59.082,74.219,58.594,61.523,32.715,0
1484995734.869,62.988,61.035,65.430,50.781,8.301,0
1484995734.873,56.641,67.383,64.941,58.594,27.832,0
1484995734.876,30.273,67.383,49.805,54.199,50.781,0
1484995734.880,38.086,52.246,48.828,57.129,59.082,0
1484995734.884,54.199,58.105,50.781,56.152,42.969,0
