timestamps,TP9,AF7,AF8,TP10,Right AUX,Marker0
1485087409.619,30.273,33.203,39.551,49.805,36.133,0
1485087409.623,30.762,26.855,28.809,41.504,75.684,0
1485087409.627,36.621,26.855,28.809,43.945,70.801,0
1485087409.631,35.645,23.926,32.227,50.293,46.875,0
1485087409.635,41.016,31.250,35.156,57.617,60.059,0
1485087409.639,45.410,35.156,37.109,61.523,42.480,0
1485087409.643,42.480,21.973,29.297,52.246,36.621,0
1485087409.647,44.434,30.762,35.645,55.176,33.691,0
1485087409.651,29.785,35.156,32.715,46.387,9.277,0
1485087409.655,19.043,27.344,20.996,34.180,35.156,0
1485087409.659,22.949,36.133,26.367,47.363,51.270,0
1485087409.662,29.297,28.809,30.273,49.805,40.039,0
1485087409.666,36.133,22.949,26.855,40.039,43.457,0
1485087409.670,29.785,33.691,27.344,38.086,63.477,0
1485087409.674,31.738,38.086,33.203,43.945,55.664,0
1485087409.678,46.387,45.898,35.645,47.363,34.180,0
1485087409.682,41.992,52.246,32.715,46.875,43.945,0
1485087409.686,23.926,47.852,28.809,40.527,40.527,0
1485087409.690,18.555,29.785,22.949,32.227,18.066,0
1485087409.694,23.926,25.391,23.926,36.621,2.441,0
1485087409.698,11.719,16.602,16.602,24.414,12.695,0
1485087409.701,15.625,9.277,19.531,25.879,30.762,0
1485087409.705,36.133,30.273,35.645,40.527,20.996,0
1485087409.709,44.434,47.363,38.086,43.945,15.625,0
1485087409.713,41.016,43.945,32.715,47.852,6.348,0
1485087409.717,40.527,40.527,33.691,51.758,34.180,0
1485087409.721,40.527,38.574,35.156,49.316,36.621,0
1485087409.725,33.203,26.367,23.438,37.598,28.320,0
1485087409.729,42.969,20.020,21.973,42.969,45.898,0
1485087409.733,59.570,40.527,39.551,56.152,28.809,0
1485087409.737,52.246,48.340,47.363,59.570,19.531,0
1485087409.741,48.340,41.992,47.852,58.105,-14.160,0
1485087409.744,51.758,40.039,41.016,50.293,6.348,0
1485087409.748,58.105,34.180,39.062,52.734,49.805,0
1485087409.752,61.035,34.668,39.551,52.734,40.039,0
1485087409.756,45.898,37.598,31.738,44.434,33.691,0
1485087409.760,37.109,33.691,29.297,43.457,67.383,0
1485087409.764,49.316,41.016,41.992,57.129,42.480,0
1485087409.768,44.922,38.574,35.645,50.781,-14.648,0
1485087409.772,36.621,30.273,29.297,38.086,8.789,0
1485087409.776,40.527,31.738,37.109,40.039,27.832,0
1485087409.780,52.734,34.668,38.574,44.922,21.973,0
1485087409.784,46.387,33.691,39.062,44.922,23.438,0
1485087409.787,23.926,18.066,31.738,34.668,14.648,0
1485087409.791,26.855,19.043,29.297,28.809,24.902,0
1485087409.795,38.086,41.504,34.668,37.109,1.953,0
1485087409.799,34.180,45.898,34.180,38.574,16.113,0
1485087409.803,31.738,30.762,32.227,35.645,55.664,0
1485087409.807,40.039,29.785,41.992,45.898,22.461,0
1485087409.811,35.645,32.227,39.551,42.969,19.043,0
1485087409.815,33.203,30.273,28.320,32.227,58.594,0
1485087409.819,30.273,27.344,30.762,35.156,63.477,0
1485087409.823,23.438,32.715,26.855,37.598,46.387,0
1485087409.826,24.902,43.945,28.320,41.016,42.969,0
1485087409.830,22.461,38.574,26.855,34.668,34.668,0
1485087409.834,24.902,21.973,24.414,27.344,52.246,0
1485087409.838,36.621,20.996,38.086,40.527,63.477,0
1485087409.842,38.574,38.086,37.598,50.293,38.086,0
1485087409.846,34.668,41.016,27.344,50.293,31.250,0
1485087409.850,40.039,36.621,33.691,56.641,21.973,0
1485087409.854,38.574,38.574,42.480,64.941,17.090,0
1485087409.858,31.250,36.621,41.504,61.523,35.645,0
1485087409.862,24.902,16.113,32.715,54.199,35.156,0
1485087409.866,37.109,12.695,32.227,55.664,22.949,0
1485087409.869,46.875,38.086,41.992,62.988,36.621,0
1485087409.873,45.410,62.012,45.410,65.430,20.020,0
1485087409.877,39.551,56.152,38.086,56.641,-3.418,0
1485087409.881,38.574,38.574,40.527,58.105,23.438,0
1485087409.885,47.852,47.852,48.340,66.895,37.598,0
1485087409.889,34.180,41.992,35.156,54.688,-4.883,0
1485087409.893,31.250,24.414,28.320,41.016,-30.762,0
1485087409.897,40.527,29.297,35.156,45.898,13.672,0
1485087409.901,34.180,34.668,39.551,51.758,30.273,0
1485087409.905,27.832,23.438,34.668,43.945,19.531,0
1485087409.909,26.367,27.344,27.344,34.180,17.090,0
1485087409.912,36.133,39.551,35.645,38.086,18.066,0
1485087409.916,44.434,32.227,40.527,49.316,8.789,0
1485087409.920,50.781,34.668,43.457,55.176,28.320,0
1485087409.924,40.039,35.156,41.504,48.340,45.898,0
1485087409.928,25.391,28.809,28.809,41.992,20.996,0
1485087409.932,37.109,31.738,34.668,50.781,25.391,0
1485087409.936,47.852,20.996,39.062,49.805,24.902,0
1485087409.940,45.410,12.695,38.574,45.410,49.316,0
1485087409.944,40.527,17.578,43.945,55.664,59.570,0
1485087409.948,41.504,33.203,47.852,60.059,1.953,0
1485087409.951,36.621,40.039,49.316,54.688,-3.418,0
1485087409.955,30.273,36.133,48.340,53.223,51.270,0
1485087409.959,37.598,40.527,52.734,58.594,82.520,0
1485087409.963,47.852,47.363,54.688,64.453,47.852,0
1485087409.967,41.992,44.434,53.711,65.430,36.133,0
1485087409.971,33.203,30.273,50.293,60.059,35.156,0
1485087409.975,39.062,22.461,51.758,65.430,21.973,0
1485087409.979,44.922,31.250,58.105,73.242,13.184,0
1485087409.983,35.156,33.203,48.340,60.059,34.180,0
1485087409.987,38.086,33.691,43.457,61.523,68.848,0
1485087409.991,41.992,22.949,46.875,65.918,49.316,0
1485087409.994,41.992,19.531,48.828,63.965,24.902,0
1485087409.998,48.828,25.391,42.480,60.547,25.879,0
1485087410.002,44.922,27.832,38.574,60.059,37.109,0
1485087410.006,40.527,23.438,42.969,65.430,40.039,0
1485087410.010,42.969,26.855,39.551,60.059,15.137,0
1485087410.014,42.480,36.621,36.621,60.547,-0.977,0
1485087410.018,38.086,27.832,36.621,62.012,27.832,0
1485087410.022,42.480,26.855,41.016,64.453,24.902,0
1485087410.026,46.387,26.367,43.457,65.430,-16.602,0
1485087410.030,45.410,14.648,37.598,62.500,17.090,0
1485087410.034,53.223,28.809,44.434,71.777,21.973,0
1485087410.037,45.410,40.527,46.387,69.336,-4.395,0
1485087410.041,44.434,33.691,44.922,61.523,30.762,0
1485087410.045,49.805,34.668,43.457,58.105,36.133,0
1485087410.049,43.945,43.457,44.922,53.711,15.137,0
1485087410.053,38.574,41.992,43.457,53.711,18.066,0
1485087410.057,38.574,35.156,44.922,52.734,34.668,0
1485087410.061,41.016,31.250,47.363,49.805,30.762,0
1485087410.065,44.922,39.551,41.016,55.664,34.668,0
1485087410.069,45.898,48.828,40.527,63.477,41.016,0
1485087410.073,34.180,34.668,31.250,54.199,41.016,0
1485087410.076,35.645,42.480,28.320,48.340,45.898,0
1485087410.080,45.410,51.758,45.410,61.035,27.344,0
1485087410.084,37.109,42.480,43.945,59.082,39.551,0
1485087410.088,28.809,30.273,36.133,48.828,53.223,0
1485087410.092,37.109,32.715,43.457,52.734,45.898,0
1485087410.096,35.645,38.574,46.387,56.641,31.738,0
1485087410.100,36.621,40.039,50.781,56.641,10.742,0
1485087410.104,43.457,41.016,52.246,53.711,39.551,0
1485087410.108,40.527,34.668,51.270,55.664,46.387,0
1485087410.112,33.691,33.203,49.805,52.734,5.371,0
1485087410.116,35.645,35.645,46.875,48.340,29.297,0
1485087410.119,46.875,37.109,50.781,54.688,53.223,0
1485087410.123,49.316,36.133,57.617,63.477,19.043,0
1485087410.127,47.363,29.297,61.523,65.430,-4.883,0
1485087410.131,42.969,28.320,50.293,60.547,-1.465,0
1485087410.135,41.992,46.387,42.969,57.617,30.273,0
1485087410.139,47.852,50.293,49.316,54.199,35.645,0
1485087410.143,41.016,38.086,48.828,51.758,20.996,0
1485087410.147,36.621,39.062,47.363,53.223,13.184,0
1485087410.151,46.875,48.828,57.617,62.012,13.184,0
1485087410.155,52.734,64.941,61.035,67.871,19.531,0
1485087410.159,52.246,58.594,56.152,58.105,2.441,0
1485087410.162,57.129,41.016,54.199,56.152,11.719,0
1485087410.166,61.035,54.688,58.594,63.477,60.547,0
1485087410.170,51.270,62.500,54.199,52.246,52.734,0
1485087410.174,37.598,54.688,41.992,40.039,49.316,0
1485087410.178,40.039,66.406,42.969,43.457,57.617,0
1485087410.182,52.246,67.871,47.852,44.922,16.602,0
1485087410.186,54.199,58.594,49.316,44.434,10.742,0
1485087410.190,40.039,52.734,48.340,44.922,57.617,0
1485087410.194,40.527,49.805,49.805,50.293,43.945,0
1485087410.198,45.410,55.664,53.223,51.758,22.461,0
1485087410.201,43.945,47.363,57.617,52.734,27.344,0
1485087410.205,38.574,27.832,49.316,49.805,23.926,0
1485087410.209,31.250,40.527,39.062,39.551,35.156,0
1485087410.213,32.715,55.664,45.410,40.527,34.668,0
1485087410.217,29.785,44.434,48.828,43.945,36.621,1
1485087410.221,28.320,26.367,42.969,39.551,29.785,0
1485087410.225,36.133,21.973,41.992,41.504,40.527,0
1485087410.229,38.086,37.598,49.805,52.246,24.902,0
1485087410.233,33.691,40.039,48.828,49.805,24.902,0
1485087410.237,24.414,36.621,42.480,47.363,32.715,0
1485087410.241,20.996,22.949,38.574,46.387,29.785,0
1485087410.244,26.367,25.879,39.551,40.039,40.527,0
1485087410.248,22.949,37.109,37.109,40.527,13.672,0
1485087410.252,13.672,13.672,27.832,32.715,34.668,0
1485087410.256,25.879,4.395,26.855,30.273,66.406,0
1485087410.260,37.109,26.855,37.109,42.480,47.363,0
1485087410.264,44.434,38.574,45.410,53.711,30.273,0
1485087410.268,45.410,28.809,38.574,50.781,53.223,0
1485087410.272,34.668,35.156,39.551,48.340,39.062,0
1485087410.276,31.738,37.598,41.504,45.898,17.090,0
1485087410.280,38.574,33.691,41.504,48.340,19.043,0
1485087410.284,46.875,45.410,43.457,57.129,39.551,0
1485087410.287,46.387,44.434,46.387,61.035,71.289,0
1485087410.291,42.480,33.203,43.945,55.664,34.180,0
1485087410.295,45.898,34.668,42.480,56.152,1.953,0
1485087410.299,44.434,29.297,46.387,59.570,29.785,0
1485087410.303,43.457,16.113,45.898,56.152,41.992,0
1485087410.307,57.617,42.480,57.617,69.336,51.270,0
1485087410.311,52.246,59.082,56.152,69.824,25.879,0
1485087410.315,39.062,49.316,43.945,52.734,44.922,0
1485087410.319,39.551,49.316,53.711,57.129,72.266,0
1485087410.323,36.133,46.387,53.223,58.594,53.711,0
1485087410.326,38.574,40.039,48.828,55.176,41.016,0
1485087410.330,37.598,20.996,45.410,52.246,53.711,0
1485087410.334,38.574,31.250,53.223,61.035,69.824,0
1485087410.338,31.738,43.457,48.828,59.082,35.645,0
1485087410.342,27.832,32.227,32.227,42.480,26.855,0
1485087410.346,40.527,29.785,36.621,44.922,31.250,0
1485087410.350,43.457,36.133,44.434,54.688,6.348,0
1485087410.354,31.250,34.668,43.945,49.316,11.230,0
1485087410.358,24.902,23.438,36.133,34.668,9.766,0
1485087410.362,30.762,21.973,36.133,34.668,13.184,0
1485087410.366,37.109,25.879,43.457,45.410,24.902,0
1485087410.369,33.691,26.855,41.504,44.434,23.926,0
1485087410.373,29.297,23.926,34.668,35.645,50.293,0
1485087410.377,38.574,28.809,38.086,40.039,65.430,0
1485087410.381,44.434,32.227,41.504,42.969,66.406,0
1485087410.385,48.828,31.738,48.828,51.758,50.781,0
1485087410.389,46.875,30.762,47.363,53.223,28.809,0
1485087410.393,48.340,26.367,42.969,50.293,53.223,0
1485087410.397,56.152,21.973,54.199,62.012,39.551,0
1485087410.401,43.457,19.043,47.852,58.105,20.508,0
1485087410.405,36.133,24.414,35.156,52.246,66.406,0
1485087410.409,41.992,41.504,43.457,55.176,74.707,0
1485087410.412,48.340,52.246,55.176,58.594,33.203,0
1485087410.416,51.270,50.781,59.570,61.035,28.809,0
1485087410.420,45.898,44.922,53.711,58.105,53.223,0
1485087410.424,48.828,34.180,53.711,61.523,37.598,0
1485087410.428,58.105,34.668,55.176,55.664,2.930,0
1485087410.432,60.547,48.340,53.711,54.688,12.207,0
1485087410.436,65.430,46.875,58.105,58.105,51.270,0
1485087410.440,62.988,39.551,52.246,52.734,57.617,0
1485087410.444,50.781,42.480,43.457,52.734,19.043,0
1485087410.448,49.805,38.574,44.922,56.641,9.766,0
1485087410.451,56.641,43.945,55.176,62.012,54.199,0
1485087410.455,54.199,46.387,59.570,66.406,54.688,0
1485087410.459,43.945,39.062,53.711,58.594,29.297,0
1485087410.463,38.574,40.527,48.828,50.781,40.527,0
1485087410.467,37.598,37.109,47.852,52.734,63.965,0
1485087410.471,41.504,39.062,44.922,52.734,71.289,0
1485087410.475,47.852,41.016,41.504,51.758,68.848,0
1485087410.479,51.270,43.945,40.527,46.875,50.293,0
1485087410.483,48.340,49.805,48.828,47.363,52.246,0
1485087410.487,41.504,42.480,49.805,49.316,44.434,0
1485087410.491,33.203,36.621,38.574,37.109,18.066,0
1485087410.494,30.273,30.762,32.715,28.320,42.480,0
1485087410.498,37.109,35.156,41.992,39.551,48.828,0
1485087410.502,33.691,42.480,42.480,41.992,31.738,0
1485087410.506,25.879,34.668,28.809,31.250,39.551,0
1485087410.510,34.180,29.297,28.809,30.273,77.148,0
1485087410.514,42.969,23.438,40.527,40.039,36.133,0
1485087410.518,40.039,24.414,44.922,44.922,9.277,0
1485087410.522,28.809,35.645,39.551,37.109,58.105,0
1485087410.526,23.926,29.785,38.574,35.645,60.059,0
1485087410.530,31.250,30.273,44.922,43.945,40.039,0
1485087410.534,30.762,37.598,41.504,41.504,15.625,0
1485087410.537,27.344,32.715,31.738,34.180,12.207,0
1485087410.541,32.715,25.879,28.320,35.156,62.988,0
1485087410.545,41.504,24.414,38.574,44.922,51.758,0
1485087410.549,46.875,39.551,43.945,48.340,31.250,0
1485087410.553,41.992,36.621,35.645,47.852,44.922,0
1485087410.557,39.551,40.527,41.016,48.340,48.340,0
1485087410.561,46.387,52.246,49.805,45.898,55.664,0
1485087410.565,46.875,45.410,48.340,49.805,70.312,0
1485087410.569,43.945,36.133,46.875,54.688,53.223,0
1485087410.573,41.992,38.574,51.758,55.176,48.340,0
1485087410.576,45.898,45.898,53.711,57.617,32.227,0
1485087410.580,43.457,41.504,44.922,55.176,8.301,0
1485087410.584,40.527,35.156,41.016,48.340,27.344,0
1485087410.588,48.340,42.969,47.852,53.223,33.203,0
1485087410.592,40.527,41.016,46.387,47.363,20.020,0
1485087410.596,33.691,34.180,42.969,44.922,37.109,0
1485087410.600,44.434,38.086,41.504,52.734,54.199,0
1485087410.604,43.457,31.250,42.480,48.828,48.340,0
1485087410.608,32.715,16.113,39.062,39.551,57.617,0
1485087410.612,35.156,25.391,35.645,36.621,62.012,0
1485087410.616,34.668,26.367,39.551,39.551,48.828,0
1485087410.619,34.180,20.020,41.016,45.410,30.762,0
1485087410.623,40.039,26.855,44.434,50.293,41.016,0
1485087410.627,41.504,31.738,45.410,52.734,38.086,0
1485087410.631,36.133,22.949,42.969,48.828,46.875,0
1485087410.635,41.016,31.250,51.758,53.711,38.574,0
1485087410.639,41.504,39.551,49.805,57.129,21.973,0
1485087410.643,38.086,29.785,40.039,50.293,38.574,0
1485087410.647,45.898,34.180,42.480,54.688,29.297,0
1485087410.651,45.898,41.016,46.387,60.547,27.832,0
1485087410.655,46.387,43.457,55.664,66.406,27.344,0
1485087410.659,49.805,35.645,55.176,61.523,36.133,0
1485087410.662,45.898,42.480,56.641,61.523,41.992,0
1485087410.666,46.875,40.527,61.523,67.871,42.969,0
1485087410.670,45.898,34.668,60.059,67.871,50.781,0
1485087410.674,39.551,37.598,51.758,56.641,37.109,0
1485087410.678,48.828,35.156,45.410,50.293,49.316,0
1485087410.682,52.734,44.434,52.734,60.059,49.805,0
1485087410.686,51.270,46.875,46.875,59.570,27.832,0
1485087410.690,52.246,42.969,39.062,56.641,59.082,0
1485087410.694,51.758,36.621,48.828,62.500,64.941,0
1485087410.698,53.711,38.086,54.199,65.918,23.438,0
1485087410.701,52.734,46.875,60.059,67.383,27.344,0
1485087410.705,52.734,53.223,63.477,66.406,55.664,0
1485087410.709,58.594,60.059,60.547,66.895,41.992,0
1485087410.713,53.223,47.852,56.152,60.059,22.461,0
1485087410.717,41.504,37.109,50.781,53.223,40.039,0
1485087410.721,42.969,44.922,53.711,53.711,46.387,0
1485087410.725,50.293,41.016,58.105,54.688,54.199,0
1485087410.729,47.852,27.344,55.176,56.152,22.949,0
1485087410.733,38.574,27.832,47.363,48.340,30.273,0
1485087410.737,35.156,35.645,51.270,48.828,63.477,0
1485087410.741,44.922,37.109,51.270,52.734,23.926,0
1485087410.744,51.758,30.762,43.457,53.711,11.719,0
1485087410.748,48.828,31.250,41.992,51.270,49.316,0
1485087410.752,46.875,32.715,44.434,52.246,57.617,0
1485087410.756,43.945,20.996,42.480,50.293,35.156,0
1485087410.760,47.363,24.414,43.945,54.688,31.250,0
1485087410.764,49.805,34.668,50.293,61.035,13.672,0
1485087410.768,49.316,32.227,49.805,54.688,32.227,0
1485087410.772,46.387,28.320,53.223,56.641,30.273,0
1485087410.776,37.598,13.184,41.992,49.805,-2.441,0
1485087410.780,40.039,17.090,33.203,45.898,1.465,0
1485087410.784,42.969,42.969,38.086,54.199,25.879,0
1485087410.787,39.551,51.270,42.480,53.223,40.039,0
1485087410.791,39.551,46.387,44.922,50.293,20.996,0
1485087410.795,38.574,30.762,40.039,47.852,41.992,0
1485087410.799,43.945,27.344,40.039,49.316,50.293,0
1485087410.803,44.434,34.180,44.434,51.758,26.367,0
1485087410.807,40.527,24.902,43.945,51.758,27.344,0
1485087410.811,41.016,19.043,39.062,45.410,13.672,0
1485087410.815,41.504,23.926,41.016,44.434,0.977,0
1485087410.819,41.504,33.691,49.316,59.570,4.395,0
1485087410.823,33.203,30.762,38.086,53.711,27.832,0
1485087410.826,43.457,28.809,37.109,53.223,42.480,0
1485087410.830,47.363,24.902,47.363,62.988,35.156,0
1485087410.834,44.922,23.926,50.293,59.570,16.602,0
1485087410.838,45.898,26.855,50.293,58.594,23.926,0
1485087410.842,45.410,29.785,48.340,54.688,49.805,0
1485087410.846,46.387,28.320,50.781,53.711,31.738,0
1485087410.850,41.504,20.508,52.734,53.223,3.418,0
1485087410.854,37.598,15.137,48.828,46.387,33.691,0
1485087410.858,46.875,22.949,56.641,54.199,36.621,0
1485087410.862,56.641,26.367,66.406,63.477,17.578,0
1485087410.866,44.434,20.020,61.523,57.617,6.836,0
1485087410.869,36.133,13.672,54.199,50.293,-6.836,0
1485087410.873,37.598,10.742,55.664,50.781,25.391,0
1485087410.877,34.180,6.348,50.781,48.340,26.367,0
1485087410.881,37.598,1.953,44.922,45.410,3.906,0
1485087410.885,35.156,1.465,45.410,46.875,42.480,0
1485087410.889,33.691,8.301,47.852,45.410,26.367,0
1485087410.893,26.367,8.301,44.434,38.086,-6.348,0
1485087410.897,27.832,17.090,47.852,37.598,-2.930,0
1485087410.901,33.203,26.367,52.734,40.527,21.484,0
1485087410.905,39.062,25.879,59.082,48.828,42.969,0
1485087410.909,43.457,21.484,57.617,49.805,28.809,0
1485087410.912,46.875,25.391,55.176,45.410,32.227,0
1485087410.916,56.152,32.715,57.129,48.340,48.828,0
1485087410.920,52.246,41.016,58.594,56.641,33.691,0
1485087410.924,44.922,32.715,59.570,54.199,9.766,0
1485087410.928,40.527,7.812,50.293,43.945,30.762,0
1485087410.932,52.246,22.949,53.223,52.246,18.555,0
1485087410.936,59.082,41.504,60.547,57.617,1.465,0
1485087410.940,51.758,36.133,57.617,53.711,-3.906,0
1485087410.944,44.922,29.785,46.875,45.898,7.812,0
1485087410.948,40.527,31.250,43.457,45.898,26.855,0
1485087410.951,46.875,32.227,51.270,54.199,1.465,0
1485087410.955,49.316,24.902,50.781,52.734,-3.906,0
1485087410.959,33.691,20.020,41.504,44.434,-13.672,0
1485087410.963,42.969,27.832,43.945,47.852,-15.137,0
1485087410.967,52.246,39.062,54.688,58.105,8.789,0
1485087410.971,49.805,43.945,57.129,61.523,29.297,0
1485087410.975,55.176,51.270,55.176,63.965,44.434,0
1485087410.979,56.152,47.852,56.641,68.359,9.277,0
1485087410.983,55.664,45.898,59.082,71.777,-18.066,0
1485087410.987,49.316,43.457,49.805,65.430,18.066,0
1485087410.991,43.945,37.598,41.992,55.664,42.969,0
1485087410.994,49.316,44.922,42.480,59.082,33.203,0
1485087410.998,55.176,45.410,46.387,62.012,10.254,0
1485087411.002,48.828,32.227,48.828,65.430,9.277,0
1485087411.006,47.363,24.902,52.734,69.824,36.133,0
1485087411.010,56.641,41.504,68.359,78.613,16.113,0
1485087411.014,56.641,46.387,79.590,82.031,-12.695,0
1485087411.018,37.598,34.180,61.035,60.547,17.090,0
1485087411.022,24.902,34.180,48.340,51.758,56.152,0
1485087411.026,32.715,41.016,56.152,56.152,45.410,0
1485087411.030,39.062,41.504,55.176,52.246,1.465,0
1485087411.034,33.691,38.574,50.781,46.875,19.043,0
1485087411.037,31.738,39.062,57.129,48.340,49.805,0
1485087411.041,26.367,26.855,52.734,46.875,12.695,0
1485087411.045,28.809,30.762,52.246,48.828,-1.953,0
1485087411.049,31.250,39.551,52.734,48.828,0.977,0
1485087411.053,18.066,27.832,39.062,42.969,28.320,0
1485087411.057,18.555,28.320,39.551,48.340,25.879,0
1485087411.061,22.949,26.367,38.574,45.898,-19.531,0
1485087411.065,31.250,21.973,36.621,43.457,-4.883,0
1485087411.069,43.457,24.414,44.922,53.223,17.090,0
1485087411.073,41.504,18.066,41.504,46.875,12.695,0
1485087411.076,41.016,10.742,33.203,36.621,26.367,0
1485087411.080,33.691,13.184,29.785,31.250,37.598,0
1485087411.084,27.344,27.344,41.016,39.551,21.973,0
1485087411.088,30.762,33.691,46.875,49.316,13.672,0
1485087411.092,26.855,26.855,42.480,45.898,13.672,0
1485087411.096,22.461,21.973,41.504,44.434,27.832,0
1485087411.100,33.203,33.203,55.176,59.082,32.227,0
1485087411.104,32.715,31.738,56.641,60.547,25.879,0
1485087411.108,25.391,15.625,40.527,47.363,7.324,0
1485087411.112,36.133,25.879,47.852,53.711,6.348,0
1485087411.116,42.480,35.156,58.105,63.477,26.855,0
1485087411.119,37.598,35.645,54.688,60.547,26.367,0
1485087411.123,41.992,39.551,52.246,58.105,15.137,0
1485087411.127,50.781,43.457,55.176,65.430,17.090,0
1485087411.131,52.246,40.527,55.176,66.406,-1.953,0
1485087411.135,51.270,35.645,54.199,62.988,-20.996,0
1485087411.139,37.109,34.180,45.410,53.223,22.461,0
1485087411.143,27.832,33.203,38.574,45.898,18.066,0
1485087411.147,47.852,35.156,46.875,53.223,-27.832,0
1485087411.151,42.969,20.996,43.945,51.758,-4.395,0
1485087411.155,30.273,8.301,37.109,43.945,43.945,0
1485087411.159,41.992,24.902,50.781,50.293,41.992,0
1485087411.162,49.805,30.762,52.246,60.547,15.137,0
1485087411.166,42.969,25.879,41.016,58.594,14.648,0
1485087411.170,36.133,16.113,45.898,56.152,41.016,0
1485087411.174,51.270,14.648,57.617,70.312,49.805,0
1485087411.178,56.641,28.809,58.105,73.730,54.688,0
1485087411.182,50.293,35.645,57.129,69.824,38.574,0
1485087411.186,57.129,33.691,63.477,80.566,23.926,0
1485087411.190,53.223,31.250,65.918,87.402,30.273,0
1485087411.194,43.945,26.367,54.688,80.078,11.719,0
1485087411.198,40.039,10.742,49.805,71.777,19.531,0
1485087411.201,45.898,16.113,55.176,77.637,61.035,0
1485087411.205,48.340,27.344,51.270,85.938,37.109,0
1485087411.209,48.340,24.902,47.852,82.031,1.953,0
1485087411.213,44.434,17.578,39.551,66.406,24.414,0
1485087411.217,36.621,13.672,35.645,60.059,52.734,0
1485087411.221,31.738,17.090,36.133,59.082,27.832,0
1485087411.225,28.320,12.695,36.133,53.711,16.113,0
1485087411.229,27.832,9.766,38.086,47.363,9.766,0
1485087411.233,31.250,12.207,40.039,50.293,6.348,0
1485087411.237,35.156,10.742,40.527,52.734,-2.930,0
1485087411.241,29.297,12.207,32.227,46.875,-11.230,0
1485087411.244,14.648,11.230,25.391,39.062,-9.277,0
1485087411.248,21.973,16.113,37.598,45.410,-3.906,0
1485087411.252,43.457,31.250,50.293,63.477,8.789,0
1485087411.256,38.574,20.020,43.457,54.688,-0.488,0
1485087411.260,31.738,6.348,34.668,41.992,31.738,0
1485087411.264,42.969,15.625,39.551,54.199,9.766,0
1485087411.268,47.363,20.508,42.480,62.012,0.977,0
1485087411.272,38.086,26.367,35.645,49.805,40.527,0
1485087411.276,33.691,27.832,32.227,44.922,45.410,0
1485087411.280,39.551,33.691,40.527,56.641,21.973,0
1485087411.284,35.645,32.227,41.504,53.223,4.883,0
1485087411.287,27.832,20.996,36.621,44.434,16.602,0
1485087411.291,33.691,14.160,39.551,47.852,31.250,0
1485087411.295,46.387,23.926,44.434,57.129,30.273,0
1485087411.299,47.363,34.180,45.410,62.500,46.875,0
1485087411.303,38.574,23.926,41.016,60.059,65.918,0
1485087411.307,41.504,19.531,37.598,57.129,43.457,0
1485087411.311,40.527,29.297,39.551,58.594,4.883,0
1485087411.315,29.785,30.762,37.598,54.199,9.766,0
1485087411.319,23.926,24.414,32.227,45.898,27.832,0
1485087411.323,26.855,11.719,23.926,37.598,31.250,0
1485087411.326,39.062,12.207,27.344,53.711,28.320,0
1485087411.330,38.574,12.207,30.273,59.082,-9.277,0
1485087411.334,30.762,3.906,22.949,47.852,28.809,0
1485087411.338,34.180,21.484,29.297,57.129,67.383,0
1485087411.342,36.133,30.762,34.668,56.152,29.785,0
1485087411.346,26.367,25.879,32.715,45.410,6.836,0
1485087411.350,20.996,26.855,27.832,41.016,41.504,0
1485087411.354,22.461,21.973,26.855,41.992,87.402,0
1485087411.358,31.738,17.578,31.738,45.410,95.215,0
1485087411.362,35.156,26.367,35.156,49.316,49.316,0
1485087411.366,36.621,28.320,39.551,51.758,47.363,0
1485087411.369,41.504,27.832,43.945,55.176,69.336,0
1485087411.373,41.016,41.016,45.410,56.152,55.664,0
1485087411.377,37.109,22.461,38.086,48.340,31.738,0
1485087411.381,35.645,6.836,38.574,47.852,35.645,0
1485087411.385,38.086,36.621,53.711,58.105,43.457,0
1485087411.389,28.809,36.133,46.387,52.246,22.949,0
1485087411.393,26.855,26.367,26.367,40.527,37.598,0
1485087411.397,45.898,26.367,38.086,56.641,25.391,0
1485087411.401,48.828,13.672,45.898,62.988,22.461,0
1485087411.405,37.598,22.461,38.574,50.781,45.410,0
1485087411.409,23.926,32.715,34.668,40.039,31.738,0
1485087411.412,24.902,29.297,37.598,38.574,28.809,0
1485087411.416,24.414,30.273,39.551,42.969,42.969,0
1485087411.420,23.438,32.715,38.086,45.898,23.926,0
1485087411.424,26.367,22.949,35.156,42.969,43.457,0
1485087411.428,30.273,16.602,34.668,41.016,54.688,0
1485087411.432,37.109,31.250,44.922,51.270,22.949,0
1485087411.436,35.645,29.297,41.992,53.711,9.277,0
1485087411.440,30.273,7.324,32.715,44.434,35.645,0
1485087411.444,41.504,21.484,49.805,60.059,48.340,0
1485087411.448,41.504,43.457,60.547,71.777,10.742,0
1485087411.451,33.203,40.039,53.223,63.965,20.020,0
1485087411.455,36.621,31.738,53.711,62.988,73.242,0
1485087411.459,37.598,28.809,57.617,61.035,37.598,0
1485087411.463,46.387,31.250,53.711,67.871,20.996,0
1485087411.467,46.875,32.715,47.852,72.754,41.504,0
1485087411.471,36.133,15.137,45.898,67.871,40.039,2
1485087411.475,40.527,15.625,52.246,71.289,39.551,0
1485087411.479,40.527,32.715,52.246,66.895,9.766,0
1485087411.483,21.484,29.785,36.133,51.270,37.598,0
1485087411.487,24.414,34.180,41.504,57.129,70.801,0
1485087411.491,40.039,32.715,54.199,65.918,31.250,0
1485087411.494,43.945,26.367,48.828,62.988,10.254,0
1485087411.498,37.109,29.785,38.574,56.152,19.531,0
1485087411.502,34.180,29.297,43.457,56.641,59.570,0
1485087411.506,36.621,29.785,49.316,59.570,51.758,0
1485087411.510,25.391,21.484,40.527,54.688,5.859,0
1485087411.514,21.484,14.648,39.062,51.758,16.113,0
1485087411.518,31.738,14.160,42.969,51.758,43.457,0
1485087411.522,43.457,24.414,50.293,65.918,37.109,0
1485087411.526,26.855,17.578,39.062,56.641,9.766,0
1485087411.530,27.344,-8.301,26.855,46.387,48.340,0
1485087411.534,46.387,0.977,45.898,68.848,44.922,0
1485087411.537,34.180,17.578,46.387,64.453,43.945,0
1485087411.541,22.949,15.137,35.645,48.340,64.453,0
1485087411.545,28.809,15.137,35.156,47.852,50.781,0
1485087411.549,41.016,27.344,46.387,62.012,31.738,0
1485087411.553,47.852,12.207,45.898,63.965,38.574,0
1485087411.557,46.875,-9.766,35.156,57.617,61.035,0
1485087411.561,48.340,-16.602,40.527,61.523,56.641,0
1485087411.565,41.992,-20.996,46.875,63.965,32.715,0
1485087411.569,39.062,-7.812,41.992,57.617,28.320,0
1485087411.573,43.457,-1.953,43.457,62.012,34.180,0
1485087411.576,45.898,-6.836,48.340,66.895,26.367,0
1485087411.580,48.340,-2.930,56.641,72.754,-2.441,0
1485087411.584,43.945,2.930,61.523,70.801,-17.090,0
1485087411.588,48.340,-11.719,57.617,61.035,3.906,0
1485087411.592,59.082,-19.043,62.500,72.266,-4.883,0
1485087411.596,45.898,-8.789,59.570,68.848,-19.043,0
1485087411.600,32.227,-10.254,46.387,53.711,9.766,0
1485087411.604,34.180,-10.254,44.922,54.199,23.926,0
1485087411.608,43.457,-3.906,51.270,54.199,0.488,0
1485087411.612,45.410,-5.859,50.781,49.316,-7.812,0
1485087411.616,41.504,-8.301,50.781,49.316,3.418,0
1485087411.619,25.879,-19.531,45.898,44.434,31.738,0
1485087411.623,37.598,-20.508,53.711,51.270,39.551,0
1485087411.627,44.922,0.488,56.152,58.105,2.441,0
1485087411.631,30.273,9.277,49.805,54.688,15.625,0
1485087411.635,31.738,-1.953,48.828,55.664,25.391,0
1485087411.639,39.551,-7.812,49.316,56.641,37.109,0
1485087411.643,42.969,-2.930,48.828,52.246,36.621,0
1485087411.647,31.738,3.418,47.852,44.922,18.066,0
1485087411.651,26.855,5.371,51.758,47.852,17.578,0
1485087411.655,35.156,2.930,65.430,60.059,26.855,0
1485087411.659,37.598,-2.441,70.801,69.824,9.766,0
1485087411.662,30.273,-18.555,57.129,65.918,-5.859,0
1485087411.666,33.691,-22.949,62.500,64.453,13.184,0
1485087411.670,37.109,-17.090,70.312,70.801,15.137,0
1485087411.674,30.273,-29.297,58.594,64.941,14.648,0
1485087411.678,26.855,-54.199,45.898,55.664,20.508,0
1485087411.682,31.738,-40.039,47.852,59.570,30.762,0
1485087411.686,24.902,-19.531,54.199,57.129,33.691,0
1485087411.690,27.832,-15.137,58.105,62.012,41.504,0
1485087411.694,33.691,-31.738,61.523,67.871,66.406,0
1485087411.698,33.691,-36.621,62.012,68.359,62.012,0
1485087411.701,33.691,-1.953,63.477,73.242,23.438,0
1485087411.705,27.344,3.906,62.012,67.383,13.672,0
1485087411.709,28.809,-11.719,60.059,60.547,17.578,0
1485087411.713,30.273,-18.555,57.617,59.082,26.855,0
1485087411.717,31.738,-9.277,64.453,62.012,30.273,0
1485087411.721,30.762,-15.137,62.500,56.152,5.859,0
1485087411.725,34.668,-14.160,52.734,57.617,42.480,0
1485087411.729,36.133,7.812,61.523,63.965,73.730,0
1485087411.733,23.926,-1.953,57.129,55.664,64.941,0
1485087411.737,23.926,-11.719,45.410,51.270,48.828,0
1485087411.741,24.414,6.836,45.410,50.293,39.551,0
1485087411.744,25.879,15.137,47.363,44.922,46.387,0
1485087411.748,22.949,8.301,44.434,38.574,42.969,0
1485087411.752,20.020,8.301,41.504,40.527,45.898,0
1485087411.756,16.602,-2.930,39.551,40.039,47.852,0
1485087411.760,19.531,-0.977,42.480,40.527,43.945,0
1485087411.764,20.508,14.160,44.922,43.457,26.855,0
1485087411.768,14.648,11.230,38.086,38.086,56.641,0
1485087411.772,25.391,14.648,35.645,42.969,88.867,0
1485087411.776,27.832,19.043,34.668,42.969,45.410,0
1485087411.780,16.113,16.113,30.762,36.133,14.160,0
1485087411.784,20.020,11.719,32.715,36.133,35.645,0
1485087411.787,26.855,7.324,43.945,42.969,66.406,0
1485087411.791,22.949,4.395,39.062,38.574,56.641,0
1485087411.795,26.855,11.230,29.785,33.691,19.531,0
1485087411.799,24.902,15.625,29.297,37.598,42.969,0
1485087411.803,24.414,16.602,32.227,42.969,76.172,0
1485087411.807,24.414,20.996,41.992,51.270,48.340,0
1485087411.811,20.996,20.996,43.945,47.852,45.898,0
1485087411.815,30.762,18.555,42.969,45.898,82.520,0
1485087411.819,29.297,19.531,41.504,45.410,72.266,0
1485087411.823,24.902,17.578,37.109,39.062,69.336,0
1485087411.826,29.785,21.484,35.156,42.480,50.293,0
1485087411.830,29.297,27.344,33.691,39.062,43.945,0
1485087411.834,29.785,38.086,41.016,44.922,61.523,0
1485087411.838,27.832,39.551,42.480,50.293,61.035,0
1485087411.842,26.367,31.738,40.527,42.969,60.059,0
1485087411.846,33.203,35.156,38.574,38.574,36.621,0
1485087411.850,42.480,53.711,41.016,42.480,56.152,0
1485087411.854,46.875,62.500,45.898,40.039,56.641,0
1485087411.858,44.434,42.480,33.691,24.902,29.297,0
1485087411.862,54.199,56.152,34.180,28.809,43.457,0
1485087411.866,57.617,78.613,41.016,34.668,35.156,0
1485087411.869,43.945,87.402,43.457,34.668,67.383,0
1485087411.873,41.992,77.637,41.992,41.504,85.938,0
1485087411.877,44.434,62.988,38.086,43.945,48.340,0
1485087411.881,35.645,79.590,31.738,38.574,61.035,0
1485087411.885,35.156,93.262,36.133,45.410,83.496,0
1485087411.889,41.016,93.262,43.945,55.176,99.609,0
1485087411.893,42.969,89.355,45.898,57.129,77.637,0
1485087411.897,43.945,84.961,50.781,58.105,28.320,0
1485087411.901,42.480,81.543,49.805,54.688,36.621,0
1485087411.905,34.180,76.660,37.598,46.875,56.641,0
1485087411.909,35.156,73.730,36.133,48.828,54.199,0
1485087411.912,37.109,80.078,40.039,48.340,29.785,0
1485087411.916,31.250,83.496,39.551,46.387,25.391,0
1485087411.920,32.227,82.031,42.480,50.293,59.570,0
1485087411.924,36.133,79.102,39.551,48.340,44.434,0
1485087411.928,33.691,74.219,35.645,42.480,14.648,0
1485087411.932,35.645,64.941,40.527,44.434,21.973,0
1485087411.936,43.945,66.895,50.781,52.246,29.297,0
1485087411.940,36.133,66.895,44.434,44.434,21.973,0
1485087411.944,26.855,58.594,38.086,33.691,4.395,0
1485087411.948,24.902,45.410,33.691,26.367,32.227,0
1485087411.951,29.297,50.293,37.598,35.156,64.453,0
1485087411.955,28.320,57.617,48.828,46.387,24.902,0
1485087411.959,24.414,58.105,40.039,36.621,25.391,0
1485087411.963,26.367,50.781,30.273,25.879,46.387,0
1485087411.967,26.367,48.340,37.598,35.645,64.453,0
1485087411.971,19.531,50.781,33.203,35.645,48.340,3
1485087411.975,23.926,42.969,27.832,25.391,17.578,0
1485087411.979,38.086,30.273,33.691,31.250,50.781,0
1485087411.983,36.621,27.832,35.645,33.203,53.223,0
1485087411.987,24.414,37.598,34.180,28.809,25.879,0
1485087411.991,22.949,33.203,30.762,25.879,20.020,0
1485087411.994,27.344,27.832,25.391,20.996,13.672,0
1485087411.998,30.762,33.203,25.879,22.949,26.855,0
1485087412.002,33.691,38.086,27.832,28.809,41.992,0
1485087412.006,34.180,37.598,27.344,32.227,34.668,0
1485087412.010,26.367,29.297,25.879,32.715,44.434,0
1485087412.014,30.273,27.344,24.902,30.762,54.199,0
1485087412.018,29.297,29.785,25.879,25.879,13.184,0
1485087412.022,23.926,37.598,26.855,29.297,0.000,0
1485087412.026,28.320,39.062,30.273,36.621,23.438,0
1485087412.030,40.527,29.785,35.645,39.062,14.648,0
1485087412.034,38.086,33.203,41.504,45.410,6.836,0
1485087412.037,31.250,31.738,43.945,44.434,6.836,0
1485087412.041,39.551,25.879,41.992,40.039,30.273,0
1485087412.045,42.969,38.574,43.945,45.410,51.758,0
1485087412.049,35.156,45.898,45.898,48.828,31.250,0
1485087412.053,30.762,22.461,39.062,44.922,41.504,0
1485087412.057,35.156,20.020,39.551,45.898,59.570,0
1485087412.061,36.621,39.551,41.992,45.410,39.062,0
1485087412.065,40.039,38.574,40.527,44.922,15.625,0
1485087412.069,44.922,41.504,48.340,48.828,28.320,0
1485087412.073,41.504,42.969,50.293,46.387,55.176,0
1485087412.076,43.457,41.504,41.992,39.062,26.367,0
1485087412.080,40.039,35.645,36.133,33.691,-29.297,0
1485087412.084,34.668,26.855,33.203,32.715,11.230,0
1485087412.088,39.551,32.227,41.504,37.598,53.223,0
1485087412.092,43.945,35.156,42.480,34.668,29.785,0
1485087412.096,47.363,30.762,40.527,30.762,8.789,0
1485087412.100,53.711,34.180,49.805,40.039,20.020,0
1485087412.104,58.594,47.852,53.711,48.828,50.781,0
1485087412.108,53.223,39.062,44.922,41.016,64.453,0
1485087412.112,49.805,23.438,37.598,39.062,43.457,0
1485087412.116,54.199,33.203,40.039,41.016,-5.371,0
1485087412.119,63.965,36.621,48.340,49.805,-19.043,0
1485087412.123,69.824,20.996,44.922,50.781,8.301,0
1485087412.127,57.129,15.137,27.344,38.086,22.461,0
1485087412.131,47.852,19.531,21.484,35.156,22.949,0
1485087412.135,55.176,34.668,33.691,43.945,11.719,0
1485087412.139,53.223,39.062,37.598,45.898,13.184,0
1485087412.143,49.805,27.832,26.855,34.180,33.691,0
1485087412.147,54.199,25.879,27.344,37.109,53.223,0
1485087412.151,58.594,38.574,50.293,59.570,66.406,0
1485087412.155,60.059,31.250,50.781,59.570,42.480,0
1485087412.159,53.223,16.602,32.715,44.922,41.992,0
1485087412.162,62.988,29.785,42.969,50.293,54.688,0
1485087412.166,62.988,45.898,47.852,51.270,31.738,0
1485087412.170,56.641,42.480,43.945,51.758,31.250,0
1485087412.174,62.500,33.691,43.945,48.828,47.363,0
1485087412.178,60.059,38.086,42.969,45.410,38.086,0
1485087412.182,63.477,25.391,48.340,53.223,-4.395,0
1485087412.186,71.777,12.207,43.945,53.223,-10.742,0
1485087412.190,59.082,26.367,32.227,45.898,23.438,0
1485087412.194,50.293,41.016,37.598,48.828,42.480,0
1485087412.198,53.711,48.828,45.898,52.734,33.691,0
1485087412.201,43.945,38.086,34.668,43.457,19.043,0
1485087412.205,49.805,34.668,29.785,42.969,67.383,0
1485087412.209,67.383,42.969,43.945,55.664,52.734,0
1485087412.213,63.965,37.598,43.457,55.176,36.133,0
1485087412.217,58.105,38.086,45.410,57.129,49.316,0
1485087412.221,51.270,37.598,40.039,48.340,53.223,0
1485087412.225,44.434,39.551,38.086,41.992,69.824,0
1485087412.229,53.711,52.246,47.363,56.152,16.602,0
1485087412.233,51.758,39.551,35.645,53.711,-10.254,0
1485087412.237,52.734,33.691,36.133,57.617,26.855,0
1485087412.241,54.199,34.668,45.410,64.453,33.691,0
1485087412.244,50.293,27.344,42.480,59.570,36.621,0
1485087412.248,46.875,30.273,41.016,60.059,38.086,0
1485087412.252,38.086,36.621,41.016,58.105,45.898,0
1485087412.256,39.551,37.598,38.086,54.688,31.738,0
1485087412.260,41.992,27.832,39.062,53.223,3.906,0
1485087412.264,39.062,22.949,39.062,52.246,31.250,0
1485087412.268,37.109,30.762,35.645,47.852,50.781,0
1485087412.272,36.133,23.926,44.922,50.781,21.973,0
1485087412.276,28.809,7.324,42.969,46.875,11.719,0
1485087412.280,27.344,2.930,37.598,40.039,2.930,0
1485087412.284,31.250,12.207,44.434,43.457,9.766,0
1485087412.287,25.879,21.973,40.039,39.551,38.574,0
1485087412.291,24.414,30.762,35.645,37.598,23.926,0
1485087412.295,25.391,26.855,35.645,36.621,26.855,0
1485087412.299,23.438,16.602,34.180,35.645,42.969,0
1485087412.303,28.320,17.090,36.621,39.062,24.902,0
1485087412.307,25.391,29.297,35.156,31.738,0.488,0
1485087412.311,10.742,30.762,33.691,27.344,5.859,0
1485087412.315,20.020,34.180,40.039,34.180,8.789,0
1485087412.319,29.785,38.086,45.898,41.504,-1.465,0
1485087412.323,22.949,35.645,43.945,43.945,25.879,0
1485087412.326,31.738,37.598,41.504,47.363,55.176,0
1485087412.330,48.340,42.969,51.758,58.105,38.574,0
1485087412.334,41.504,41.504,50.293,58.105,-3.418,0
1485087412.338,24.414,5.859,27.832,42.969,19.043,0
1485087412.342,33.691,2.930,30.273,48.828,50.781,0
1485087412.346,45.898,28.320,49.805,63.477,27.832,0
1485087412.350,41.016,34.668,45.898,59.082,0.488,0
1485087412.354,34.668,41.016,34.180,51.758,20.508,0
1485087412.358,37.109,49.316,36.621,54.688,28.809,0
1485087412.362,41.016,35.645,39.551,56.152,24.902,0
1485087412.366,55.176,34.668,44.922,55.664,22.461,0
1485087412.369,46.875,25.391,38.086,45.410,32.227,0
1485087412.373,42.480,18.555,39.551,43.945,48.340,0
1485087412.377,44.434,37.109,46.387,51.758,1.953,0
1485087412.381,25.391,23.926,30.273,42.480,-14.160,0
1485087412.385,20.508,14.160,25.879,42.969,41.016,0
1485087412.389,30.273,30.273,34.668,50.781,40.527,0
1485087412.393,35.645,37.109,39.062,53.711,41.992,0
1485087412.397,33.691,38.086,39.062,53.223,40.527,0
1485087412.401,41.504,49.316,46.387,52.734,26.367,0
1485087412.405,45.410,41.992,50.293,56.641,29.297,0
1485087412.409,35.645,30.273,39.062,53.711,6.348,0
1485087412.412,34.180,26.855,28.809,46.875,-17.090,0
1485087412.416,35.156,38.574,33.691,45.898,12.207,0
1485087412.420,29.785,49.805,40.527,46.875,24.414,0
1485087412.424,33.203,38.086,39.062,45.410,18.555,0
1485087412.428,36.621,22.949,40.039,45.410,27.832,0
1485087412.432,41.504,32.715,44.922,50.781,33.691,0
1485087412.436,42.969,48.828,43.945,51.758,25.879,0
1485087412.440,32.227,35.156,33.691,37.598,22.949,0
1485087412.444,28.809,32.715,25.879,26.367,43.945,0
1485087412.448,33.203,40.527,29.785,35.645,59.082,0
1485087412.451,43.457,39.551,45.410,49.805,44.922,0
1485087412.455,41.504,37.109,45.898,48.828,24.414,0
1485087412.459,33.691,34.180,32.227,39.062,32.715,0
1485087412.463,35.156,31.738,31.250,44.434,49.316,0
1485087412.467,41.504,43.945,40.039,56.152,5.859,0
1485087412.471,36.621,33.203,34.180,48.828,-22.949,4
1485087412.475,31.250,23.438,26.855,43.945,20.020,0
1485087412.479,32.715,47.363,34.668,47.852,27.832,0
1485087412.483,31.250,55.176,37.598,46.387,26.855,0
1485087412.487,25.391,30.273,27.832,39.551,53.711,0
1485087412.491,29.785,7.324,25.879,39.551,29.785,0
1485087412.494,47.363,26.367,38.574,45.898,19.531,0
1485087412.498,47.852,43.457,42.480,47.852,39.551,0
1485087412.502,32.715,26.367,38.574,46.875,45.410,0
1485087412.506,29.785,17.090,37.598,50.293,69.824,0
1485087412.510,38.086,24.902,37.109,55.664,53.711,0
1485087412.514,35.156,29.297,34.180,51.270,6.836,0
1485087412.518,26.367,29.297,29.785,39.551,39.551,0
1485087412.522,30.762,38.086,35.645,43.945,68.848,0
1485087412.526,29.297,37.109,38.086,44.922,26.367,0
1485087412.530,31.250,17.090,37.598,42.969,6.836,0
1485087412.534,43.457,29.297,46.875,52.246,37.598,0
1485087412.537,41.992,44.434,52.734,55.176,29.785,0
1485087412.541,40.039,35.645,49.316,47.852,13.184,0
1485087412.545,40.527,46.875,45.410,45.410,13.184,0
1485087412.549,41.992,57.617,47.852,42.969,16.602,0
1485087412.553,38.086,58.105,50.293,35.645,16.602,0
1485087412.557,40.527,47.852,52.246,38.086,-10.254,0
1485087412.561,47.852,33.691,46.387,41.992,-15.137,0
1485087412.565,44.922,35.645,42.969,41.992,24.414,0
1485087412.569,41.504,48.340,47.852,45.410,43.945,0
1485087412.573,34.180,54.199,36.133,38.574,23.438,0
1485087412.576,36.133,47.852,28.320,34.180,12.207,0
1485087412.580,43.945,36.133,34.180,40.527,37.109,0
1485087412.584,50.293,47.363,40.039,51.270,62.012,0
1485087412.588,52.246,59.082,37.109,53.223,35.645,0
1485087412.592,45.410,56.152,32.715,47.852,7.324,0
1485087412.596,37.109,49.316,32.715,43.457,11.230,0
1485087412.600,27.344,31.250,28.809,37.109,8.301,0
1485087412.604,27.344,31.738,30.762,39.551,-0.977,0
1485087412.608,22.949,30.762,20.996,31.250,-22.949,0
1485087412.612,27.344,25.391,20.996,33.691,-1.953,0
1485087412.616,43.457,33.691,34.668,52.734,15.137,0
1485087412.619,43.945,44.434,34.180,55.176,20.020,0
1485087412.623,38.086,45.898,30.273,47.852,50.293,0
1485087412.627,38.086,41.016,34.180,47.363,13.672,0
1485087412.631,29.785,29.785,31.738,45.898,6.836,0
1485087412.635,33.203,26.367,38.574,53.711,20.996,0
1485087412.639,32.227,36.133,38.086,52.246,-11.719,0
1485087412.643,25.391,43.945,24.414,42.969,16.602,0
1485087412.647,38.086,48.828,36.133,57.129,-3.418,0
1485087412.651,36.621,47.852,38.574,55.176,-28.320,0
1485087412.655,28.320,44.922,32.715,45.898,20.996,0
1485087412.659,37.598,42.969,41.504,55.176,70.801,0
1485087412.662,44.434,46.387,42.969,60.547,70.801,0
1485087412.666,37.598,33.203,40.039,51.758,39.551,0
1485087412.670,34.668,23.926,40.527,47.852,33.691,0
1485087412.674,38.574,27.832,42.480,51.758,24.414,0
1485087412.678,31.738,20.020,35.645,44.922,0.000,0
1485087412.682,26.367,28.809,25.879,41.016,5.859,0
1485087412.686,32.227,47.363,30.273,46.875,22.461,0
1485087412.690,35.156,44.922,39.062,50.781,10.254,0
1485087412.694,29.297,36.133,36.621,45.898,-1.465,0
1485087412.698,22.949,31.250,22.949,29.785,16.602,0
1485087412.701,26.855,33.691,18.066,26.367,38.574,0
1485087412.705,20.508,30.273,18.555,28.809,31.738,0
1485087412.709,23.438,36.133,18.066,29.297,39.551,0
1485087412.713,41.504,44.434,22.949,37.109,37.598,0
1485087412.717,52.734,45.410,25.879,45.898,76.172,0
1485087412.721,59.082,42.480,23.926,43.457,92.285,0
1485087412.725,56.641,44.434,19.531,33.691,54.199,0
1485087412.729,57.617,45.410,19.043,35.156,37.109,0
1485087412.733,53.711,42.480,20.020,43.457,60.547,0
1485087412.737,45.410,33.203,24.902,51.758,46.875,0
1485087412.741,51.270,18.555,26.367,56.152,-9.277,0
1485087412.744,59.570,15.625,23.438,55.664,37.109,0
1485087412.748,62.500,27.832,36.133,65.918,53.223,0
1485087412.752,46.875,41.016,34.180,64.453,22.461,0
1485087412.756,36.133,43.457,24.414,47.363,29.785,0
1485087412.760,40.527,27.344,26.855,45.898,12.207,0
1485087412.764,47.852,35.645,34.668,57.129,36.621,0
1485087412.768,45.898,45.410,35.156,57.617,36.621,0
1485087412.772,36.621,20.020,24.414,46.875,36.133,0
1485087412.776,37.598,25.879,22.461,42.480,51.270,0
1485087412.780,42.969,53.711,33.691,51.270,25.879,0
1485087412.784,42.969,48.828,41.016,55.664,4.395,0
1485087412.787,37.109,23.438,32.227,46.387,-5.371,0
1485087412.791,42.969,20.508,28.809,44.922,26.367,0
1485087412.795,58.594,33.203,31.738,50.781,33.203,0
1485087412.799,53.223,21.973,34.668,53.223,4.395,0
1485087412.803,42.480,2.441,33.203,46.875,2.441,0
1485087412.807,52.734,-0.977,37.109,49.316,4.395,0
1485087412.811,50.781,-7.812,36.133,50.781,14.648,0
1485087412.815,42.480,-6.348,26.367,45.410,22.461,0
1485087412.819,40.527,-0.977,27.344,41.992,8.789,0
1485087412.823,43.457,-4.883,32.227,48.340,26.367,0
1485087412.826,44.922,-6.836,30.273,50.293,7.324,0
1485087412.830,38.086,-22.949,15.625,32.227,-11.719,0
1485087412.834,37.109,-36.621,20.996,32.715,28.320,0
1485087412.838,32.227,-30.762,26.855,38.574,57.129,0
1485087412.842,30.762,-11.719,25.391,39.062,29.297,0
1485087412.846,30.273,-2.441,21.484,38.086,-8.301,0
1485087412.850,35.645,1.953,20.996,38.086,34.668,0
1485087412.854,40.039,-1.465,26.855,41.504,54.688,0
1485087412.858,33.691,-10.254,26.855,39.062,42.969,0
1485087412.862,31.738,-6.836,20.996,31.250,52.246,0
1485087412.866,38.086,-7.324,22.461,36.133,49.805,0
1485087412.869,43.457,-1.465,29.785,41.504,59.570,0
1485087412.873,41.016,20.508,33.691,37.109,39.551,0
1485087412.877,37.109,20.020,27.832,37.109,18.555,0
1485087412.881,33.203,6.836,21.484,32.227,46.875,0
1485087412.885,35.156,16.602,30.762,35.156,45.898,0
1485087412.889,32.715,26.367,32.227,35.156,26.855,0
1485087412.893,28.320,11.719,13.672,22.461,15.625,0
1485087412.897,31.738,4.883,16.602,28.809,25.879,0
1485087412.901,34.668,11.230,29.785,39.062,22.949,0
1485087412.905,30.762,19.043,23.438,29.785,35.156,0
1485087412.909,32.227,28.809,17.090,28.809,72.266,0
1485087412.912,37.109,39.551,19.531,38.574,68.848,0
1485087412.916,39.062,49.316,23.438,42.480,70.801,0
1485087412.920,37.109,51.758,25.391,39.551,27.832,0
1485087412.924,33.203,31.738,15.625,26.367,13.184,0
1485087412.928,33.203,21.973,11.719,21.484,31.250,0
1485087412.932,36.133,42.969,22.949,32.715,15.625,0
1485087412.936,31.250,44.434,20.996,27.832,20.020,0
1485087412.940,19.043,41.016,7.812,13.672,22.461,0
1485087412.944,18.555,48.340,12.207,18.555,14.160,0
1485087412.948,20.020,34.668,21.973,22.949,49.316,0
1485087412.951,18.066,19.531,21.973,22.461,51.758,0
1485087412.955,26.855,26.367,24.414,25.391,49.805,0
1485087412.959,39.551,52.246,36.621,34.668,45.410,0
1485087412.963,39.062,50.781,36.133,41.504,24.414,0
1485087412.967,34.180,42.969,32.227,36.621,26.367,0
1485087412.971,18.555,42.480,25.391,23.438,46.875,5
1485087412.975,11.719,39.062,22.949,21.484,50.293,0
1485087412.979,19.531,52.246,27.832,25.391,21.484,0
1485087412.983,24.414,63.477,27.344,26.855,20.020,0
1485087412.987,33.203,65.430,25.391,35.156,26.367,0
1485087412.991,33.691,61.035,22.949,36.133,39.062,0
1485087412.994,38.574,60.547,27.832,40.527,15.137,0
1485087412.998,39.062,59.082,27.832,40.527,-6.836,0
1485087413.002,35.156,62.988,29.297,46.387,32.227,0
1485087413.006,36.133,69.824,27.344,46.387,28.809,0
1485087413.010,35.645,63.965,23.438,36.133,27.832,0
1485087413.014,40.527,67.871,31.738,41.504,19.043,0
1485087413.018,40.039,68.359,35.645,48.340,23.438,0
1485087413.022,38.086,56.152,33.203,46.387,8.301,0
1485087413.026,29.297,40.039,19.531,31.738,-6.348,0
1485087413.030,25.879,39.062,13.672,25.879,3.906,0
1485087413.034,36.133,50.293,22.949,38.574,34.668,0
1485087413.037,37.109,66.895,33.203,42.969,21.973,0
1485087413.041,34.668,76.172,31.250,38.574,-6.348,0
1485087413.045,37.109,72.754,26.367,38.574,31.738,0
1485087413.049,39.062,77.637,32.227,43.457,32.715,0
1485087413.053,37.598,81.055,34.668,45.410,20.020,0
1485087413.057,40.039,78.125,33.203,43.945,28.809,0
1485087413.061,42.969,70.312,38.086,47.363,13.184,0
1485087413.065,42.480,65.918,46.875,52.246,33.691,0
1485087413.069,43.457,79.102,53.223,51.758,29.297,0
1485087413.073,35.156,70.312,40.527,33.691,17.090,0
1485087413.076,37.598,61.523,41.504,30.762,46.387,0
1485087413.080,37.598,62.012,51.270,38.574,44.922,0
1485087413.084,28.320,64.453,43.457,34.180,35.645,0
1485087413.088,22.949,62.012,33.203,23.438,52.246,0
1485087413.092,22.949,64.453,38.574,22.949,44.922,0
1485087413.096,22.461,63.477,42.480,23.438,18.555,0
1485087413.100,22.949,51.270,40.039,20.996,41.016,0
1485087413.104,24.902,45.898,41.504,26.367,46.387,0
1485087413.108,23.926,34.668,41.992,26.367,12.207,0
1485087413.112,27.832,38.574,48.340,31.738,3.906,0
1485087413.116,33.203,53.223,53.223,39.062,10.254,0
1485087413.119,36.621,43.457,48.340,38.086,44.434,0
1485087413.123,47.363,42.969,50.293,41.016,55.176,0
1485087413.127,41.992,51.270,46.875,36.133,43.945,0
1485087413.131,27.832,48.828,40.039,35.645,43.945,0
1485087413.135,31.250,44.922,41.992,40.527,29.785,0
1485087413.139,30.273,44.434,41.504,40.527,26.855,0
1485087413.143,22.461,41.992,38.086,33.691,28.809,0
1485087413.147,26.855,41.016,39.551,33.691,35.645,0
1485087413.151,30.762,45.410,43.945,41.504,36.621,0
1485087413.155,34.180,47.852,47.852,48.340,48.828,0
1485087413.159,40.527,46.875,48.340,47.852,32.715,0
1485087413.162,36.133,42.969,41.016,41.504,-10.742,0
1485087413.166,32.227,47.852,41.504,45.898,19.043,0
1485087413.170,39.551,53.223,56.152,53.711,27.832,0
1485087413.174,41.992,41.992,54.688,50.781,-15.137,0
1485087413.178,30.273,34.180,37.109,36.621,11.230,0
1485087413.182,24.414,33.691,42.969,37.109,41.992,0
1485087413.186,22.461,26.367,53.223,43.945,27.344,0
1485087413.190,15.625,30.273,44.434,36.621,25.391,0
1485087413.194,20.508,41.016,40.527,33.691,22.461,0
1485087413.198,26.367,49.805,50.781,43.457,-3.418,0
1485087413.201,22.461,48.340,56.152,47.852,2.441,0
1485087413.205,19.531,31.250,47.363,36.133,2.441,0
1485087413.209,23.926,19.531,46.387,33.203,7.812,0
1485087413.213,35.156,35.156,49.316,41.992,33.203,0
1485087413.217,33.203,47.852,42.969,39.551,24.414,0
1485087413.221,30.762,39.551,43.457,36.621,10.254,0
1485087413.225,31.250,33.691,40.527,31.738,40.039,0
1485087413.229,29.785,43.457,41.016,31.250,49.805,0
1485087413.233,26.855,42.969,43.457,35.156,31.250,0
1485087413.237,19.043,31.250,39.551,31.738,14.160,0
1485087413.241,23.926,27.832,44.434,32.227,26.855,0
1485087413.244,35.156,31.738,51.758,35.645,21.484,0
1485087413.248,36.621,40.527,54.199,44.434,0.488,0
1485087413.252,29.297,49.316,51.270,48.828,8.789,0
1485087413.256,29.785,39.551,42.969,39.551,12.695,0
1485087413.260,39.062,27.832,49.316,41.016,-10.742,0
1485087413.264,41.016,27.344,52.246,41.504,-10.742,0
1485087413.268,46.875,40.527,52.246,41.992,31.250,0
1485087413.272,43.945,32.227,50.293,43.457,48.340,0
1485087413.276,42.480,28.320,59.082,51.758,38.086,0
1485087413.280,21.973,24.414,47.363,41.504,-3.906,0
1485087413.284,-21.484,-13.672,3.418,5.371,9.277,0
1485087413.287,-24.902,-22.949,-7.324,-2.441,45.898,0
1485087413.291,-26.855,-18.066,-10.254,-8.301,31.250,0
1485087413.295,-35.645,-26.855,-14.648,-16.602,6.348,0
1485087413.299,-40.039,-35.645,-16.113,-20.508,23.438,0
1485087413.303,-42.480,-39.062,-15.137,-21.973,35.645,0
1485087413.307,-27.344,-25.879,-0.977,-10.742,36.133,0
1485087413.311,-17.578,-15.625,2.441,-3.906,-18.066,0
1485087413.315,-21.484,-12.695,-4.883,-6.836,9.277,0
1485087413.319,-14.648,1.953,5.371,-0.488,52.734,0
1485087413.323,-9.277,6.836,5.371,-1.465,20.020,0
1485087413.326,-8.789,4.883,4.395,-4.395,15.625,0
1485087413.330,0.000,19.043,19.043,4.883,39.062,0
1485087413.334,11.230,25.391,29.297,13.184,35.645,0
1485087413.338,11.719,7.324,24.902,13.672,40.039,0
1485087413.342,13.672,5.371,17.578,13.184,29.297,0
1485087413.346,18.066,19.531,16.602,10.742,10.742,0
1485087413.350,28.320,34.668,26.855,19.531,41.016,0
1485087413.354,19.531,31.250,30.762,22.461,10.742,0
1485087413.358,-4.395,5.859,9.766,3.906,2.930,0
1485087413.362,7.324,10.742,12.207,12.695,1.953,0
1485087413.366,17.090,25.391,21.484,25.391,-17.578,0
1485087413.369,3.906,23.926,15.137,17.090,39.551,0
1485087413.373,-4.395,4.395,6.348,4.883,49.316,0
1485087413.377,4.395,-4.883,6.348,5.371,30.762,0
1485087413.381,5.859,9.277,13.672,11.230,30.762,0
1485087413.385,-0.488,13.672,8.301,7.812,31.250,0
1485087413.389,2.441,11.230,11.230,14.648,65.918,0
1485087413.393,5.859,7.324,18.066,21.484,63.965,0
1485087413.397,9.766,8.789,24.414,25.879,-1.953,0
1485087413.401,10.254,9.766,22.461,22.461,-7.812,0
1485087413.405,4.395,-2.441,3.418,5.371,30.762,0
1485087413.409,-0.977,-3.906,3.418,3.906,26.367,0
1485087413.412,-4.395,-5.371,6.348,9.766,39.551,0
1485087413.416,-6.836,-10.742,-3.418,3.418,47.852,0
1485087413.420,-11.719,-13.672,-6.348,-1.465,49.805,0
1485087413.424,-13.672,-20.996,-4.883,-5.371,33.691,0
1485087413.428,-7.812,-15.137,-5.371,-3.906,-18.555,0
1485087413.432,-15.137,-6.836,-4.883,-2.441,-22.949,0
1485087413.436,-16.113,3.418,-0.977,-6.348,-1.953,0
1485087413.440,-4.395,5.859,0.977,-6.348,-15.625,0
1485087413.444,-12.695,-3.418,1.465,-6.836,-3.418,0
1485087413.448,-21.484,-3.906,-3.418,-13.184,28.320,0
1485087413.451,-12.695,3.906,-2.930,-9.766,59.082,0
1485087413.455,-11.230,5.859,4.395,-4.395,8.789,0
1485087413.459,-17.090,2.930,0.000,-8.301,-10.254,0
1485087413.463,-11.719,-3.418,-3.906,-6.836,69.336,0
1485087413.467,0.000,4.883,3.418,8.301,39.551,0
1485087413.471,4.395,6.836,10.742,14.160,0.000,0
1485087413.475,9.277,8.301,11.719,6.836,0.000,0
1485087413.479,5.371,15.625,6.836,1.465,-4.883,0
1485087413.483,2.441,9.766,6.348,2.441,17.578,0
1485087413.487,5.859,16.602,13.672,7.812,-2.930,0
1485087413.491,13.672,20.020,17.090,14.160,4.395,0
1485087413.494,19.043,10.742,7.812,10.742,15.625,0
1485087413.498,29.297,12.207,15.137,19.043,-6.836,0
1485087413.502,31.250,7.812,21.973,29.785,2.441,0
1485087413.506,23.926,11.230,15.625,26.367,9.277,0
1485087413.510,23.926,16.602,17.578,23.926,22.949,0
1485087413.514,28.809,20.508,24.414,30.762,28.320,0
1485087413.518,28.809,25.879,25.391,29.785,4.395,0
1485087413.522,23.438,18.066,16.602,22.949,2.930,0
1485087413.526,34.180,13.672,19.043,28.320,40.527,0
1485087413.530,46.387,19.043,38.086,43.945,31.250,0
1485087413.534,32.227,16.113,45.410,46.875,-4.395,0
1485087413.537,12.695,6.836,26.855,29.785,6.348,0
1485087413.541,11.230,6.836,20.508,19.531,27.344,0
1485087413.545,20.508,14.648,26.855,23.438,23.438,0
1485087413.549,18.555,21.484,26.855,21.973,40.039,0
1485087413.553,13.672,8.789,23.438,16.113,36.621,0
1485087413.557,10.254,-4.883,17.090,11.230,27.832,0
1485087413.561,13.672,16.113,23.438,15.625,24.902,0
1485087413.565,13.672,23.926,23.438,9.766,8.789,0
1485087413.569,3.418,11.719,17.578,3.418,70.801,0
1485087413.573,6.836,10.742,19.531,9.766,88.379,0
1485087413.576,14.648,19.531,22.461,17.578,32.715,0
1485087413.580,7.324,14.648,20.020,11.230,-13.672,0
1485087413.584,8.301,2.930,15.625,6.836,8.301,0
1485087413.588,22.461,15.137,21.973,18.066,41.016,0
1485087413.592,17.578,20.020,21.973,18.555,26.367,0
1485087413.596,20.020,8.789,22.949,21.484,21.484,0
1485087413.600,26.367,13.184,25.391,29.297,24.902,0
1485087413.604,12.695,16.602,17.090,21.973,32.227,0
1485087413.608,13.672,15.625,21.973,19.531,6.836,0
1485087413.612,17.090,11.230,25.391,20.508,29.785,0
1485087413.616,18.555,20.020,26.855,26.855,68.359,0
1485087413.619,22.461,31.738,36.133,37.598,55.664,0
1485087413.623,20.996,24.902,38.574,38.086,3.906,0
1485087413.627,19.043,11.719,31.738,29.785,-18.555,0
1485087413.631,16.602,10.742,27.344,22.461,16.602,0
1485087413.635,26.367,21.973,36.133,32.715,25.391,0
1485087413.639,26.367,22.949,39.062,36.133,-7.324,0
1485087413.643,19.043,18.066,33.691,27.832,-19.531,0
1485087413.647,33.691,38.574,44.922,40.039,13.672,0
1485087413.651,35.156,45.898,42.480,42.969,35.156,0
1485087413.655,23.926,32.715,34.668,37.598,62.500,0
1485087413.659,24.902,28.320,37.598,35.645,40.039,0
1485087413.662,36.133,32.227,38.086,37.598,20.020,0
1485087413.666,44.434,33.203,45.410,48.340,27.344,0
1485087413.670,39.062,21.484,42.480,48.828,2.441,0
1485087413.674,38.086,27.344,41.016,46.875,20.020,0
1485087413.678,40.527,40.527,42.969,41.016,47.363,0
1485087413.682,44.922,52.246,49.316,46.387,-2.441,0
1485087413.686,38.574,50.293,43.945,46.387,-14.160,0
1485087413.690,29.297,46.387,29.297,40.527,28.320,0
1485087413.694,41.992,49.805,35.156,50.293,16.602,0
1485087413.698,48.340,46.875,43.457,55.176,5.859,0
1485087413.701,45.898,42.480,47.852,51.270,35.645,0
1485087413.705,42.969,29.297,48.340,45.410,61.035,0
1485087413.709,40.527,16.602,45.410,41.016,43.457,0
1485087413.713,39.062,25.391,42.969,44.922,29.297,0
1485087413.717,31.250,31.250,40.527,47.363,21.484,0
1485087413.721,27.832,23.438,35.645,42.969,32.715,0
1485087413.725,32.227,26.855,34.180,46.387,31.250,0
1485087413.729,33.691,30.762,36.621,50.293,12.207,0
1485087413.733,36.133,25.391,36.133,50.781,6.836,0
1485087413.737,41.016,22.949,36.621,51.270,18.555,0
1485087413.741,42.480,32.715,40.039,53.223,25.879,0
1485087413.744,39.062,33.203,37.598,48.340,8.789,0
1485087413.748,27.344,29.297,34.668,40.039,40.039,0
1485087413.752,29.785,22.461,41.016,41.992,81.543,0
1485087413.756,33.691,12.207,41.016,39.551,52.734,0
1485087413.760,28.809,14.648,39.062,38.086,8.301,0
1485087413.764,24.902,18.555,35.645,37.598,55.176,0
1485087413.768,28.809,27.344,39.551,39.062,77.637,0
1485087413.772,41.016,39.062,51.758,47.852,12.207,0
1485087413.776,33.691,25.879,37.109,38.086,-15.625,0
1485087413.780,24.414,5.371,19.531,20.996,31.738,0
1485087413.784,35.156,12.207,25.879,30.273,65.918,0
1485087413.787,36.621,12.695,24.902,32.715,63.965,0
1485087413.791,34.180,0.000,20.508,22.949,58.105,0
1485087413.795,38.086,4.883,23.438,26.855,55.176,0
1485087413.799,38.574,16.113,28.320,35.645,40.039,0
1485087413.803,30.762,19.043,26.367,35.156,46.875,0
1485087413.807,20.508,14.160,19.531,25.879,53.711,0
1485087413.811,24.414,8.301,21.973,23.926,34.668,0
1485087413.815,31.738,14.648,30.273,35.645,30.762,0
1485087413.819,35.645,17.578,35.156,45.410,0.488,0
1485087413.823,40.039,4.883,31.738,44.922,-15.625,0
1485087413.826,46.387,18.066,37.598,51.270,24.414,0
1485087413.830,52.246,37.109,47.852,63.477,19.043,0
1485087413.834,50.293,41.504,43.945,62.500,27.832,0
1485087413.838,44.434,37.598,37.598,55.664,89.844,0
1485087413.842,48.340,36.133,36.621,55.176,76.660,0
1485087413.846,48.340,33.203,40.527,53.711,15.625,0
1485087413.850,46.875,21.973,39.062,52.246,22.461,0
1485087413.854,40.527,18.066,33.203,49.805,35.645,0
1485087413.858,41.016,35.156,39.062,48.340,33.691,0
1485087413.862,43.457,43.457,41.016,50.781,21.484,0
1485087413.866,36.621,33.203,34.180,46.387,17.578,0
1485087413.869,29.297,14.648,27.832,37.109,30.273,0
1485087413.873,29.785,13.672,33.203,39.551,31.738,0
1485087413.877,28.320,20.020,28.809,32.227,37.598,0
1485087413.881,31.738,19.043,23.926,32.227,24.414,0
1485087413.885,36.621,15.137,25.879,39.551,54.199,0
1485087413.889,27.832,1.953,16.602,30.273,75.195,0
1485087413.893,23.926,-4.883,18.066,26.855,59.570,0
1485087413.897,32.227,0.977,28.320,35.156,35.645,0
1485087413.901,33.203,4.883,32.715,38.574,49.805,0
1485087413.905,36.133,10.254,38.574,43.945,62.012,0
1485087413.909,42.480,14.160,36.133,44.434,13.184,0
1485087413.912,30.273,8.301,18.555,33.203,32.227,0
1485087413.916,30.762,16.113,23.438,38.574,72.266,0
1485087413.920,47.852,28.320,40.527,53.223,53.711,0
1485087413.924,48.828,21.484,38.086,52.246,48.340,0
1485087413.928,41.504,14.160,30.273,45.410,8.789,0
1485087413.932,42.969,11.719,34.180,50.781,24.902,0
1485087413.936,41.016,11.230,34.180,48.828,58.594,0
1485087413.940,39.551,18.555,30.273,42.969,42.480,0
1485087413.944,38.574,20.508,20.996,40.039,32.715,0
1485087413.948,45.410,23.926,20.996,51.758,43.945,0
1485087413.951,51.270,32.227,25.391,60.547,40.039,0
1485087413.955,41.504,26.367,18.555,49.316,42.480,0
1485087413.959,42.969,18.555,20.996,46.387,75.195,0
1485087413.963,48.828,20.996,34.180,56.152,71.777,0
1485087413.967,45.410,33.691,35.645,58.105,29.297,0
1485087413.971,38.086,36.621,27.832,47.363,23.926,0
1485087413.975,37.598,37.109,27.832,39.551,25.391,0
1485087413.979,44.434,40.039,31.738,42.969,30.273,0
1485087413.983,42.480,44.434,35.645,50.781,17.578,0
1485087413.987,34.180,32.227,36.133,47.852,-9.277,0
1485087413.991,38.086,27.344,42.480,47.363,4.395,0
1485087413.994,45.898,34.180,49.316,54.199,25.391,0
1485087413.998,43.945,26.367,44.922,55.176,42.480,0
1485087414.002,35.156,26.367,34.668,45.898,64.453,0
1485087414.006,34.668,24.902,29.297,41.992,62.012,0
1485087414.010,44.434,28.809,37.109,53.223,25.879,0
1485087414.014,40.039,33.691,40.039,52.246,4.395,0
1485087414.018,27.832,22.949,26.855,37.598,47.363,0
1485087414.022,39.551,33.691,33.691,46.387,60.547,0
1485087414.026,45.898,41.504,44.922,56.641,6.836,0
1485087414.030,44.434,35.156,43.457,52.734,-5.371,0
1485087414.034,50.293,37.109,46.387,53.711,3.906,0
1485087414.037,41.504,36.133,44.922,51.270,11.719,0
1485087414.041,34.668,34.668,40.039,47.363,36.621,0
1485087414.045,40.039,36.133,43.457,50.293,40.527,0
1485087414.049,40.039,34.180,39.551,46.875,28.320,0
1485087414.053,36.621,37.598,33.203,40.039,49.316,0
1485087414.057,41.992,48.828,41.504,45.898,37.109,0
1485087414.061,41.992,41.504,42.969,46.387,12.695,0
1485087414.065,41.504,20.508,36.621,40.039,30.762,0
1485087414.069,43.457,25.879,35.645,38.574,8.789,0
1485087414.073,38.086,36.133,30.273,31.738,25.391,0
1485087414.076,41.504,39.551,29.297,35.156,35.156,0
1485087414.080,41.992,39.062,32.715,43.457,8.301,0
1485087414.084,41.504,35.156,37.598,48.828,43.945,0
1485087414.088,42.969,40.527,42.969,51.270,37.598,0
1485087414.092,45.898,41.992,40.039,47.852,-6.836,0
1485087414.096,46.387,30.273,39.551,47.363,2.930,0
1485087414.100,47.852,26.367,50.781,56.152,17.090,0
1485087414.104,44.922,34.668,48.340,53.223,-3.418,0
1485087414.108,37.109,26.855,34.668,37.109,43.457,0
1485087414.112,43.945,29.785,39.551,42.969,38.086,0
1485087414.116,40.039,34.668,39.062,44.434,11.230,0
1485087414.119,37.109,27.344,39.062,41.016,60.547,0
1485087414.123,36.133,14.648,35.645,36.133,60.059,0
1485087414.127,34.180,20.996,36.621,33.691,22.461,0
1485087414.131,35.645,14.648,42.969,39.551,34.668,0
1485087414.135,42.969,16.602,49.316,51.270,63.965,0
1485087414.139,45.410,31.738,52.246,53.711,45.410,0
1485087414.143,37.109,22.461,42.480,39.551,44.434,0
1485087414.147,39.062,19.043,45.898,42.969,8.301,0
1485087414.151,32.227,19.531,39.551,42.480,15.137,0
1485087414.155,22.949,13.672,23.438,29.297,58.105,0
1485087414.159,26.855,9.277,27.832,30.762,55.664,0
1485087414.162,28.809,9.766,38.086,36.621,26.855,0
1485087414.166,32.227,10.254,41.504,41.504,28.809,0
1485087414.170,39.062,23.438,45.898,45.410,41.504,0
1485087414.174,40.039,30.273,50.781,41.504,33.203,0
1485087414.178,36.621,25.879,51.758,37.598,7.812,0
1485087414.182,38.086,29.297,48.828,42.480,-1.465,0
1485087414.186,34.668,36.133,43.457,43.457,24.902,0
1485087414.190,27.344,30.273,39.062,37.109,19.043,0
1485087414.194,26.367,12.695,35.156,34.668,-0.977,0
1485087414.198,25.879,11.719,32.227,32.227,23.926,0
1485087414.201,37.598,28.320,44.434,41.504,45.898,0
1485087414.205,46.875,42.969,51.270,49.316,31.738,0
1485087414.209,43.945,47.363,45.898,43.457,30.273,0
1485087414.213,43.945,43.457,46.875,45.410,54.688,0
1485087414.217,49.316,45.898,57.617,56.152,58.105,0
1485087414.221,45.410,39.062,54.199,53.711,56.641,0
1485087414.225,42.480,22.949,49.316,52.246,39.551,0
1485087414.229,46.387,19.531,52.246,57.129,3.418,0
1485087414.233,41.016,32.227,50.293,57.617,13.672,0
1485087414.237,36.133,40.039,52.734,58.594,20.020,0
1485087414.241,28.809,25.879,44.922,46.875,18.066,0
1485087414.244,22.461,14.648,38.086,34.668,27.344,0
1485087414.248,34.668,30.273,52.734,50.293,26.855,0
1485087414.252,32.227,23.926,50.781,52.734,29.297,0
1485087414.256,35.156,20.020,49.316,47.852,29.785,0
1485087414.260,37.109,27.344,45.898,48.340,17.578,0
1485087414.264,41.504,30.762,43.945,52.246,3.906,0
1485087414.268,44.922,35.645,57.129,62.012,17.578,0
1485087414.272,29.297,29.297,46.387,52.246,41.504,0
1485087414.276,32.715,26.855,34.180,44.922,40.039,0
1485087414.280,37.598,32.715,36.133,50.293,41.504,0
1485087414.284,28.320,37.109,33.691,47.363,47.363,0
1485087414.287,19.531,33.203,25.879,34.668,34.668,0
1485087414.291,26.855,33.203,29.785,37.598,42.969,0
1485087414.295,41.992,35.156,46.387,54.199,31.250,0
1485087414.299,39.062,29.785,49.316,55.176,13.184,0
1485087414.303,29.785,29.297,40.039,46.387,33.203,0
1485087414.307,27.344,37.109,36.133,42.969,34.668,0
1485087414.311,24.902,42.969,40.039,45.410,-1.953,0
1485087414.315,25.391,38.086,46.387,50.293,2.930,0
1485087414.319,22.949,40.039,42.969,47.852,45.410,0
1485087414.323,19.043,49.805,41.504,44.922,43.457,0
1485087414.326,31.250,60.059,52.246,51.758,20.996,0
1485087414.330,24.902,44.922,43.457,42.480,22.461,0
1485087414.334,15.625,29.297,30.762,28.809,41.504,0
1485087414.338,15.625,39.551,41.504,34.668,42.969,0
1485087414.342,4.883,27.832,42.480,35.645,28.320,0
1485087414.346,-2.441,16.113,32.715,27.344,4.883,0
1485087414.350,-13.672,16.602,28.809,20.020,3.418,0
1485087414.354,-16.113,23.438,27.832,15.625,36.133,0
1485087414.358,-2.441,30.273,33.691,20.996,44.922,0
1485087414.362,7.324,31.738,41.992,27.832,25.879,0
1485087414.366,9.277,31.738,44.434,31.250,29.297,0
1485087414.369,9.766,25.391,42.480,36.133,47.852,0
1485087414.373,10.254,24.902,40.527,34.668,48.828,0
1485087414.377,13.184,32.715,41.016,33.203,36.621,0
1485087414.381,17.578,44.922,36.133,33.691,9.766,0
1485087414.385,19.531,46.387,33.203,35.156,35.156,0
1485087414.389,16.113,44.434,33.691,36.133,35.645,0
1485087414.393,15.137,35.645,27.344,27.344,-8.789,0
1485087414.397,19.043,31.250,28.320,30.273,-7.812,0
1485087414.401,17.090,29.785,41.016,43.945,22.461,0
1485087414.405,23.926,15.625,45.410,50.781,36.133,0
1485087414.409,25.879,15.625,33.203,41.016,37.598,0
1485087414.412,22.461,29.297,30.762,39.062,42.480,0
1485087414.416,21.484,35.156,33.203,44.922,48.828,0
1485087414.420,28.809,33.203,39.551,51.270,30.762,0
1485087414.424,30.273,24.902,41.504,47.363,22.461,0
1485087414.428,31.738,20.996,37.598,43.457,21.484,0
1485087414.432,46.387,4.883,41.504,56.152,22.949,0
1485087414.436,45.410,-1.953,41.016,62.012,31.250,0
1485087414.440,42.969,13.672,36.621,57.129,52.734,0
1485087414.444,51.270,31.250,43.945,64.453,66.895,0
1485087414.448,48.828,32.227,44.922,67.871,19.043,0
1485087414.451,40.039,21.484,29.297,55.176,15.137,0
1485087414.455,39.062,18.066,20.508,50.293,36.621,0
1485087414.459,43.945,19.043,27.344,54.688,23.438,0
1485087414.463,44.434,13.184,32.715,53.711,8.789,0
1485087414.467,41.992,6.348,37.109,55.664,13.672,0
1485087414.471,36.133,-2.441,31.250,52.246,7.324,0
1485087414.475,39.551,7.324,30.273,51.270,7.324,0
1485087414.479,41.992,23.438,42.969,57.129,-26.855,0
1485087414.483,31.738,16.602,35.645,46.387,-38.086,0
1485087414.487,32.715,9.277,26.855,43.457,25.391,0
1485087414.491,33.691,-0.977,29.785,44.922,14.648,0
1485087414.494,35.645,3.418,37.109,48.828,-18.066,0
1485087414.498,37.598,1.953,36.621,52.246,-15.137,0
1485087414.502,41.504,-0.977,37.109,57.129,20.020,0
1485087414.506,41.992,6.836,42.969,64.941,23.438,0
1485087414.510,33.203,-1.465,40.527,58.594,30.762,0
1485087414.514,34.668,1.465,45.898,64.453,26.855,0
1485087414.518,40.527,3.906,49.805,72.754,11.230,0
1485087414.522,44.922,14.160,52.246,79.590,10.254,0
1485087414.526,38.574,9.277,49.805,75.195,-0.488,0
1485087414.530,37.109,-6.348,45.898,65.918,35.156,0
1485087414.534,49.805,10.742,50.293,74.219,83.496,0
1485087414.537,48.340,9.766,46.387,74.219,56.641,0
1485087414.541,43.457,-1.953,43.457,65.918,10.742,0
1485087414.545,40.527,5.859,40.527,58.105,47.363,0
1485087414.549,47.363,27.832,50.293,71.777,63.477,0
1485087414.553,45.410,30.762,52.246,70.801,61.035,0
1485087414.557,33.203,16.602,38.086,56.152,51.270,0
1485087414.561,36.133,8.301,32.227,51.758,43.945,0
1485087414.565,43.457,17.578,39.062,51.758,21.973,0
1485087414.569,46.387,33.691,45.410,60.059,4.883,0
1485087414.573,37.109,25.879,35.156,51.758,28.320,0
1485087414.576,42.480,19.043,30.273,47.363,33.203,0
1485087414.580,50.781,26.855,40.039,58.105,48.340,0
1485087414.584,46.875,46.875,43.457,55.664,36.133,0
1485087414.588,38.574,40.527,32.227,40.527,30.273,0
1485087414.592,39.062,22.461,29.297,36.621,54.199,0
1485087414.596,39.062,28.809,26.855,34.668,40.039,0
1485087414.600,35.645,41.016,17.090,29.297,39.551,0
1485087414.604,39.062,44.434,13.184,26.855,44.922,0
1485087414.608,36.621,41.504,18.066,33.203,25.879,0
1485087414.612,43.945,46.875,26.855,43.457,12.207,0
1485087414.616,50.781,57.129,35.156,46.387,-0.488,0
1485087414.619,48.340,44.922,39.062,47.363,20.508,0
1485087414.623,55.176,38.574,42.969,55.664,26.855,0
1485087414.627,53.223,51.758,42.969,55.664,30.762,0
1485087414.631,44.922,50.293,37.598,45.898,35.645,0
1485087414.635,39.062,41.016,35.156,47.363,28.809,0
1485087414.639,41.016,44.434,37.109,50.781,17.578,0
1485087414.643,39.062,39.062,31.250,39.551,4.883,0
1485087414.647,33.691,13.672,31.250,32.715,42.480,0
1485087414.651,36.621,19.531,39.551,38.086,77.637,0
1485087414.655,38.574,49.805,48.340,43.457,45.898,0
1485087414.659,32.227,51.758,50.781,38.086,3.418,0
1485087414.662,27.344,36.621,43.945,28.809,9.277,0
1485087414.666,32.715,39.551,44.922,30.762,42.969,0
1485087414.670,34.668,46.875,55.176,38.086,56.641,0
1485087414.674,37.598,40.039,56.641,36.133,36.621,0
1485087414.678,38.086,30.273,47.363,24.902,18.066,0
1485087414.682,40.527,40.527,48.340,31.250,49.316,0
1485087414.686,44.434,41.992,54.688,41.504,46.875,0
1485087414.690,38.086,44.434,54.688,39.062,24.414,0
1485087414.694,35.645,56.152,53.223,33.203,16.602,0
1485087414.698,41.016,60.547,53.711,36.133,18.066,0
1485087414.701,43.457,60.059,59.082,46.387,12.695,0
1485087414.705,26.855,36.621,48.340,33.691,31.738,0
1485087414.709,18.066,22.461,36.133,20.020,41.016,0
1485087414.713,27.832,41.992,45.898,32.715,46.875,0
1485087414.717,37.598,50.293,55.664,43.457,11.719,0
1485087414.721,35.156,29.785,48.828,39.551,-17.090,0
1485087414.725,32.715,35.645,41.016,34.668,22.461,0
1485087414.729,35.156,50.781,45.410,38.086,39.551,0
1485087414.733,34.668,47.363,48.828,37.598,36.621,0
1485087414.737,30.762,51.758,49.316,33.203,27.832,0
1485087414.741,33.691,41.504,48.340,32.715,35.156,0
1485087414.744,39.551,25.879,52.246,36.133,20.508,0
1485087414.748,29.297,31.738,48.828,30.273,9.277,0
1485087414.752,18.555,26.855,38.574,26.367,30.273,0
1485087414.756,22.949,17.090,38.086,30.273,43.945,0
1485087414.760,32.715,33.691,46.875,37.109,28.320,0
1485087414.764,32.715,42.480,45.410,37.109,12.695,0
1485087414.768,16.602,32.227,27.832,24.902,45.410,0
1485087414.772,26.855,35.645,35.156,32.227,59.570,0
1485087414.776,41.504,44.434,44.922,42.969,35.156,0
1485087414.780,36.133,54.199,37.109,45.410,30.273,0
1485087414.784,34.180,51.758,31.738,41.992,59.570,0
1485087414.787,47.363,43.457,41.016,44.922,64.453,0
1485087414.791,49.805,36.133,49.805,48.340,20.508,0
1485087414.795,41.504,39.062,50.293,45.410,10.742,0
1485087414.799,40.039,44.922,49.316,45.410,14.160,0
1485087414.803,33.203,48.828,45.410,41.992,26.855,0
1485087414.807,37.598,49.805,51.758,48.828,12.695,0
1485087414.811,40.039,39.062,51.758,46.875,-17.578,0
1485087414.815,30.273,45.410,44.922,39.062,14.648,0
1485087414.819,29.785,44.434,46.387,41.992,57.129,0
1485087414.823,29.785,36.621,42.480,35.645,34.668,0
1485087414.826,23.926,38.574,36.621,27.832,-4.395,0
1485087414.830,30.762,40.039,41.016,34.668,5.371,0
1485087414.834,30.762,39.551,47.852,44.922,11.719,0
1485087414.838,23.926,28.809,45.898,41.016,31.250,0
1485087414.842,33.203,39.062,48.828,38.574,18.066,0
1485087414.846,35.645,51.270,48.340,39.551,9.766,0
1485087414.850,37.109,50.781,50.781,47.852,28.320,0
1485087414.854,31.738,46.875,50.293,44.922,2.441,0
1485087414.858,20.020,32.227,36.133,27.344,15.625,0
1485087414.862,24.902,26.367,38.086,25.391,34.668,0
1485087414.866,31.738,24.902,49.316,43.945,16.602,0
1485087414.869,24.414,35.645,45.410,45.410,-8.301,0
1485087414.873,17.090,35.156,38.086,30.762,18.066,0
1485087414.877,30.273,30.273,46.875,37.598,44.434,0
1485087414.881,32.715,37.109,49.316,41.504,2.930,0
1485087414.885,34.668,45.410,52.734,41.992,16.113,0
1485087414.889,46.387,42.480,53.223,41.992,13.184,0
1485087414.893,47.363,32.715,40.039,33.203,-2.930,0
1485087414.897,47.852,40.527,42.969,34.668,12.207,0
1485087414.901,42.969,40.527,41.992,36.621,20.020,0
1485087414.905,35.645,22.461,35.156,31.250,31.738,0
1485087414.909,44.922,30.273,48.828,41.992,19.043,0
1485087414.912,42.480,40.039,50.293,50.293,2.930,0
1485087414.916,30.273,31.250,41.992,41.504,20.020,0
1485087414.920,23.926,30.273,33.691,38.086,56.641,0
1485087414.924,29.785,32.715,34.180,48.828,50.781,0
1485087414.928,28.809,35.156,41.016,48.340,41.504,0
1485087414.932,27.832,35.645,43.945,41.504,45.410,0
1485087414.936,34.180,40.527,53.223,49.316,26.855,0
1485087414.940,26.855,26.367,46.387,48.340,10.742,0
1485087414.944,30.273,20.996,41.992,46.387,21.973,0
1485087414.948,40.039,32.715,46.875,48.828,25.391,0
1485087414.951,40.527,36.133,46.387,49.805,24.902,0
1485087414.955,38.086,45.410,51.270,54.688,33.203,0
1485087414.959,46.875,51.270,59.082,58.105,16.113,0
1485087414.963,45.410,37.109,50.781,54.688,19.043,0
1485087414.967,45.410,41.016,47.363,53.223,48.828,0
1485087414.971,56.641,50.293,59.082,61.035,21.973,0
1485087414.975,61.035,47.363,58.594,65.918,1.465,0
1485087414.979,57.617,35.156,50.293,62.988,1.465,0
1485087414.983,49.805,20.508,48.828,60.547,28.320,0
1485087414.987,42.480,26.367,47.363,60.547,23.926,0
1485087414.991,33.203,23.438,35.645,51.758,-3.418,0
1485087414.994,32.227,16.602,29.297,41.992,9.766,0
1485087414.998,41.992,20.996,37.598,51.270,36.621,0
1485087415.002,47.852,13.184,34.668,52.246,64.453,0
1485087415.006,49.316,21.973,31.250,46.387,72.754,0
1485087415.010,43.457,15.625,27.832,38.574,99.121,0
1485087415.014,41.504,13.184,33.203,36.621,111.816,0
1485087415.018,36.621,34.180,39.062,36.621,55.664,0
1485087415.022,29.297,30.762,36.621,29.297,47.852,0
1485087415.026,29.785,24.414,37.109,27.344,76.172,0
1485087415.030,34.180,31.250,37.109,33.691,42.480,0
1485087415.034,32.715,36.133,42.480,38.086,14.160,0
1485087415.037,26.367,30.273,37.109,25.879,34.180,0
1485087415.041,27.832,20.996,30.762,18.555,37.109,0
1485087415.045,29.785,16.602,38.086,30.273,26.367,0
1485087415.049,31.738,25.879,44.434,33.691,11.719,0
1485087415.053,28.320,26.367,43.945,30.273,20.996,0
1485087415.057,26.855,31.738,39.062,33.691,43.945,0
1485087415.061,27.344,30.762,34.668,30.273,30.762,0
1485087415.065,25.391,21.973,34.180,26.855,40.527,0
1485087415.069,23.438,23.926,36.133,26.855,47.363,0
1485087415.073,34.668,28.320,43.945,35.156,29.297,0
1485087415.076,47.363,42.480,51.758,44.922,5.371,0
1485087415.080,38.086,33.691,38.086,34.180,-32.227,0
1485087415.084,26.367,20.996,21.484,24.902,31.250,0
1485087415.088,30.762,26.367,20.996,28.320,88.867,0
1485087415.092,38.574,21.973,31.250,37.598,8.789,0
1485087415.096,40.039,26.855,35.645,38.574,-17.090,0
1485087415.100,49.316,41.992,36.133,45.410,26.855,0
1485087415.104,53.223,41.992,33.691,51.270,33.203,0
1485087415.108,53.223,33.691,32.227,44.434,50.781,0
1485087415.112,59.570,35.645,40.527,44.434,29.297,0
1485087415.116,56.152,45.898,44.922,48.340,20.996,0
1485087415.119,50.781,49.316,48.828,52.734,19.531,0
1485087415.123,39.062,10.742,33.203,39.551,22.461,0
1485087415.127,33.691,-6.348,20.508,24.902,22.949,0
1485087415.131,34.180,19.531,29.785,30.762,23.438,0
1485087415.135,35.645,38.574,41.992,42.969,14.160,0
1485087415.139,30.273,37.109,34.668,37.109,-6.836,0
1485087415.143,21.484,20.508,21.973,20.996,21.484,0
1485087415.147,25.391,22.949,27.344,26.855,28.809,0
1485087415.151,40.039,30.273,42.969,43.945,34.668,0
1485087415.155,38.086,21.973,48.340,46.387,21.973,0
1485087415.159,26.367,4.395,38.086,33.203,23.438,0
1485087415.162,39.551,14.160,43.457,45.410,35.645,0
1485087415.166,48.340,23.926,52.246,57.129,39.062,0
1485087415.170,44.922,27.344,59.570,56.152,55.664,0
1485087415.174,36.133,32.227,50.781,48.828,21.484,0
1485087415.178,33.203,22.949,39.062,41.016,-2.930,0
1485087415.182,45.410,23.926,51.270,52.734,-0.488,0
1485087415.186,46.387,23.926,57.129,59.082,-18.555,0
1485087415.190,41.504,20.020,50.293,51.270,0.000,0
1485087415.194,44.434,30.762,55.176,52.246,44.922,0
1485087415.198,48.828,35.156,61.035,58.594,50.781,0
1485087415.201,56.641,38.086,60.547,65.918,64.941,0
1485087415.205,62.012,40.527,58.594,66.895,44.434,0
1485087415.209,59.082,42.480,59.082,66.406,-12.207,0
1485087415.213,54.688,34.668,53.711,62.500,-18.066,0
1485087415.217,51.270,27.832,48.340,58.594,3.418,0
1485087415.221,50.781,34.668,46.875,56.152,16.602,0
1485087415.225,59.082,34.668,49.805,62.012,3.906,0
1485087415.229,64.941,35.645,52.246,66.895,-12.207,0
1485087415.233,54.688,28.809,42.969,58.594,7.812,0
1485087415.237,59.082,23.438,41.992,58.105,42.969,0
1485087415.241,68.359,31.250,46.387,63.965,36.621,0
1485087415.244,58.594,31.738,36.621,61.523,7.324,0
1485087415.248,55.176,27.832,38.574,58.594,30.273,0
1485087415.252,55.176,32.715,47.363,61.035,53.711,0
1485087415.256,49.316,29.785,41.016,56.152,45.898,0
1485087415.260,50.293,25.879,33.691,50.781,57.129,0
1485087415.264,59.082,32.227,42.969,56.152,63.965,0
1485087415.268,47.852,26.855,42.969,49.316,36.621,0
1485087415.272,48.340,35.156,41.992,47.852,38.086,0
1485087415.276,51.270,36.133,42.969,48.828,32.715,0
1485087415.280,42.969,22.949,32.227,41.992,32.715,0
1485087415.284,43.945,28.320,34.180,44.922,42.480,0
1485087415.287,39.551,37.109,37.109,42.480,0.488,0
1485087415.291,33.691,28.809,34.180,35.156,-2.441,0
1485087415.295,41.016,23.926,39.551,41.016,12.695,0
1485087415.299,48.340,28.320,45.410,53.711,15.137,0
1485087415.303,38.086,24.414,40.039,50.781,21.484,0
1485087415.307,33.203,20.020,38.574,43.457,15.137,0
1485087415.311,38.574,21.973,41.016,46.875,13.672,0
1485087415.315,37.598,22.949,39.062,47.363,20.020,0
1485087415.319,43.457,22.461,47.363,52.246,13.672,0
1485087415.323,43.945,28.320,46.387,53.223,1.465,0
1485087415.326,37.598,32.227,39.551,48.340,34.668,0
1485087415.330,41.992,35.645,45.410,58.105,33.691,0
1485087415.334,50.781,37.598,53.711,67.871,-3.906,0
1485087415.338,44.922,25.879,40.527,56.641,22.461,0
1485087415.342,44.434,20.996,31.738,54.688,54.199,0
1485087415.346,52.246,29.785,43.457,66.406,33.691,0
1485087415.350,54.199,35.156,51.758,71.777,34.668,0
1485087415.354,57.129,39.551,51.758,71.777,58.594,0
1485087415.358,58.594,32.227,46.387,68.359,41.992,0
1485087415.362,57.617,25.391,48.828,73.730,33.691,0
1485087415.366,53.223,36.133,52.734,74.707,22.949,0
1485087415.369,44.922,38.086,44.922,62.988,30.273,0
1485087415.373,56.641,45.898,50.781,69.336,57.617,0
1485087415.377,56.152,44.922,53.711,68.848,72.754,0
1485087415.381,45.898,41.992,53.711,63.965,55.176,0
1485087415.385,41.504,41.504,50.781,61.035,44.434,0
1485087415.389,35.645,32.227,49.805,55.664,62.988,0
1485087415.393,38.086,32.227,51.758,53.711,26.367,0
1485087415.397,30.762,32.227,43.945,42.480,31.738,0
1485087415.401,40.039,42.480,51.270,45.410,64.453,0
1485087415.405,45.410,53.223,52.734,46.387,41.504,0
1485087415.409,36.621,47.363,45.898,41.992,31.738,0
1485087415.412,35.156,39.062,43.457,41.504,20.020,0
1485087415.416,32.227,36.621,41.016,37.598,33.203,0
1485087415.420,37.109,35.156,48.828,47.852,55.176,0
1485087415.424,40.039,43.457,52.734,55.176,17.090,0
1485087415.428,29.785,42.480,42.969,47.852,29.785,0
1485087415.432,37.598,43.945,57.617,58.105,42.969,0
1485087415.436,38.574,31.250,61.035,61.035,20.020,0
1485087415.440,32.227,23.926,51.758,54.199,24.414,0
1485087415.444,26.855,27.832,49.805,47.852,29.785,0
1485087415.448,21.484,31.738,44.922,45.410,63.477,0
1485087415.451,35.156,47.852,57.617,62.988,42.969,0
1485087415.455,31.250,31.738,52.734,56.152,1.465,0
1485087415.459,15.625,30.273,35.645,35.645,-10.742,0
1485087415.463,22.949,42.969,46.387,44.922,30.762,0
1485087415.467,30.762,39.062,52.734,52.246,20.996,0
1485087415.471,24.902,28.320,39.062,38.574,7.324,0
1485087415.475,26.855,24.414,39.551,36.621,31.250,0
1485087415.479,33.691,36.133,50.293,45.898,27.344,0
1485087415.483,31.738,42.480,52.246,41.016,-0.488,0
1485087415.487,28.809,32.715,50.293,37.598,-21.973,0
1485087415.491,31.250,17.090,49.805,40.039,-2.930,0
1485087415.494,32.227,32.227,45.898,39.551,-13.672,0
1485087415.498,26.367,39.551,42.969,32.227,6.836,0
1485087415.502,19.531,27.344,39.062,23.438,27.832,0
1485087415.506,19.043,28.320,38.574,25.391,37.109,0
1485087415.510,25.879,35.645,46.387,33.691,6.348,0
1485087415.514,24.902,35.645,47.852,38.574,-34.180,0
1485087415.518,16.113,24.902,35.645,31.250,6.836,0
1485087415.522,17.578,28.320,33.691,25.391,20.020,0
1485087415.526,29.297,31.738,46.387,36.621,8.301,0
1485087415.530,29.785,27.344,48.828,40.527,18.066,0
1485087415.534,19.531,24.902,41.016,30.762,29.297,0
1485087415.537,20.508,28.320,39.551,27.832,60.547,0
1485087415.541,25.391,31.738,34.668,26.367,64.941,0
1485087415.545,31.738,28.809,42.969,34.668,3.906,0
1485087415.549,32.715,30.762,48.340,37.598,1.465,0
1485087415.553,36.621,28.809,44.922,33.203,52.734,0
1485087415.557,42.969,34.668,48.828,37.109,46.387,0
1485087415.561,39.062,37.598,41.016,30.273,-12.695,0
1485087415.565,37.598,37.598,33.203,25.879,11.719,0
1485087415.569,46.875,43.945,44.922,35.645,47.363,0
1485087415.573,47.852,37.109,49.316,39.062,22.461,0
1485087415.576,48.340,31.738,46.387,39.062,34.180,0
1485087415.580,55.176,40.527,49.805,45.410,54.199,0
1485087415.584,57.129,43.457,59.570,55.176,38.086,0
1485087415.588,59.570,40.527,61.035,56.641,47.363,0
1485087415.592,59.082,43.945,55.176,59.570,49.316,0
1485087415.596,55.664,39.062,50.293,60.059,35.645,0
1485087415.600,60.547,45.898,57.129,66.895,35.156,0
1485087415.604,62.012,42.480,62.988,74.707,12.695,0
1485087415.608,48.828,14.160,43.457,55.176,1.953,0
1485087415.612,50.781,21.973,36.133,47.363,19.043,0
1485087415.616,63.965,44.434,50.293,62.500,41.016,0
1485087415.619,58.105,40.527,47.852,55.176,47.363,0
1485087415.623,42.480,34.180,32.715,42.969,19.531,0
1485087415.627,45.898,26.367,31.738,47.363,20.508,0
1485087415.631,51.758,31.738,42.480,54.688,15.625,0
1485087415.635,49.316,36.133,47.363,54.199,8.301,0
1485087415.639,45.898,11.719,41.992,46.875,23.438,0
1485087415.643,47.852,23.438,42.969,44.922,6.348,0
1485087415.647,46.875,41.504,42.480,40.527,-0.488,0
1485087415.651,34.668,25.879,31.738,31.738,33.691,0
1485087415.655,35.156,19.043,30.273,30.762,48.340,0
1485087415.659,44.922,31.250,37.598,40.039,32.715,0
1485087415.662,53.711,31.738,45.898,50.293,3.906,0
1485087415.666,49.805,26.367,42.480,43.945,-17.090,0
1485087415.670,44.434,30.273,35.645,37.598,16.113,0
1485087415.674,49.316,33.691,45.410,47.852,28.320,0
1485087415.678,46.875,33.691,48.340,50.293,1.465,0
1485087415.682,38.574,34.668,38.086,46.875,17.578,0
1485087415.686,35.156,18.066,38.574,48.340,28.809,0
1485087415.690,36.133,7.324,39.062,42.969,-2.930,0
1485087415.694,36.621,5.859,39.551,44.434,-6.836,0
1485087415.698,36.133,1.465,38.574,49.316,-2.930,0
1485087415.701,34.668,15.625,36.621,52.246,33.691,0
1485087415.705,43.457,25.879,45.898,66.895,27.832,0
1485087415.709,48.340,15.625,52.734,69.824,22.461,0
1485087415.713,48.340,12.695,52.246,64.453,41.016,0
1485087415.717,57.129,32.227,55.664,76.660,39.062,0
1485087415.721,48.828,24.902,35.645,69.824,52.246,0
1485087415.725,43.457,5.371,17.090,58.594,51.758,0
1485087415.729,35.645,4.883,14.160,57.129,47.363,0
1485087415.733,29.297,14.160,18.066,54.688,39.062,0
1485087415.737,33.691,20.996,24.902,61.035,16.113,0
1485087415.741,37.109,18.555,22.461,59.570,20.996,0
1485087415.744,44.434,29.785,22.949,56.641,43.457,0
1485087415.748,41.992,32.715,23.926,60.059,44.922,0
1485087415.752,37.109,27.832,22.949,53.223,52.734,0
1485087415.756,36.621,26.855,22.949,48.340,55.664,0
1485087415.760,41.992,30.762,26.367,54.199,45.898,0
1485087415.764,41.992,31.250,33.691,58.105,37.598,0
1485087415.768,40.039,35.156,35.156,59.082,39.062,0
1485087415.772,42.480,36.133,34.180,56.641,58.105,0
1485087415.776,47.363,34.180,40.039,58.105,46.875,0
1485087415.780,51.270,49.316,46.387,61.035,14.160,0
1485087415.784,50.293,58.594,50.293,62.500,6.348,0
1485087415.787,40.527,39.062,37.598,50.293,7.324,0
1485087415.791,40.039,24.902,31.738,43.457,46.387,0
1485087415.795,48.340,31.738,45.410,58.105,39.062,0
1485087415.799,43.945,36.621,46.875,63.965,39.551,0
1485087415.803,36.621,35.645,44.922,61.035,45.898,0
1485087415.807,40.039,14.648,43.945,59.570,41.992,0
1485087415.811,48.828,23.438,48.340,65.430,45.898,0
1485087415.815,40.527,44.434,47.852,65.918,5.859,0
1485087415.819,27.832,40.527,34.180,52.734,0.488,0
1485087415.823,32.715,41.016,35.156,52.246,12.207,0
1485087415.826,45.410,49.805,48.340,66.895,-17.578,0
1485087415.830,43.457,49.805,48.828,65.918,-4.395,0
1485087415.834,34.180,36.133,42.969,57.617,20.508,0
1485087415.838,32.715,30.273,39.551,56.152,41.504,0
1485087415.842,43.457,42.969,40.039,59.570,24.902,0
1485087415.846,44.434,42.969,38.574,61.035,9.277,0
1485087415.850,37.598,29.297,40.039,63.965,44.922,0
1485087415.854,43.457,32.715,49.316,69.336,47.363,0
1485087415.858,42.480,35.156,47.363,64.453,9.277,0
1485087415.862,36.133,20.996,36.621,55.176,19.043,0
1485087415.866,46.875,37.109,43.457,59.570,29.785,0
1485087415.869,48.828,47.852,55.176,63.965,12.695,0
1485087415.873,42.969,32.715,50.781,60.547,2.930,0
1485087415.877,34.180,22.461,39.062,49.805,-26.855,0
1485087415.881,29.785,18.066,35.645,41.504,9.277,0
1485087415.885,40.527,20.020,43.945,50.293,35.156,0
1485087415.889,36.621,17.578,39.551,50.781,-0.488,0
1485087415.893,29.785,13.184,27.344,39.062,13.184,0
1485087415.897,33.691,16.602,26.367,40.527,32.715,0
1485087415.901,33.203,17.090,33.203,46.387,40.039,0
1485087415.905,33.203,19.531,38.574,44.434,26.367,0
1485087415.909,35.156,8.789,32.227,42.969,39.062,0
1485087415.912,38.574,8.301,34.180,50.781,88.867,0
1485087415.916,41.992,34.668,48.828,60.547,53.711,0
1485087415.920,36.133,37.598,45.898,56.641,7.324,0
1485087415.924,29.785,28.320,33.203,41.992,10.254,0
1485087415.928,33.691,21.484,32.715,38.086,38.574,0
1485087415.932,43.945,26.367,43.457,50.781,48.828,0
1485087415.936,41.504,23.438,42.969,52.246,17.090,0
1485087415.940,32.715,8.789,30.273,42.969,28.320,0
1485087415.944,37.598,17.090,32.227,48.340,29.785,0
1485087415.948,40.527,26.367,37.598,55.176,-5.371,0
1485087415.951,32.715,21.973,33.203,49.805,5.371,0
1485087415.955,29.297,12.695,28.809,50.781,48.828,0
1485087415.959,37.598,17.090,40.039,63.965,45.898,0
1485087415.963,45.410,25.879,50.293,71.777,19.043,0
1485087415.967,43.945,24.414,52.734,73.730,24.902,0
1485087415.971,36.133,29.785,50.781,65.430,41.016,0
1485087415.975,42.480,33.691,47.363,63.477,22.949,0
1485087415.979,52.734,33.203,49.316,70.801,-45.410,0
1485087415.983,42.969,22.949,42.480,62.500,-41.016,0
1485087415.987,41.992,27.344,47.363,65.918,28.320,0
1485087415.991,48.828,35.645,55.664,73.242,36.621,0
1485087415.994,43.945,25.391,47.852,62.988,25.879,0
1485087415.998,44.434,19.531,46.875,61.035,25.391,0
1485087416.002,46.875,28.809,50.293,64.453,22.949,0
1485087416.006,45.410,29.297,48.340,62.988,14.648,0
1485087416.010,49.316,33.691,47.852,66.406,36.133,0
1485087416.014,50.781,35.645,54.199,66.895,23.438,0
1485087416.018,45.898,28.809,54.199,66.895,9.766,0
1485087416.022,51.270,36.133,58.105,73.730,-10.254,0
1485087416.026,42.969,36.621,54.688,61.523,-34.668,0
1485087416.030,32.715,26.367,38.574,44.922,8.789,0
1485087416.034,42.969,33.691,46.875,52.734,16.602,0
1485087416.037,40.527,28.809,53.711,53.223,16.602,0
1485087416.041,36.133,15.137,47.363,49.805,19.531,0
1485087416.045,40.039,22.461,46.387,52.734,3.418,0
1485087416.049,41.504,30.273,51.270,58.594,44.922,0
1485087416.053,42.480,35.645,51.758,62.500,16.602,0
1485087416.057,42.480,27.344,46.387,60.059,-13.184,0
1485087416.061,45.410,28.320,45.410,59.082,21.973,0
1485087416.065,41.504,39.062,44.434,58.594,39.551,0
1485087416.069,31.250,36.133,42.480,57.129,31.250,0
1485087416.073,21.973,19.531,35.645,47.852,8.301,0
1485087416.076,27.344,17.090,34.668,45.898,28.320,0
1485087416.080,38.086,25.391,40.527,52.734,35.645,0
1485087416.084,32.227,20.020,39.551,52.246,49.316,0
1485087416.088,32.227,16.602,34.668,50.293,66.406,0
1485087416.092,35.645,11.230,33.203,50.293,26.855,0
1485087416.096,34.668,10.742,40.039,53.223,-6.836,0
1485087416.100,35.156,12.695,40.039,50.781,23.926,0
1485087416.104,30.762,11.719,35.645,45.410,51.758,0
1485087416.108,27.344,17.578,35.156,42.480,50.781,0
1485087416.112,29.785,24.414,34.668,41.504,34.668,0
1485087416.116,26.367,21.973,30.762,40.527,20.996,0
1485087416.119,25.879,24.414,26.367,39.062,58.594,0
1485087416.123,32.715,29.785,34.180,45.410,59.570,0
1485087416.127,28.320,12.207,29.785,40.039,33.203,0
1485087416.131,33.203,19.531,33.691,42.969,24.414,0
1485087416.135,41.992,37.109,46.387,55.664,40.039,0
1485087416.139,41.016,34.180,48.828,57.617,44.434,0
1485087416.143,39.062,16.602,46.875,55.664,41.992,0
1485087416.147,41.504,21.484,47.363,54.688,45.410,0
1485087416.151,36.621,32.227,43.945,48.828,58.105,0
1485087416.155,33.203,38.574,41.992,50.293,44.922,0
1485087416.159,36.621,42.969,43.945,54.688,3.906,0
1485087416.162,41.992,27.344,41.016,48.340,16.113,0
1485087416.166,44.922,26.367,46.875,50.293,56.152,0
1485087416.170,39.551,28.320,51.758,54.688,52.246,0
1485087416.174,39.062,13.672,47.363,49.316,28.320,0
1485087416.178,37.109,13.672,46.387,43.945,49.805,0
1485087416.182,36.621,31.250,47.363,46.387,36.133,0
1485087416.186,35.645,31.738,42.969,41.992,15.137,0
1485087416.190,38.086,25.879,44.434,43.945,13.184,0
1485087416.194,38.086,25.391,41.992,41.992,35.645,0
1485087416.198,35.645,33.203,38.574,40.527,68.848,0
1485087416.201,46.387,37.598,47.852,55.176,48.340,0
1485087416.205,43.945,28.320,44.434,52.734,15.137,0
1485087416.209,41.992,33.203,41.016,47.852,-3.906,0
1485087416.213,46.875,39.062,47.363,52.734,22.949,0
1485087416.217,50.293,49.805,49.805,59.570,21.484,0
1485087416.221,41.504,27.832,37.109,51.270,-13.672,0
1485087416.225,35.156,11.230,28.320,39.062,1.953,0
1485087416.229,37.598,28.809,38.574,44.922,26.367,0
1485087416.233,29.297,31.250,43.945,46.387,0.488,0
1485087416.237,27.832,28.809,35.645,41.504,12.207,0
1485087416.241,37.109,31.738,33.691,42.480,40.527,0
1485087416.244,45.898,32.715,40.527,47.852,21.484,0
1485087416.248,46.875,42.969,47.852,55.664,4.883,0
1485087416.252,40.527,48.340,45.410,55.176,11.719,0
1485087416.256,41.992,40.039,30.762,44.434,22.461,0
1485087416.260,48.828,40.527,36.133,52.246,41.992,0
1485087416.264,45.898,37.109,39.062,53.711,15.625,0
1485087416.268,39.062,34.668,30.273,45.410,20.508,0
1485087416.272,41.992,46.875,41.992,51.270,59.570,0
1485087416.276,48.340,43.457,47.363,54.199,38.086,0
1485087416.280,45.410,32.715,48.340,55.664,-5.371,0
1485087416.284,35.645,33.203,39.551,46.387,21.973,0
1485087416.287,40.039,35.156,39.062,47.852,59.570,0
1485087416.291,41.992,37.109,40.527,49.805,28.320,0
1485087416.295,40.527,35.645,30.273,40.527,20.508,0
1485087416.299,43.457,37.109,35.645,41.504,29.785,0
1485087416.303,36.621,40.039,34.668,39.551,46.387,0
1485087416.307,40.039,41.992,32.227,41.992,36.621,0
1485087416.311,43.457,32.715,31.250,44.922,25.879,0
1485087416.315,36.133,21.484,25.391,38.086,22.949,0
1485087416.319,37.598,33.691,31.250,41.504,9.277,0
1485087416.323,43.945,44.434,34.180,41.992,29.297,0
1485087416.326,50.293,46.387,40.527,44.434,51.758,0
1485087416.330,49.805,48.340,47.363,51.758,55.176,0
1485087416.334,43.457,41.016,44.434,46.875,41.992,0
1485087416.338,41.992,28.809,39.551,41.504,15.137,0
1485087416.342,42.480,27.832,35.645,41.992,23.438,0
1485087416.346,47.852,36.621,43.945,47.852,32.227,0
1485087416.350,49.316,24.902,48.828,49.805,30.762,0
1485087416.354,44.922,20.508,47.852,45.898,22.461,0
1485087416.358,33.203,36.621,38.086,32.715,32.227,0
1485087416.362,30.273,41.016,33.691,32.715,36.133,0
1485087416.366,38.574,39.551,37.598,44.922,16.113,0
1485087416.369,41.504,34.180,36.621,46.387,15.137,0
1485087416.373,39.062,30.762,35.156,44.434,24.414,0
1485087416.377,42.480,26.367,35.156,43.457,37.109,0
1485087416.381,47.363,31.738,39.551,43.945,28.320,0
1485087416.385,41.016,27.832,36.133,41.016,36.621,0
1485087416.389,32.227,14.160,28.809,31.738,40.039,0
1485087416.393,33.203,25.391,37.109,34.668,14.160,0
1485087416.397,38.574,40.039,44.434,44.922,-7.324,0
1485087416.401,37.598,30.273,40.039,46.875,7.812,0
1485087416.405,37.109,15.625,36.133,40.039,50.293,0
1485087416.409,47.852,23.926,42.480,41.992,41.504,0
1485087416.412,45.898,34.668,44.922,46.875,9.277,0
1485087416.416,32.715,29.297,32.715,39.551,6.348,0
1485087416.420,29.297,27.344,29.785,36.133,24.414,0
1485087416.424,32.715,32.227,40.527,38.574,31.738,0
1485087416.428,32.227,27.832,41.016,35.645,30.273,0
1485087416.432,31.250,31.738,35.156,33.691,20.508,0
1485087416.436,32.227,36.621,32.715,33.203,22.949,0
1485087416.440,35.645,32.227,32.715,33.691,25.391,0
1485087416.444,36.621,19.531,37.598,38.086,18.555,0
1485087416.448,28.809,16.602,31.738,32.715,30.762,0
1485087416.451,26.855,28.809,28.320,28.320,45.898,0
1485087416.455,41.016,42.480,40.527,41.504,51.758,0
1485087416.459,43.457,39.062,42.480,43.945,33.691,0
1485087416.463,39.062,35.645,41.016,44.434,17.578,0
1485087416.467,37.598,41.016,36.133,45.898,27.344,0
1485087416.471,32.227,38.086,28.809,37.109,32.227,0
1485087416.475,29.785,31.738,24.902,29.785,41.016,0
1485087416.479,30.273,31.250,23.926,28.320,62.988,0
1485087416.483,30.273,38.574,32.715,33.691,78.125,0
1485087416.487,32.227,43.945,44.434,41.016,57.129,0
1485087416.491,37.109,38.574,47.852,42.480,-0.977,0
1485087416.494,30.762,17.578,35.156,34.668,9.277,0
1485087416.498,29.785,23.926,31.250,36.621,26.855,0
1485087416.502,31.738,39.062,32.715,38.086,42.480,0
1485087416.506,26.855,37.109,29.785,31.738,69.824,0
1485087416.510,27.344,34.668,27.832,30.273,45.410,0
1485087416.514,31.738,31.738,29.297,32.227,32.227,0
1485087416.518,22.461,23.926,22.949,22.461,13.184,0
1485087416.522,16.113,19.531,15.137,15.625,3.418,0
1485087416.526,27.344,18.555,20.508,21.973,4.883,0
1485087416.530,39.062,27.344,34.668,31.738,-4.395,0
1485087416.534,39.062,37.109,40.039,40.527,15.625,0
1485087416.537,31.250,36.621,26.367,34.668,30.273,0
1485087416.541,39.062,41.992,28.320,36.133,48.828,0
1485087416.545,53.223,52.734,45.898,50.293,30.273,0
1485087416.549,51.270,60.059,43.457,49.316,15.137,0
1485087416.553,41.016,47.852,27.832,34.668,42.480,0
1485087416.557,36.621,36.621,23.926,30.762,46.387,0
1485087416.561,37.598,37.598,30.273,36.133,38.574,0
1485087416.565,39.062,47.852,40.527,43.945,13.184,0
1485087416.569,33.203,31.738,36.133,36.133,-3.418,0
1485087416.573,34.180,14.648,28.809,29.785,9.277,0
1485087416.576,43.945,41.504,37.598,45.898,10.742,0
1485087416.580,38.086,45.410,35.156,42.969,4.883,0
1485087416.584,29.785,26.855,31.250,31.250,45.410,0
1485087416.588,36.133,42.480,40.527,40.527,62.988,0
1485087416.592,35.645,51.270,38.574,43.457,12.207,0
1485087416.596,43.457,42.969,36.621,37.109,17.090,0
1485087416.600,50.781,45.410,31.250,38.086,68.359,0
1485087416.604,47.852,50.293,15.625,39.551,83.984,0
1485087416.608,54.688,52.246,11.230,43.945,41.504,0
1485087416.612,48.828,49.316,12.207,43.945,27.832,0
1485087416.616,39.551,48.340,17.090,45.898,44.922,0
1485087416.619,38.574,45.410,25.879,54.199,41.992,0
1485087416.623,38.086,37.109,28.809,55.176,54.688,0
1485087416.627,41.504,38.086,34.180,50.781,22.949,0
1485087416.631,45.898,45.898,40.527,48.340,6.836,0
1485087416.635,39.062,51.758,43.457,47.363,8.789,0
1485087416.639,35.645,49.316,45.898,46.875,-3.906,0
1485087416.643,40.039,40.527,41.992,46.875,3.906,0
1485087416.647,41.504,44.922,41.504,51.270,54.688,0
1485087416.651,47.363,58.105,54.688,62.012,42.969,0
1485087416.655,47.852,49.316,51.758,60.059,-2.441,0
1485087416.659,41.992,34.668,41.504,48.340,2.930,0
1485087416.662,40.039,36.621,44.434,44.922,34.180,0
1485087416.666,35.156,24.902,46.875,44.922,48.828,0
1485087416.670,33.203,28.809,44.434,41.016,41.016,0
1485087416.674,28.320,35.645,34.668,28.809,41.016,0
1485087416.678,28.320,28.320,32.227,24.414,37.598,0
1485087416.682,31.250,35.156,37.598,33.203,34.180,0
1485087416.686,31.738,31.250,36.621,33.691,19.043,0
1485087416.690,34.180,19.531,29.297,26.855,26.367,0
1485087416.694,42.969,19.043,36.133,37.598,37.109,0
1485087416.698,42.969,24.902,36.621,41.992,13.184,0
1485087416.701,32.227,20.996,30.762,33.691,4.883,0
1485087416.705,30.273,25.391,30.273,29.297,29.297,0
1485087416.709,34.180,34.180,31.738,31.250,21.973,0
1485087416.713,39.062,40.039,42.969,36.621,18.555,0
1485087416.717,35.156,45.898,46.387,39.551,44.922,0
1485087416.721,27.344,38.086,34.668,29.785,52.734,0
1485087416.725,33.691,33.203,37.109,34.668,35.156,0
1485087416.729,41.992,34.180,45.410,45.410,-0.977,0
1485087416.733,35.156,28.809,36.133,39.551,-7.812,0
1485087416.737,38.086,37.109,36.133,45.410,55.664,0
1485087416.741,46.387,45.898,42.969,54.688,68.359,0
1485087416.744,46.875,42.969,46.875,51.758,34.668,0
1485087416.748,44.922,44.434,48.828,49.805,46.387,0
1485087416.752,43.945,44.922,46.875,52.734,50.293,0
1485087416.756,42.480,39.062,43.457,44.922,30.273,0
1485087416.760,37.598,32.715,35.645,40.039,28.809,0
1485087416.764,39.062,30.273,36.621,47.363,33.203,0
1485087416.768,42.480,37.109,44.434,50.781,33.691,0
1485087416.772,48.828,48.828,47.363,53.223,9.277,0
1485087416.776,44.922,48.340,46.875,50.781,-29.297,0
1485087416.780,40.527,35.645,46.387,47.363,6.836,0
1485087416.784,45.410,42.480,50.781,54.688,34.180,0
1485087416.787,43.945,49.805,47.363,50.781,20.020,0
1485087416.791,46.387,49.316,46.387,48.340,20.996,0
1485087416.795,51.758,53.223,52.246,56.641,33.203,0
1485087416.799,52.246,46.387,53.223,56.152,23.926,0
1485087416.803,41.992,35.156,46.387,48.828,24.902,0
1485087416.807,35.156,39.551,42.969,42.969,26.367,0
1485087416.811,30.762,44.922,43.945,41.992,11.230,0
1485087416.815,30.762,48.828,45.410,43.457,-10.742,0
1485087416.819,36.621,41.504,49.316,47.363,-16.113,0
1485087416.823,31.250,33.203,43.457,43.945,-4.883,0
1485087416.826,35.645,37.109,41.016,44.434,8.789,0
1485087416.830,42.969,33.691,51.270,57.129,1.953,0
1485087416.834,37.109,32.715,45.898,54.199,-15.137,0
1485087416.838,36.133,40.039,37.109,43.945,39.062,0
1485087416.842,45.898,51.758,45.410,52.246,57.617,0
1485087416.846,51.270,56.152,50.293,57.617,14.648,0
1485087416.850,42.480,48.828,44.434,47.363,11.719,0
1485087416.854,38.086,51.270,44.434,43.457,24.902,0
1485087416.858,40.039,42.480,47.363,43.457,42.969,0
1485087416.862,41.504,37.598,47.363,44.434,35.156,0
1485087416.866,34.180,38.086,47.363,43.457,22.461,0
1485087416.869,22.461,31.250,35.156,28.809,43.945,0
1485087416.873,29.785,45.410,35.645,28.320,36.133,0
1485087416.877,38.574,45.898,41.504,31.250,22.949,0
1485087416.881,29.297,40.039,41.992,33.691,20.996,0
1485087416.885,19.531,36.621,38.086,31.250,48.340,0
1485087416.889,24.414,29.297,36.621,26.367,51.270,0
1485087416.893,27.832,11.719,39.062,29.785,15.137,0
1485087416.897,25.391,6.836,34.180,33.203,5.371,0
1485087416.901,23.926,25.879,33.691,37.598,33.203,0
1485087416.905,28.809,37.598,38.086,41.992,46.875,0
1485087416.909,28.320,40.039,34.668,41.992,13.672,0
1485087416.912,22.949,36.621,24.414,30.762,14.648,0
1485087416.916,31.250,37.109,35.156,33.691,53.223,0
1485087416.920,39.551,36.621,49.805,49.805,43.457,0
1485087416.924,36.621,23.438,44.434,45.898,24.414,0
1485087416.928,34.180,12.695,37.598,38.574,37.109,0
1485087416.932,33.203,26.855,36.133,40.039,45.898,0
1485087416.936,28.809,44.434,36.133,38.574,27.832,0
1485087416.940,22.949,37.598,31.250,33.203,20.508,0
1485087416.944,23.438,37.109,29.785,34.668,2.930,0
1485087416.948,23.438,31.738,30.762,36.621,10.254,0
1485087416.951,26.855,23.926,39.062,40.039,51.270,0
1485087416.955,24.902,32.227,37.109,33.691,46.875,0
1485087416.959,23.926,35.156,32.715,28.320,45.410,0
1485087416.963,33.691,42.969,43.457,40.039,28.809,0
1485087416.967,29.785,39.062,45.410,40.039,18.555,0
1485087416.971,21.484,30.273,41.504,31.250,9.277,0
1485087416.975,22.949,37.598,38.086,32.227,20.996,0
1485087416.979,31.250,47.363,43.457,41.016,24.902,0
1485087416.983,32.715,41.504,48.828,46.875,14.648,0
1485087416.987,32.227,32.227,42.969,43.457,42.969,0
1485087416.991,40.039,25.391,46.875,43.945,46.387,0
1485087416.994,44.434,32.715,59.082,48.828,57.129,0
1485087416.998,43.457,53.223,62.500,56.641,29.297,0
1485087417.002,39.551,55.176,53.223,55.664,8.789,0
1485087417.006,35.156,44.434,44.434,42.969,35.645,0
1485087417.010,37.109,36.621,44.434,40.039,21.973,0
1485087417.014,40.039,37.109,44.922,41.016,-1.465,0
1485087417.018,27.344,31.250,37.598,34.668,21.484,0
1485087417.022,29.297,25.879,35.645,32.715,41.016,0
1485087417.026,41.992,31.250,41.504,38.086,32.715,0
1485087417.030,28.320,29.785,33.203,32.227,14.160,0
1485087417.034,25.879,29.785,31.738,28.320,49.316,0
1485087417.037,39.551,37.598,41.992,43.457,58.105,0
1485087417.041,38.086,38.574,38.086,41.504,6.836,0
1485087417.045,39.551,34.180,41.016,40.527,-6.348,0
1485087417.049,41.016,31.250,42.969,43.945,17.578,0
1485087417.053,34.668,27.832,37.109,35.156,24.414,0
1485087417.057,37.598,34.668,43.457,42.969,19.043,0
1485087417.061,46.387,44.434,46.387,49.316,-4.883,0
1485087417.065,46.875,46.387,41.992,41.992,21.973,0
1485087417.069,50.293,37.109,44.922,45.898,41.504,0
1485087417.073,45.410,26.367,44.922,41.504,12.695,0
1485087417.076,35.156,31.250,35.156,18.066,32.715,0
1485087417.080,32.715,40.039,33.691,-4.395,50.293,0
1485087417.084,38.086,36.133,38.086,-9.277,33.691,0
1485087417.088,41.016,25.391,39.551,2.930,20.020,0
1485087417.092,38.574,31.250,41.016,17.090,18.555,0
1485087417.096,36.621,31.738,36.133,25.391,39.062,0
1485087417.100,35.645,21.973,43.945,39.062,28.320,0
1485087417.104,36.621,24.902,52.734,44.434,10.742,0
1485087417.108,34.180,30.762,41.016,36.133,19.043,0
1485087417.112,41.992,34.180,42.480,41.016,41.992,0
1485087417.116,45.898,42.480,61.035,57.129,33.691,0
1485087417.119,32.715,39.551,56.152,50.781,4.883,0
1485087417.123,26.367,35.156,42.969,41.992,15.625,0
1485087417.127,36.621,47.852,48.340,51.270,20.508,0
1485087417.131,35.156,46.387,46.387,52.246,25.391,0
1485087417.135,32.715,29.297,44.922,49.805,39.062,0
1485087417.139,39.062,23.438,46.387,49.316,13.672,0
1485087417.143,33.203,31.250,40.527,39.551,9.766,0
1485087417.147,37.598,52.246,47.363,47.852,25.879,0
1485087417.151,39.062,44.922,48.340,50.293,32.715,0
1485087417.155,40.039,23.438,42.480,42.480,29.297,0
1485087417.159,48.828,40.527,48.828,45.410,6.836,0
1485087417.162,43.457,43.945,47.852,43.457,1.465,0
1485087417.166,39.062,33.691,46.387,42.480,19.531,0
1485087417.170,37.598,29.297,46.875,40.527,35.645,0
1485087417.174,43.457,28.809,43.945,40.527,38.574,0
1485087417.178,43.945,26.367,41.992,41.016,46.875,0
1485087417.182,40.039,27.344,48.340,45.410,24.414,0
1485087417.186,41.016,35.645,47.852,47.363,6.348,0
1485087417.190,46.387,47.363,47.363,46.875,25.879,0
1485087417.194,53.223,58.105,61.035,61.523,10.742,0
1485087417.198,50.781,54.199,58.105,61.035,9.766,0
1485087417.201,45.898,45.410,51.270,55.664,34.180,0
1485087417.205,53.223,50.293,61.035,58.105,20.996,0
1485087417.209,51.758,46.875,62.988,58.105,35.156,0
1485087417.213,45.898,29.785,57.129,52.734,43.945,0
1485087417.217,45.410,39.062,55.176,46.387,36.133,0
1485087417.221,41.504,51.758,60.059,41.992,39.062,0
1485087417.225,43.945,36.621,58.594,40.527,35.645,0
1485087417.229,44.434,35.645,51.758,42.969,24.414,0
1485087417.233,38.086,49.316,53.711,45.410,26.855,0
1485087417.237,39.062,59.082,59.570,53.223,20.020,0
1485087417.241,34.180,44.922,54.199,48.828,-8.301,0
1485087417.244,29.297,25.879,48.340,40.527,23.438,0
1485087417.248,35.645,37.109,62.500,52.246,51.758,0
1485087417.252,21.973,36.133,55.176,49.316,74.707,0
1485087417.256,21.484,29.785,43.457,47.363,71.777,0
1485087417.260,27.344,31.250,45.898,47.363,47.852,0
1485087417.264,28.320,39.062,54.199,51.270,42.480,0
1485087417.268,22.461,26.367,49.805,50.781,83.008,0
1485087417.272,22.461,18.555,45.898,48.340,82.520,0
1485087417.276,34.668,34.180,52.734,49.316,42.969,0
1485087417.280,38.574,42.969,60.547,48.828,49.316,0
1485087417.284,33.691,45.898,58.105,52.246,27.832,0
1485087417.287,23.438,34.180,38.086,39.551,9.277,0
1485087417.291,22.461,34.668,31.250,31.250,24.902,0
1485087417.295,33.691,46.387,42.969,46.387,15.137,0
1485087417.299,33.203,43.457,50.293,50.781,16.602,0
1485087417.303,21.973,36.133,41.504,40.527,36.621,0
1485087417.307,28.320,37.598,41.016,44.922,47.363,0
1485087417.311,36.133,30.762,47.363,49.805,60.547,0
1485087417.315,33.203,32.715,45.410,45.410,53.223,0
1485087417.319,33.691,43.945,42.480,47.852,49.805,0
1485087417.323,34.668,52.734,42.480,46.387,48.340,0
1485087417.326,35.156,57.617,49.316,46.387,10.254,0
1485087417.330,28.320,47.852,45.410,41.992,11.719,0
1485087417.334,26.367,41.016,41.016,37.109,43.945,0
1485087417.338,30.762,40.527,42.480,40.527,40.527,0
1485087417.342,40.039,42.969,42.480,43.945,11.230,0
1485087417.346,41.016,48.340,49.316,48.828,43.457,0
1485087417.350,39.551,52.246,55.664,53.223,69.336,0
1485087417.354,44.922,43.945,54.688,51.270,45.898,0
1485087417.358,46.875,45.898,52.246,44.434,50.293,0
1485087417.362,49.316,65.430,55.176,45.410,44.434,0
1485087417.366,44.922,60.059,45.898,36.621,38.574,0
1485087417.369,45.410,56.641,46.387,31.250,21.973,0
1485087417.373,48.828,61.523,49.805,36.133,22.461,0
1485087417.377,44.922,52.246,36.621,26.855,22.461,0
1485087417.381,39.062,41.016,34.180,22.949,41.504,0
1485087417.385,35.156,29.297,38.086,30.273,43.945,0
1485087417.389,26.367,32.227,38.086,30.273,12.207,0
1485087417.393,17.578,44.922,40.527,25.391,14.648,0
1485087417.397,19.531,45.898,39.062,24.902,22.949,0
1485087417.401,29.297,42.969,45.410,37.109,17.090,0
1485087417.405,35.645,42.969,51.758,43.945,27.344,0
1485087417.409,39.551,38.574,48.828,43.945,30.762,0
1485087417.412,47.852,48.340,57.617,52.734,36.621,0
1485087417.416,48.340,43.945,61.523,55.664,11.719,0
1485087417.420,39.551,34.180,52.246,46.875,0.977,0
1485087417.424,39.551,46.387,47.852,39.551,35.156,0
1485087417.428,40.039,49.805,42.969,32.715,50.781,0
1485087417.432,37.109,50.781,44.434,38.086,28.320,0
1485087417.436,21.973,42.480,41.504,37.598,30.273,0
1485087417.440,14.160,19.531,28.320,23.926,57.129,0
1485087417.444,27.832,11.230,36.621,28.320,50.781,0
1485087417.448,33.203,21.973,42.969,32.227,38.086,0
1485087417.451,27.344,33.203,37.598,30.273,58.594,0
1485087417.455,26.367,33.691,39.062,33.203,70.312,0
1485087417.459,29.297,37.109,36.133,35.156,23.438,0
1485087417.463,35.156,40.039,37.598,39.062,7.324,0
1485087417.467,35.156,29.785,42.969,38.574,17.090,0
1485087417.471,40.039,29.297,47.363,39.062,29.785,0
1485087417.475,50.293,31.250,55.664,44.434,37.598,0
1485087417.479,52.246,37.598,52.734,44.434,14.160,0
1485087417.483,44.922,35.645,35.156,36.133,31.250,0
1485087417.487,45.898,38.086,39.551,42.969,65.918,0
1485087417.491,46.387,44.434,45.898,45.898,30.762,0
1485087417.494,43.945,39.062,37.598,36.621,15.137,0
1485087417.498,46.387,44.922,34.180,34.180,37.109,0
1485087417.502,46.387,47.363,41.992,39.062,57.129,0
1485087417.506,42.480,38.574,39.551,37.598,65.918,0
1485087417.510,48.828,36.621,41.016,42.969,17.090,0
1485087417.514,56.152,34.180,44.434,50.781,-2.441,0
1485087417.518,53.223,37.598,42.480,44.922,23.926,0
1485087417.522,49.316,29.785,41.992,43.457,-7.324,0
1485087417.526,44.922,19.531,38.574,41.016,-17.090,0
1485087417.530,42.969,25.879,35.156,38.086,-2.441,0
1485087417.534,49.316,39.551,39.062,46.875,22.461,0
1485087417.537,51.758,43.945,44.434,48.828,25.879,0
1485087417.541,47.363,33.691,39.551,39.062,4.883,0
1485087417.545,46.875,28.320,40.527,36.133,32.715,0
1485087417.549,52.246,41.992,54.199,47.363,36.621,0
1485087417.553,45.898,44.434,51.270,46.387,34.180,0
1485087417.557,40.039,32.715,37.109,39.551,50.781,0
1485087417.561,47.363,30.273,40.039,48.340,20.508,0
1485087417.565,48.828,36.133,47.363,51.270,-12.695,0
1485087417.569,44.922,28.320,45.410,46.387,-16.113,0
1485087417.573,40.039,12.695,36.621,43.457,-1.953,0
1485087417.576,44.922,18.555,37.598,43.945,20.996,0
1485087417.580,49.805,46.387,48.340,53.223,4.395,0
1485087417.584,45.410,55.176,49.316,55.176,0.977,0
1485087417.588,41.016,41.992,41.016,43.945,31.250,0
1485087417.592,43.945,41.504,43.945,49.805,37.109,0
1485087417.596,43.457,47.363,46.387,53.223,2.930,0
1485087417.600,46.875,44.434,51.270,52.246,5.371,0
1485087417.604,62.012,38.086,63.965,61.523,19.531,0
1485087417.608,64.941,49.316,61.035,63.477,11.719,0
1485087417.612,54.199,60.547,50.293,54.688,2.930,0
1485087417.616,40.039,51.758,38.574,41.992,0.000,0
1485087417.619,35.156,40.039,32.227,36.133,21.973,0
1485087417.623,39.062,41.016,39.062,39.551,18.066,0
1485087417.627,37.109,36.133,38.086,39.551,29.297,0
1485087417.631,37.109,35.645,36.133,39.062,48.828,0
1485087417.635,40.527,44.434,42.969,37.598,31.250,0
1485087417.639,47.363,48.340,47.363,45.898,29.297,0
1485087417.643,42.480,43.945,41.504,44.434,12.695,0
1485087417.647,40.039,46.387,38.574,40.527,20.020,0
1485087417.651,44.922,43.945,37.109,45.898,64.453,0
1485087417.655,46.387,44.922,39.551,45.898,53.223,0
1485087417.659,43.945,43.945,42.969,44.922,30.273,0
1485087417.662,42.969,43.457,43.457,45.898,7.812,0
1485087417.666,47.852,53.711,50.781,54.688,19.531,0
1485087417.670,44.434,46.387,55.176,57.129,19.531,0
1485087417.674,37.109,39.551,45.898,41.992,-6.836,0
1485087417.678,31.738,31.738,34.180,32.715,33.691,0
1485087417.682,28.320,26.367,33.691,41.016,67.871,0
1485087417.686,20.996,29.297,32.227,43.457,62.988,0
1485087417.690,22.949,20.020,29.785,38.574,51.270,0
1485087417.694,29.785,14.648,30.273,38.574,18.066,0
1485087417.698,30.762,28.320,37.598,44.434,44.434,0
1485087417.701,34.668,38.086,42.480,56.641,51.758,0
1485087417.705,30.762,35.156,31.738,50.781,9.277,0
1485087417.709,26.855,36.133,20.996,39.062,4.395,0
1485087417.713,33.203,41.992,26.855,45.898,46.875,0
1485087417.717,32.715,43.457,39.551,56.641,52.734,0
1485087417.721,25.391,33.691,41.992,53.711,22.949,0
1485087417.725,21.484,19.043,36.133,44.922,32.227,0
1485087417.729,22.949,27.344,35.156,48.828,34.180,0
1485087417.733,29.297,35.156,37.598,47.363,28.320,0
1485087417.737,28.809,37.109,33.691,37.598,15.137,0
1485087417.741,23.926,40.527,26.367,33.691,17.578,0
1485087417.744,27.344,46.875,29.297,41.992,36.621,0
1485087417.748,30.762,52.246,33.203,47.363,6.836,0
1485087417.752,19.043,41.992,25.391,39.062,-10.254,0
1485087417.756,14.160,28.809,16.113,35.156,28.809,0
1485087417.760,21.973,27.832,22.461,39.551,10.254,0
1485087417.764,28.320,44.434,36.133,48.340,-14.160,0
1485087417.768,17.090,40.039,31.250,41.992,4.883,0
1485087417.772,17.578,30.762,27.344,38.574,19.531,0
1485087417.776,30.762,42.480,37.109,49.805,21.484,0
1485087417.780,35.645,41.504,42.969,54.199,23.926,0
1485087417.784,31.738,40.527,41.992,45.898,50.293,0
1485087417.787,24.902,44.922,44.434,45.410,58.594,0
1485087417.791,23.438,45.410,41.992,41.504,37.109,0
1485087417.795,25.879,41.016,40.039,36.133,17.090,0
1485087417.799,21.484,27.832,37.598,37.109,11.230,0
1485087417.803,17.578,33.203,33.203,38.086,15.625,0
1485087417.807,30.762,41.016,42.480,49.805,13.672,0
1485087417.811,25.391,35.645,41.016,44.922,-15.137,0
1485087417.815,20.508,31.738,33.691,37.109,6.836,0
1485087417.819,30.273,35.156,36.133,44.922,36.621,0
1485087417.823,29.785,30.762,33.203,44.922,8.789,0
1485087417.826,33.203,24.902,30.762,42.969,-25.391,0
1485087417.830,40.039,28.809,35.645,47.363,16.113,0
1485087417.834,38.086,36.621,37.598,49.316,51.270,0
1485087417.838,27.832,39.551,32.715,40.527,26.855,0
1485087417.842,29.785,38.086,31.738,37.598,37.109,0
1485087417.846,26.855,40.039,29.785,40.527,24.414,0
1485087417.850,26.855,38.086,32.715,43.457,0.488,0
1485087417.854,34.668,29.785,34.668,43.945,-1.465,0
1485087417.858,30.273,15.137,26.855,34.668,1.465,0
1485087417.862,33.203,9.277,30.762,34.180,39.551,0
1485087417.866,40.039,14.160,36.621,41.016,48.828,0
1485087417.869,33.203,18.555,27.344,36.621,19.531,0
1485087417.873,30.273,22.949,21.973,32.227,25.879,0
1485087417.877,39.551,25.391,27.344,34.668,30.762,0
1485087417.881,45.410,40.039,39.062,43.457,17.578,0
1485087417.885,38.574,42.480,46.387,44.922,-2.441,0
1485087417.889,37.598,27.344,38.574,38.574,25.391,0
1485087417.893,43.945,31.250,36.133,39.062,32.227,0
1485087417.897,50.781,36.621,45.410,44.922,9.766,0
1485087417.901,51.758,31.250,44.922,40.527,13.184,0
1485087417.905,50.781,24.902,37.109,31.738,60.547,0
1485087417.909,57.129,27.832,41.016,36.621,57.129,0
1485087417.912,59.570,34.668,49.805,36.621,38.574,0
1485087417.916,61.523,45.410,60.547,38.574,44.434,0
1485087417.920,55.176,43.457,59.570,39.551,37.109,0
1485087417.924,57.129,38.086,62.500,44.922,0.977,0
1485087417.928,52.734,31.250,64.453,51.758,-1.953,0
1485087417.932,36.133,24.414,58.105,45.410,13.672,0
1485087417.936,31.250,25.391,55.664,39.062,16.602,0
1485087417.940,35.645,19.043,53.711,43.945,43.945,0
1485087417.944,36.621,23.438,52.246,48.340,39.062,0
1485087417.948,38.086,35.156,52.734,47.852,19.043,0
1485087417.951,41.016,38.574,56.641,52.246,52.734,0
1485087417.955,39.551,37.109,60.547,52.246,29.785,0
1485087417.959,36.133,30.762,56.641,44.434,-3.906,0
1485087417.963,36.621,26.855,50.781,42.969,46.387,0
1485087417.967,35.645,32.715,44.922,42.480,60.547,0
1485087417.971,36.621,38.574,39.062,41.992,35.156,0
1485087417.975,42.480,36.621,40.039,44.922,9.277,0
1485087417.979,45.898,39.062,42.480,45.410,24.902,0
1485087417.983,50.293,49.316,48.828,51.270,20.508,0
1485087417.987,57.129,47.852,53.223,58.594,6.836,0
1485087417.991,54.688,36.621,45.410,49.805,8.301,0
1485087417.994,50.781,34.668,26.855,41.504,24.414,0
1485087417.998,58.594,49.805,22.461,51.270,57.129,0
1485087418.002,56.152,61.035,23.438,53.223,42.480,0
1485087418.006,54.199,46.875,11.719,42.969,27.832,0
1485087418.010,57.129,35.156,15.625,45.898,45.410,0
1485087418.014,50.293,38.574,25.879,50.781,53.223,0
1485087418.018,41.504,37.598,25.391,46.875,57.617,0
1485087418.022,41.504,31.250,20.508,44.434,37.109,0
1485087418.026,46.875,29.297,20.020,48.340,20.996,0
1485087418.030,49.805,31.738,28.320,51.270,24.902,0
1485087418.034,45.410,39.551,32.715,52.734,-19.531,0
1485087418.037,38.086,40.039,27.344,46.875,-26.855,0
1485087418.041,42.480,37.598,27.344,47.363,35.645,0
1485087418.045,48.828,44.434,34.180,55.176,33.203,0
1485087418.049,38.086,42.969,36.133,52.734,28.320,0
1485087418.053,30.273,37.598,33.691,47.363,25.879,0
1485087418.057,39.062,37.598,35.645,51.758,30.273,0
1485087418.061,58.105,42.480,48.828,67.383,30.273,0
1485087418.065,56.641,36.621,54.199,70.801,13.672,0
1485087418.069,34.668,22.461,36.621,52.246,56.641,0
1485087418.073,38.086,31.250,32.227,35.156,57.129,0
1485087418.076,48.340,47.363,41.016,36.621,0.488,0
1485087418.080,34.180,41.016,43.945,39.551,-13.184,0
1485087418.084,19.043,28.320,39.062,37.109,21.484,0
1485087418.088,27.344,31.738,42.480,49.805,30.273,0
1485087418.092,37.109,35.156,49.316,61.523,10.254,0
1485087418.096,35.156,19.043,48.828,57.129,5.371,0
1485087418.100,36.621,21.973,52.246,58.594,33.691,0
1485087418.104,39.062,37.109,54.199,63.965,49.805,0
1485087418.108,39.062,25.879,53.711,64.941,9.277,0
1485087418.112,39.062,25.391,53.223,65.918,-9.766,0
1485087418.116,45.410,44.922,52.246,70.801,27.832,0
1485087418.119,45.898,50.781,54.688,72.754,45.898,0
1485087418.123,44.922,46.875,60.547,71.289,17.090,0
1485087418.127,48.340,36.133,56.641,62.500,12.695,0
1485087418.131,49.805,35.645,51.270,59.570,24.414,0
1485087418.135,52.734,58.594,64.453,70.312,24.902,0
1485087418.139,51.758,65.430,69.336,74.707,18.555,0
1485087418.143,37.109,38.574,45.410,56.152,15.625,0
1485087418.147,35.156,33.691,38.574,47.852,50.781,0
1485087418.151,48.340,48.340,46.875,62.012,14.648,0
1485087418.155,52.734,36.133,46.875,63.477,-3.906,0
1485087418.159,58.105,32.715,50.293,62.988,2.441,0
1485087418.162,68.359,49.316,57.129,70.312,-21.484,0
1485087418.166,65.918,51.758,60.059,72.266,-10.742,0
1485087418.170,60.547,45.410,54.199,69.336,-15.625,0
1485087418.174,49.805,34.668,40.527,51.270,0.977,0
1485087418.178,48.828,35.156,49.316,46.387,27.832,0
1485087418.182,53.711,43.945,62.500,54.688,-6.836,0
1485087418.186,50.781,37.109,58.594,52.734,-26.367,0
1485087418.190,47.852,32.715,54.688,49.805,22.461,0
1485087418.194,59.082,33.203,64.453,57.129,27.344,0
1485087418.198,62.500,29.785,68.848,63.477,2.441,0
1485087418.201,56.641,40.527,66.895,63.965,-4.883,0
1485087418.205,62.500,49.316,62.988,62.500,32.227,0
1485087418.209,64.453,42.480,60.059,58.594,32.227,0
1485087418.213,55.664,35.156,56.152,53.711,10.254,0
1485087418.217,52.246,33.203,49.316,55.176,29.297,0
1485087418.221,55.664,23.926,48.828,56.152,12.695,0
1485087418.225,55.176,29.297,52.246,57.617,-0.488,0
1485087418.229,52.246,31.250,49.805,54.688,-8.301,0
1485087418.233,45.410,28.809,44.922,47.852,1.953,0
1485087418.237,43.457,32.715,43.945,45.410,41.992,0
1485087418.241,54.199,40.039,54.199,55.664,48.828,0
1485087418.244,63.965,38.086,58.594,66.406,32.227,0
1485087418.248,62.988,36.621,55.176,60.059,40.527,0
1485087418.252,60.059,52.246,53.223,56.641,66.406,0
1485087418.256,59.082,52.246,47.363,57.617,62.012,0
1485087418.260,57.129,47.852,44.434,55.176,29.297,0
1485087418.264,59.570,42.480,46.875,61.523,34.180,0
1485087418.268,52.734,34.180,41.504,61.035,58.105,0
1485087418.272,55.664,47.363,47.852,64.941,33.691,0
1485087418.276,63.477,52.246,42.969,64.941,2.930,0
1485087418.280,58.105,30.273,21.973,54.199,24.902,0
1485087418.284,53.711,34.180,22.949,56.641,67.383,0
1485087418.287,51.270,52.734,28.809,49.805,55.176,0
1485087418.291,49.805,51.270,22.461,27.832,23.926,0
1485087418.295,47.363,41.992,17.090,19.043,42.969,0
1485087418.299,50.781,44.434,34.668,39.062,49.805,0
1485087418.303,54.199,45.410,43.457,56.152,23.438,0
1485087418.307,54.199,47.363,38.574,55.176,23.926,0
1485087418.311,51.270,45.898,36.621,56.641,23.926,0
1485087418.315,58.105,50.293,38.574,63.965,37.109,0
1485087418.319,59.570,54.199,42.969,61.035,18.066,0
1485087418.323,43.457,41.504,28.320,39.062,6.348,0
1485087418.326,45.898,43.945,21.484,40.527,23.438,0
1485087418.330,53.711,49.805,33.691,53.223,24.414,0
1485087418.334,46.875,47.852,33.203,57.129,52.246,0
1485087418.338,42.480,44.434,33.203,61.035,45.410,0
1485087418.342,42.480,39.551,34.180,57.617,-9.277,0
1485087418.346,41.016,45.410,31.738,55.664,-0.488,0
1485087418.350,38.574,49.805,33.203,52.246,53.223,0
1485087418.354,37.598,38.086,34.180,53.711,36.621,0
1485087418.358,37.598,34.180,32.715,57.129,10.742,0
1485087418.362,37.598,41.992,34.180,57.129,6.836,0
1485087418.366,32.227,42.480,33.203,55.176,4.883,0
1485087418.369,27.832,19.043,25.879,47.363,22.461,0
1485087418.373,40.527,26.855,33.203,55.664,42.480,0
1485087418.377,39.551,52.246,34.668,54.688,34.180,0
1485087418.381,37.109,50.293,39.551,58.105,38.086,0
1485087418.385,34.180,42.969,41.992,60.059,46.387,0
1485087418.389,30.273,38.574,40.527,55.176,44.922,0
1485087418.393,34.180,38.574,43.945,55.664,61.035,0
1485087418.397,44.434,51.758,54.199,65.918,48.828,0
1485087418.401,50.781,55.664,57.617,70.312,40.039,0
1485087418.405,49.316,50.781,45.898,59.082,33.691,0
1485087418.409,45.898,42.480,37.109,51.270,-8.301,0
1485087418.412,42.480,28.320,28.320,42.969,-14.648,0
1485087418.416,44.922,35.156,27.344,41.504,11.230,0
1485087418.420,43.945,35.645,30.762,43.457,20.508,0
1485087418.424,40.527,27.832,30.762,42.480,17.578,0
1485087418.428,40.039,33.691,30.762,43.945,13.672,0
1485087418.432,38.574,41.016,33.203,48.340,37.109,0
1485087418.436,41.504,40.527,41.016,51.270,27.344,0
1485087418.440,42.969,31.250,38.574,48.828,17.090,0
1485087418.444,45.898,24.902,30.762,47.852,41.016,0
1485087418.448,57.129,41.016,40.527,56.152,52.734,0
1485087418.451,60.547,49.805,53.711,64.941,62.988,0
1485087418.455,62.988,41.992,50.781,72.266,21.484,0
1485087418.459,53.223,38.574,36.133,63.965,-7.812,0
1485087418.463,43.945,30.273,33.691,61.523,40.527,0
1485087418.467,51.758,37.598,43.457,71.777,54.199,0
1485087418.471,51.270,38.086,37.109,62.500,30.273,0
1485087418.475,53.223,38.574,33.203,49.316,36.621,0
1485087418.479,57.617,42.969,42.480,56.641,35.156,0
1485087418.483,53.223,26.855,44.434,64.453,25.391,0
1485087418.487,57.129,28.809,46.875,66.895,41.992,0
1485087418.491,59.082,42.480,45.898,64.941,61.035,0
1485087418.494,55.664,36.621,44.922,62.500,52.734,0
1485087418.498,48.828,28.320,48.340,58.594,19.043,0
1485087418.502,39.062,37.109,41.504,50.293,32.715,0
1485087418.506,42.969,36.133,37.598,52.734,48.340,0
1485087418.510,52.246,36.621,45.410,62.500,42.969,0
1485087418.514,48.340,37.598,48.828,62.500,30.273,0
1485087418.518,31.738,20.020,41.504,40.527,21.973,0
1485087418.522,26.855,1.465,31.738,14.160,52.246,0
1485087418.526,34.180,7.812,30.762,20.020,34.668,0
1485087418.530,35.645,16.602,34.668,32.715,14.160,0
1485087418.534,36.133,11.230,34.180,37.598,41.016,0
1485087418.537,37.109,12.695,32.227,44.922,42.480,0
1485087418.541,38.574,14.160,34.180,47.852,21.973,0
1485087418.545,43.945,22.949,41.504,56.641,14.160,0
1485087418.549,41.504,27.344,39.551,57.617,19.531,0
1485087418.553,31.250,20.508,32.227,47.852,41.992,0
1485087418.557,41.504,19.043,41.504,53.223,24.414,0
1485087418.561,43.457,15.137,42.480,49.805,7.324,0
1485087418.565,33.691,11.230,33.203,40.039,10.742,0
1485087418.569,34.668,14.648,29.785,41.016,18.066,0
1485087418.573,34.668,25.879,27.832,41.992,37.598,0
1485087418.576,38.086,32.715,28.320,43.457,6.836,0
1485087418.580,41.504,32.715,31.250,44.922,5.859,0
1485087418.584,46.875,34.668,40.527,52.246,35.645,0
1485087418.588,49.805,25.879,38.086,52.246,36.133,0
1485087418.592,53.711,16.113,40.039,52.246,4.395,0
1485087418.596,46.875,12.695,41.504,51.270,8.301,0
1485087418.600,40.039,24.414,41.992,52.246,52.246,0
1485087418.604,44.922,40.527,46.875,56.152,41.504,0
1485087418.608,43.945,41.992,37.598,48.828,1.953,0
1485087418.612,47.852,43.945,40.527,50.293,7.324,0
1485087418.616,44.434,41.992,48.828,56.641,42.480,0
1485087418.619,30.762,29.297,44.922,53.223,42.480,0
1485087418.623,34.668,23.438,47.852,54.199,45.410,0
1485087418.627,50.293,25.391,55.664,62.012,32.715,0
1485087418.631,52.734,26.367,58.594,67.871,19.043,0
1485087418.635,47.852,41.016,54.688,63.965,40.527,0
1485087418.639,49.805,46.387,50.781,55.176,48.828,0
1485087418.643,52.246,31.250,45.898,49.316,47.852,0
