timestamps,TP9,AF7,AF8,TP10,Right AUX,Marker0
1490530175.448,44.922,-9.277,-35.156,-15.625,58.594,0
1490530175.452,44.922,-1.953,-6.348,-5.371,6.348,0
1490530175.456,15.625,-27.344,-7.324,-28.320,9.277,0
1490530175.460,5.371,-28.320,-46.875,-64.453,16.602,0
1490530175.464,-0.488,-40.527,-42.480,-65.918,11.719,0
1490530175.468,-19.531,-37.598,-24.902,-65.430,24.902,0
1490530175.472,-13.672,-19.043,-32.227,-58.105,42.969,0
1490530175.476,36.621,37.109,-1.465,-10.742,41.504,0
1490530175.480,41.992,38.086,21.973,4.395,60.059,0
1490530175.483,23.438,-21.973,-9.766,-6.348,60.059,0
1490530175.487,17.090,-43.457,-27.344,-23.438,23.926,0
1490530175.491,-2.930,-20.996,-10.742,-34.668,9.766,0
1490530175.495,-23.926,-27.832,-15.137,-43.457,41.016,0
1490530175.499,-13.672,-24.902,-22.949,-38.086,34.668,0
1490530175.503,10.742,33.203,-10.254,-17.578,-10.742,0
1490530175.507,22.461,16.113,17.090,-6.348,7.812,0
1490530175.511,38.574,-4.395,12.207,-4.883,55.176,0
1490530175.515,34.180,-10.254,-9.277,-28.809,51.270,0
1490530175.519,22.461,-32.227,-8.301,-43.945,6.348,0
1490530175.522,39.062,1.953,6.836,-12.695,-9.277,0
1490530175.526,23.926,43.457,-10.254,-20.996,44.434,0
1490530175.530,24.414,29.785,-10.742,-13.184,75.684,0
1490530175.534,40.527,39.551,11.719,12.695,11.230,0
1490530175.538,32.715,12.207,-12.207,-5.859,2.930,0
1490530175.542,4.395,-63.965,-20.020,-24.414,66.895,0
1490530175.546,-1.953,-35.156,-12.207,-29.785,80.566,0
1490530175.550,30.273,15.625,2.930,-14.648,60.547,0
1490530175.554,43.945,36.133,8.789,-5.371,23.438,0
1490530175.558,51.758,20.508,1.953,-8.789,49.316,0
1490530175.562,34.180,11.719,-12.207,-13.672,64.941,0
1490530175.565,51.758,65.430,-3.418,13.184,17.578,0
1490530175.569,79.102,41.504,14.648,20.508,0.488,0
1490530175.573,63.965,3.906,0.000,0.977,28.809,0
1490530175.577,47.852,15.625,2.930,-5.859,60.059,0
1490530175.581,29.297,-12.207,9.277,-17.578,44.922,0
1490530175.585,39.062,-3.418,6.836,-12.695,22.461,0
1490530175.589,42.480,0.488,2.441,-17.090,60.059,0
1490530175.593,57.129,27.344,8.789,5.371,64.453,0
1490530175.597,68.359,46.387,22.949,14.160,30.273,0
1490530175.601,51.758,27.832,18.066,11.719,16.113,0
1490530175.605,64.453,25.391,19.531,21.484,17.578,0
1490530175.608,55.664,11.719,16.602,3.906,28.320,0
1490530175.612,49.316,7.324,-6.348,7.324,9.277,0
1490530175.616,37.109,31.738,-4.883,4.883,-6.348,0
1490530175.620,31.250,21.484,29.785,-0.488,-4.883,0
1490530175.624,48.340,-20.996,34.180,9.766,37.598,0
1490530175.628,33.691,1.953,20.996,-4.395,55.664,0
1490530175.632,40.527,33.691,29.297,-11.719,30.273,0
1490530175.636,70.801,70.312,19.043,22.949,20.508,0
1490530175.640,70.312,52.734,-5.859,32.227,-6.348,0
1490530175.644,59.082,-1.953,8.789,5.371,25.391,0
1490530175.647,42.480,6.836,11.230,-3.418,50.293,0
1490530175.651,38.574,27.832,0.488,3.906,30.273,0
1490530175.655,41.992,45.898,20.020,7.324,19.531,0
1490530175.659,35.156,38.086,12.207,0.977,16.602,0
1490530175.663,39.551,47.363,10.742,-2.930,43.457,0
1490530175.667,25.879,42.969,10.254,-22.461,26.855,0
1490530175.671,35.645,29.785,14.160,-18.555,-32.715,0
1490530175.675,40.527,10.254,-0.977,-8.789,-6.836,0
1490530175.679,28.320,8.789,-19.043,-22.949,52.246,0
1490530175.683,33.203,29.297,19.531,-13.672,23.438,0
1490530175.687,28.320,26.855,32.715,-20.508,3.906,0
1490530175.690,34.180,51.758,17.090,-19.043,48.340,0
1490530175.694,52.734,42.480,10.742,-3.906,67.871,0
1490530175.698,62.988,31.250,12.695,0.977,30.762,0
1490530175.702,81.055,36.621,33.203,30.273,7.812,0
1490530175.706,58.105,2.441,13.184,13.184,13.672,0
1490530175.710,37.109,6.836,-8.301,-27.832,24.414,0
1490530175.714,41.992,27.344,-1.465,-31.250,36.133,0
1490530175.718,64.941,32.715,8.789,-16.602,37.109,0
1490530175.722,86.426,43.457,18.066,-5.859,52.246,0
1490530175.726,67.383,55.176,26.855,-15.625,41.016,0
1490530175.730,40.039,21.484,29.785,-13.184,17.090,0
1490530175.733,26.367,3.906,15.137,-13.184,-1.465,0
1490530175.737,29.297,32.227,20.020,-13.184,2.441,0
1490530175.741,46.387,44.922,35.645,12.695,33.691,0
1490530175.745,24.902,16.113,17.090,16.113,25.879,0
1490530175.749,7.324,-10.254,-0.488,-5.371,-9.766,0
1490530175.753,31.250,9.766,17.090,-1.953,-1.465,0
1490530175.757,47.363,50.781,39.062,5.371,42.969,0
1490530175.761,52.246,58.594,49.805,19.043,50.293,0
1490530175.765,41.992,23.926,33.203,13.672,38.574,0
1490530175.769,21.973,9.277,7.812,-17.578,37.109,0
1490530175.772,20.996,-2.930,8.789,-9.277,45.410,0
1490530175.776,30.273,19.043,-2.930,-9.277,54.688,0
1490530175.780,52.734,32.715,-14.648,-15.137,54.688,0
1490530175.784,59.570,22.461,10.254,-1.953,41.992,0
1490530175.788,34.180,28.320,12.207,-3.418,29.785,0
1490530175.792,62.012,40.039,21.973,-0.488,41.016,0
1490530175.796,91.309,40.527,51.758,15.625,26.855,0
1490530175.800,77.637,32.715,54.199,11.719,18.555,0
1490530175.804,42.969,45.898,30.762,-11.230,2.441,0
1490530175.808,32.227,40.039,6.836,-12.695,-15.137,0
1490530175.812,49.316,22.949,-1.953,-6.836,54.688,0
1490530175.815,49.316,6.836,-6.836,-12.207,68.359,0
1490530175.819,56.641,19.531,-5.859,-6.348,17.578,0
1490530175.823,67.871,54.199,-3.418,-4.395,19.043,0
1490530175.827,65.430,30.762,22.949,-14.160,52.246,0
1490530175.831,55.176,24.414,28.320,-22.949,52.246,0
1490530175.835,20.020,10.742,3.906,-39.062,7.812,0
1490530175.839,48.828,18.555,20.508,-19.043,-4.395,0
1490530175.843,110.840,105.469,45.898,27.832,38.574,0
1490530175.847,84.961,104.980,32.715,0.488,38.086,0
1490530175.851,49.316,16.113,6.348,-25.391,2.441,0
1490530175.855,21.973,-2.441,-10.254,-21.973,6.836,0
1490530175.858,32.227,19.531,0.977,-23.926,56.641,0
1490530175.862,50.293,28.320,13.184,-20.996,69.824,0
1490530175.866,32.715,42.480,12.695,-19.043,38.574,0
1490530175.870,46.875,36.621,22.949,-5.859,13.672,0
1490530175.874,53.711,16.113,40.039,8.301,54.199,0
1490530175.878,55.664,6.836,27.344,-7.324,51.758,0
1490530175.882,43.945,-4.883,-5.371,-27.832,2.930,0
1490530175.886,33.203,5.371,-0.488,-7.324,16.113,0
1490530175.890,36.621,41.016,36.133,5.371,8.301,0
1490530175.894,27.832,59.570,39.062,-6.836,15.625,0
1490530175.897,51.270,28.809,27.344,4.395,26.855,0
1490530175.901,62.500,29.297,27.832,-3.906,13.184,0
1490530175.905,35.156,1.465,5.371,-25.391,19.043,0
1490530175.909,34.668,-12.207,-7.324,-18.555,7.324,0
1490530175.913,42.480,17.090,11.230,-27.344,0.000,0
1490530175.917,25.879,8.789,22.461,-30.762,20.508,0
1490530175.921,10.742,-11.230,8.301,-28.320,8.789,0
1490530175.925,40.527,0.977,-3.906,-20.020,22.949,0
1490530175.929,59.570,54.688,20.996,-29.297,45.410,0
1490530175.933,66.406,83.984,34.180,-17.578,11.719,0
1490530175.937,87.402,32.715,32.227,8.789,-5.859,0
1490530175.940,58.105,14.648,8.789,-9.277,-5.859,0
1490530175.944,33.691,26.855,0.000,-20.020,8.789,0
1490530175.948,41.992,-15.137,-10.254,-38.574,11.719,0
1490530175.952,43.457,0.000,-18.555,-39.062,-16.113,0
1490530175.956,50.293,28.809,4.883,-12.695,-4.395,0
1490530175.960,48.828,13.672,15.625,-11.719,28.809,0
1490530175.964,42.969,20.996,0.977,-16.602,25.879,0
1490530175.968,40.039,6.348,4.883,-20.020,2.930,0
1490530175.972,44.922,19.531,29.297,-8.301,-17.578,0
1490530175.976,71.289,56.152,42.969,14.160,17.578,0
1490530175.980,72.754,23.438,34.668,12.695,70.801,0
1490530175.983,50.293,43.457,5.371,-4.395,28.320,0
1490530175.987,33.203,34.180,-16.602,-25.391,-25.879,0
1490530175.991,51.270,-13.184,6.836,-3.906,20.996,0
1490530175.995,57.617,15.625,19.043,-0.977,44.434,0
1490530175.999,51.758,57.617,16.602,-12.695,-1.465,0
1490530176.003,59.082,62.988,29.297,6.348,-30.762,0
1490530176.007,39.062,19.043,21.973,-4.395,17.578,0
1490530176.011,38.574,21.973,19.043,-16.113,52.734,0
1490530176.015,54.199,37.109,20.996,-9.277,37.109,0
1490530176.019,53.711,16.113,11.230,-19.043,20.020,0
1490530176.022,40.527,55.176,11.230,-25.391,25.879,0
1490530176.026,39.062,75.195,24.414,-4.395,41.016,0
1490530176.030,42.969,26.855,2.930,-2.441,37.598,0
1490530176.034,40.039,-1.465,-13.184,-15.625,-3.906,0
1490530176.038,60.547,-11.230,32.227,-6.348,5.859,0
1490530176.042,49.316,5.371,35.156,-10.254,55.176,0
1490530176.046,44.922,31.250,22.949,3.418,26.855,0
1490530176.050,65.918,41.992,44.434,17.090,-5.371,0
1490530176.054,47.852,40.527,23.926,-4.395,6.836,0
1490530176.058,17.578,28.809,-6.348,-19.043,20.996,0
1490530176.062,41.016,34.668,-0.488,-14.160,47.363,0
1490530176.065,50.781,51.270,10.254,-13.672,27.344,0
1490530176.069,47.852,97.168,15.137,-5.859,8.301,0
1490530176.073,77.148,53.223,15.137,1.953,20.020,0
1490530176.077,56.152,-22.949,-3.906,-13.672,12.207,0
1490530176.081,21.973,1.465,-7.812,-21.484,25.391,0
1490530176.085,27.344,25.879,4.883,-18.555,7.812,0
1490530176.089,33.203,20.996,22.461,-14.648,5.371,0
1490530176.093,52.246,58.105,18.066,-2.930,7.812,0
1490530176.097,55.176,60.547,15.137,-7.812,24.414,0
1490530176.101,54.199,26.855,44.434,3.418,32.715,1
1490530176.105,27.832,6.836,31.250,-19.043,0.000,0
1490530176.108,27.344,20.508,15.137,-20.020,23.926,0
1490530176.112,63.477,43.945,31.738,20.020,52.734,0
1490530176.116,58.594,60.547,30.273,6.836,28.320,0
1490530176.120,60.547,56.641,6.348,1.953,3.906,0
1490530176.124,64.453,-4.883,13.672,4.883,3.906,0
1490530176.128,71.777,3.418,33.691,9.766,35.156,0
1490530176.132,60.547,19.043,15.137,1.465,34.668,0
1490530176.136,50.293,5.371,17.090,-1.953,0.977,0
1490530176.140,52.246,35.645,18.066,8.789,14.160,0
1490530176.144,60.547,77.148,28.809,15.137,59.082,0
1490530176.147,64.453,53.223,40.527,8.789,43.457,0
1490530176.151,45.410,-8.789,15.137,-10.742,-6.836,0
1490530176.155,39.551,1.953,9.277,1.465,23.926,0
1490530176.159,60.059,15.625,13.672,17.090,61.035,0
1490530176.163,52.246,3.906,8.789,7.324,41.992,0
1490530176.167,25.879,16.602,26.855,-5.371,-0.977,0
1490530176.171,36.133,22.461,28.809,-4.395,-11.230,0
1490530176.175,51.270,44.434,27.832,-5.859,15.625,0
1490530176.179,45.410,52.246,41.016,0.000,31.738,0
1490530176.183,39.551,7.324,41.016,4.883,-3.418,0
1490530176.187,20.020,-10.254,15.625,-24.902,-9.766,0
1490530176.190,26.367,23.438,7.812,-23.438,28.809,0
1490530176.194,47.363,33.691,6.348,-7.324,23.438,0
1490530176.198,33.691,36.133,-8.301,-12.207,9.277,0
1490530176.202,30.762,30.762,4.883,-11.230,2.930,0
1490530176.206,37.598,-5.859,18.066,-4.395,12.207,0
1490530176.210,37.109,16.113,21.973,-5.859,28.320,0
1490530176.214,41.016,57.129,16.113,-9.766,26.367,0
1490530176.218,50.293,33.203,16.602,-21.973,-7.324,0
1490530176.222,75.195,34.668,30.273,1.953,-18.066,0
1490530176.226,76.660,47.852,26.855,17.578,-7.324,0
1490530176.230,46.387,18.066,-0.488,-10.742,-20.508,0
1490530176.233,42.969,-5.371,-20.020,-30.762,9.277,0
1490530176.237,53.223,-20.996,-18.555,-30.762,25.391,0
1490530176.241,61.035,58.594,-17.578,-11.230,33.691,0
1490530176.245,62.012,72.266,-7.324,0.488,55.176,0
1490530176.249,49.805,-9.277,3.906,4.395,36.133,0
1490530176.253,64.453,11.230,10.254,12.207,14.648,0
1490530176.257,74.707,35.156,19.043,14.648,41.016,0
1490530176.261,60.059,34.180,18.555,-14.160,56.152,0
1490530176.265,55.664,27.832,12.207,-22.461,25.391,0
1490530176.269,61.035,34.180,6.836,-1.953,-12.695,0
1490530176.272,48.828,29.785,9.277,-8.301,-22.949,0
1490530176.276,51.270,31.250,19.043,-10.254,26.855,0
1490530176.280,60.059,20.996,12.695,-12.695,52.246,0
1490530176.284,40.039,33.203,6.836,-18.066,20.508,0
1490530176.288,56.152,21.973,20.508,10.742,13.672,0
1490530176.292,66.895,1.465,29.297,26.855,58.105,0
1490530176.296,66.895,24.902,19.043,18.066,59.082,0
1490530176.300,58.594,27.344,-3.906,-6.836,42.480,0
1490530176.304,39.062,29.297,6.836,-20.996,32.715,0
1490530176.308,40.527,34.180,25.879,-9.277,43.945,0
1490530176.312,45.410,60.059,21.973,-9.277,45.898,0
1490530176.315,59.570,33.691,26.367,5.859,33.691,0
1490530176.319,58.594,-1.465,20.020,11.230,30.273,0
1490530176.323,40.039,-1.953,4.883,-8.301,25.391,0
1490530176.327,42.969,10.742,17.090,2.441,53.223,0
1490530176.331,37.109,41.504,38.086,12.207,30.762,0
1490530176.335,32.715,31.250,24.902,1.465,-18.066,0
1490530176.339,55.176,21.973,36.133,10.742,17.578,0
1490530176.343,58.594,35.156,56.152,18.066,45.410,0
1490530176.347,50.293,42.480,18.066,3.418,24.902,0
1490530176.351,50.781,71.777,3.418,-8.301,31.250,0
1490530176.355,58.105,63.965,12.207,3.906,35.645,0
1490530176.358,40.039,9.766,26.367,3.906,46.387,0
1490530176.362,41.016,42.480,17.578,-4.395,43.457,0
1490530176.366,74.707,59.570,10.742,6.836,14.648,0
1490530176.370,62.988,5.859,14.160,-4.395,3.418,0
1490530176.374,31.738,29.785,4.395,-24.414,19.531,0
1490530176.378,41.504,38.574,24.414,-5.859,29.785,0
1490530176.382,62.988,61.523,35.645,16.113,24.902,0
1490530176.386,53.711,77.148,13.672,6.348,26.855,0
1490530176.390,64.453,74.707,27.344,9.766,13.672,0
1490530176.394,78.125,55.176,38.574,17.090,9.277,0
1490530176.397,76.172,1.953,11.230,0.977,50.293,0
1490530176.401,63.477,28.320,16.602,-11.719,44.434,0
1490530176.405,32.715,50.293,18.555,-13.672,15.137,0
1490530176.409,55.664,55.664,9.277,5.859,24.414,0
1490530176.413,81.055,50.293,28.320,17.578,47.363,0
1490530176.417,65.430,24.414,41.504,16.602,38.574,0
1490530176.421,54.688,31.738,20.020,-3.906,-1.465,0
1490530176.425,52.734,68.848,30.273,-17.578,20.020,0
1490530176.429,51.270,39.062,31.250,-7.812,50.781,0
1490530176.433,66.895,12.207,20.996,8.789,27.344,0
1490530176.437,80.078,41.992,32.715,24.902,32.227,0
1490530176.440,61.523,19.531,38.086,11.719,17.578,0
1490530176.444,52.246,55.664,49.316,7.324,0.977,0
1490530176.448,49.316,94.238,39.551,4.883,5.371,0
1490530176.452,39.551,23.438,22.949,2.441,-0.977,0
1490530176.456,35.156,10.254,24.414,-4.395,2.441,0
1490530176.460,49.805,20.996,28.809,-13.672,34.180,0
1490530176.464,59.082,50.293,31.738,-1.465,53.223,0
1490530176.468,66.895,77.148,19.043,15.625,-11.719,0
1490530176.472,42.969,71.777,11.230,13.672,-12.695,0
1490530176.476,12.695,45.898,6.348,5.859,47.852,0
1490530176.480,42.969,10.742,4.883,14.160,21.484,0
1490530176.483,70.312,24.414,19.043,10.742,-2.930,0
1490530176.487,64.941,48.340,23.438,1.953,25.879,0
1490530176.491,41.992,52.246,12.695,-20.020,21.973,0
1490530176.495,37.109,49.316,2.930,-27.344,11.230,0
1490530176.499,47.852,24.414,4.395,-9.766,18.555,0
1490530176.503,53.223,33.691,9.277,-7.812,14.160,0
1490530176.507,56.641,55.176,0.977,-12.695,28.320,0
1490530176.511,56.152,38.574,8.301,-0.977,14.648,0
1490530176.515,52.246,18.066,-5.371,10.742,-17.090,0
1490530176.519,50.293,41.992,-10.742,-8.301,11.230,0
1490530176.522,57.617,66.895,20.020,-7.812,34.180,0
1490530176.526,68.848,43.945,37.598,22.461,34.180,0
1490530176.530,70.801,30.762,35.645,23.438,47.363,0
1490530176.534,49.805,13.184,18.066,-1.465,27.344,0
1490530176.538,54.199,22.461,13.184,1.953,17.090,0
1490530176.542,70.801,72.754,12.695,11.719,55.176,0
1490530176.546,77.637,80.566,19.531,17.090,56.641,0
1490530176.550,90.332,47.363,32.227,33.691,35.156,0
1490530176.554,73.730,31.738,11.230,15.137,-20.508,0
1490530176.558,69.336,58.594,22.949,8.789,-25.391,0
1490530176.562,69.336,53.223,27.344,21.484,54.688,0
1490530176.565,52.734,35.645,14.160,11.719,57.617,0
1490530176.569,75.195,51.270,18.555,11.230,20.996,0
1490530176.573,69.336,37.598,21.973,0.000,4.395,0
1490530176.577,50.293,34.180,29.297,-3.418,41.504,0
1490530176.581,50.781,29.297,21.973,0.488,51.758,0
1490530176.585,43.945,23.438,15.625,-1.953,-10.742,0
1490530176.589,66.406,60.547,17.090,16.113,1.953,0
1490530176.593,67.871,77.637,5.371,22.949,44.922,0
1490530176.597,33.691,28.809,19.043,6.348,28.320,0
1490530176.601,18.555,14.160,34.180,-2.930,-28.320,0
1490530176.605,37.598,47.852,28.320,-0.488,-39.062,0
1490530176.608,42.969,57.129,20.996,-14.648,26.367,0
1490530176.612,33.203,36.133,27.832,-20.020,49.805,0
1490530176.616,30.762,18.066,27.832,-10.254,-7.812,0
1490530176.620,36.133,20.020,25.391,-9.277,6.836,0
1490530176.624,44.922,39.551,41.016,21.973,50.293,0
1490530176.628,57.617,84.961,23.926,28.809,41.992,0
1490530176.632,61.523,44.922,3.418,2.441,-1.465,0
1490530176.636,40.039,-6.348,0.977,-14.648,-39.551,0
1490530176.640,35.156,31.738,13.672,-2.441,-13.184,0
1490530176.644,48.828,26.367,38.086,17.090,16.602,0
1490530176.647,46.875,31.738,12.207,-2.441,4.883,0
1490530176.651,53.711,90.332,5.371,-7.812,8.789,0
1490530176.655,78.613,89.355,24.414,22.461,18.555,0
1490530176.659,79.102,37.598,23.926,19.531,27.344,0
1490530176.663,51.270,49.805,2.930,-14.160,23.926,0
1490530176.667,45.410,78.125,-11.230,-1.465,24.414,0
1490530176.671,39.551,16.113,-12.207,-9.766,38.574,0
1490530176.675,55.176,-5.859,16.602,2.441,44.434,0
1490530176.679,75.684,57.129,33.203,26.855,53.223,0
1490530176.683,78.613,67.871,24.902,20.508,33.691,0
1490530176.687,53.711,23.438,18.066,-1.465,-2.441,0
1490530176.690,31.250,9.277,8.301,-16.113,34.180,0
1490530176.694,28.809,21.973,-14.648,-20.996,52.734,0
1490530176.698,34.668,61.035,-23.926,-16.113,13.184,0
1490530176.702,47.363,26.855,6.836,-4.395,4.883,0
1490530176.706,71.777,45.410,36.621,24.414,-6.836,0
1490530176.710,58.594,65.430,15.137,24.902,11.230,0
1490530176.714,60.547,18.555,2.930,12.695,53.223,0
1490530176.718,91.309,27.344,23.438,24.414,25.391,0
1490530176.722,83.496,37.109,45.410,20.996,11.230,0
1490530176.726,55.176,61.035,37.598,17.090,4.883,0
1490530176.730,35.645,42.969,8.789,5.859,11.230,0
1490530176.733,44.434,59.082,4.395,-5.371,7.324,0
1490530176.737,66.895,77.148,14.160,5.859,-27.344,0
1490530176.741,62.012,24.902,37.109,21.973,29.785,0
1490530176.745,50.781,29.785,45.410,14.160,90.332,0
1490530176.749,55.176,70.312,28.809,15.625,30.273,0
1490530176.753,39.062,54.199,-3.906,6.348,-5.859,0
1490530176.757,26.367,30.273,-2.441,-1.465,30.273,0
1490530176.761,39.551,74.219,29.785,0.488,56.152,0
1490530176.765,47.363,95.703,36.621,3.418,67.383,0
1490530176.769,41.016,81.055,34.668,17.578,17.578,0
1490530176.772,51.270,42.480,37.109,16.113,19.043,0
1490530176.776,50.781,25.391,11.719,-11.719,52.246,0
1490530176.780,42.969,68.848,0.000,-19.531,19.043,0
1490530176.784,47.852,52.734,6.348,-8.789,6.348,0
1490530176.788,49.316,45.410,3.906,-13.672,62.012,0
1490530176.792,59.570,76.172,-7.324,-9.277,72.266,0
1490530176.796,59.082,56.641,-13.184,-6.836,26.367,0
1490530176.800,47.363,43.945,10.254,-15.137,1.465,0
1490530176.804,63.477,47.363,34.180,-22.461,24.414,0
1490530176.808,60.059,70.801,24.414,-18.555,39.551,0
1490530176.812,38.086,89.355,14.648,-19.043,64.453,0
1490530176.815,50.781,55.664,20.020,-4.883,51.270,0
1490530176.819,58.105,49.316,24.902,16.113,17.090,0
1490530176.823,45.410,67.871,18.555,21.484,7.324,0
1490530176.827,53.223,84.473,16.113,14.648,12.207,0
1490530176.831,57.617,50.781,10.254,-8.301,34.180,0
1490530176.835,47.363,3.906,32.227,-4.883,19.531,0
1490530176.839,31.738,21.484,27.344,-4.883,17.578,0
1490530176.843,24.414,6.836,-9.766,-28.320,28.320,0
1490530176.847,22.949,-6.836,-9.277,-31.250,59.570,0
1490530176.851,46.875,30.273,21.484,-15.625,35.645,0
1490530176.855,73.242,20.996,37.109,14.648,-34.668,0
1490530176.858,64.941,-7.812,27.832,10.742,-24.414,0
1490530176.862,65.918,1.465,13.672,-0.977,48.828,0
1490530176.866,72.754,1.465,15.625,6.836,43.945,0
1490530176.870,60.547,18.555,27.832,6.348,-12.207,0
1490530176.874,44.922,26.367,15.625,-1.465,25.879,0
1490530176.878,49.805,4.395,4.883,-9.766,55.176,0
1490530176.882,57.129,23.926,11.719,0.000,22.461,0
1490530176.886,37.109,25.391,17.578,15.137,-29.297,0
1490530176.890,19.531,-29.785,2.441,-7.324,-18.066,0
1490530176.894,30.273,-15.137,11.719,-15.137,53.223,0
1490530176.897,37.109,-1.465,34.180,1.465,45.898,0
1490530176.901,26.367,-9.277,19.531,-2.441,-8.789,0
1490530176.905,45.898,29.297,26.855,3.906,-27.832,0
1490530176.909,50.293,8.301,37.109,10.742,27.344,0
1490530176.913,42.480,42.969,15.625,13.672,53.711,0
1490530176.917,60.059,45.898,20.508,18.555,13.672,0
1490530176.921,41.016,-21.484,34.668,5.371,8.301,0
1490530176.925,23.438,-16.113,20.020,0.488,36.133,0
1490530176.929,25.879,-14.160,16.113,-2.441,41.992,0
1490530176.933,39.062,-16.602,16.602,-1.953,24.902,0
1490530176.937,58.105,1.953,18.066,3.418,5.859,0
1490530176.940,58.594,-0.977,19.531,11.719,16.602,0
1490530176.944,49.805,-5.371,25.391,10.742,45.410,0
1490530176.948,35.156,-2.441,29.297,0.000,3.906,0
1490530176.952,38.574,10.742,19.043,4.883,-7.324,0
1490530176.956,51.758,61.035,16.113,3.418,15.137,0
1490530176.960,59.082,51.758,17.578,-1.953,5.859,0
1490530176.964,60.059,-46.875,17.578,17.578,11.230,0
1490530176.968,41.504,-34.668,21.973,5.371,6.836,0
1490530176.972,29.785,2.930,5.859,-22.949,0.488,0
1490530176.976,46.875,9.277,7.812,-9.277,5.859,0
1490530176.980,52.246,29.297,-3.418,-1.465,2.930,0
1490530176.983,51.758,38.086,-5.859,0.000,-4.395,0
1490530176.987,67.871,51.270,29.297,28.320,-12.207,0
1490530176.991,63.965,34.180,24.902,19.043,-5.371,0
1490530176.995,68.359,23.438,32.227,12.207,32.715,0
1490530176.999,57.129,8.789,24.414,13.672,20.020,0
1490530177.003,57.617,-6.836,14.160,-3.418,-8.301,0
1490530177.007,59.082,6.836,22.949,0.977,20.508,0
1490530177.011,43.945,36.133,16.602,-1.465,34.668,0
1490530177.015,34.180,16.113,20.020,-6.348,14.648,0
1490530177.019,31.250,-15.625,15.137,0.000,-21.973,0
1490530177.022,44.434,5.859,17.090,8.301,-39.062,0
1490530177.026,48.340,34.668,24.902,8.301,21.484,0
1490530177.030,53.711,20.020,27.344,28.320,73.730,0
1490530177.034,53.223,-19.531,53.223,48.340,19.043,0
1490530177.038,47.852,-2.930,41.992,19.043,5.859,0
1490530177.042,62.012,43.457,22.461,24.414,62.500,0
1490530177.046,49.805,30.762,45.410,23.438,62.988,0
1490530177.050,54.199,15.625,50.293,16.113,12.207,0
1490530177.054,58.105,1.953,30.273,15.625,-21.973,0
1490530177.058,19.043,-21.973,9.277,-15.625,-3.906,0
1490530177.062,17.090,-16.113,22.949,-15.625,26.855,0
1490530177.065,49.805,16.113,28.809,-0.977,-3.418,0
1490530177.069,72.754,15.625,34.668,12.695,-23.438,0
1490530177.073,62.012,-0.977,30.762,8.789,18.555,0
1490530177.077,48.340,19.043,22.949,4.395,28.809,0
1490530177.081,57.617,36.133,19.531,14.160,4.883,0
1490530177.085,56.152,46.387,12.207,0.977,-10.742,0
1490530177.089,38.086,16.602,1.465,-11.719,33.691,0
1490530177.093,37.598,-7.812,3.906,-10.742,40.039,0
1490530177.097,55.176,22.949,22.461,-3.418,17.578,0
1490530177.101,94.727,36.621,38.086,25.879,41.504,0
1490530177.105,97.656,-7.812,42.969,31.738,33.203,0
1490530177.108,40.527,-30.762,1.465,-4.395,8.789,0
1490530177.112,48.340,0.488,6.348,-2.441,-20.996,0
1490530177.116,73.242,27.344,27.832,20.020,-11.719,0
1490530177.120,56.641,35.156,13.184,14.160,10.742,0
1490530177.124,67.871,65.430,11.719,20.020,-0.977,0
1490530177.128,72.754,35.645,18.066,24.902,16.602,0
1490530177.132,69.336,2.930,24.414,10.742,33.203,0
1490530177.136,72.266,-12.695,12.207,2.441,20.020,0
1490530177.140,51.758,-29.297,4.395,-4.883,-0.977,0
1490530177.144,68.359,2.930,38.086,10.742,40.039,0
1490530177.147,63.477,23.438,46.875,20.996,47.363,0
1490530177.151,39.062,26.367,27.344,10.742,-4.883,0
1490530177.155,84.473,13.672,36.621,37.109,19.043,0
1490530177.159,90.820,-16.602,23.438,41.504,51.270,0
1490530177.163,48.828,-6.348,17.090,-0.977,54.199,0
1490530177.167,51.758,32.227,23.926,-11.719,12.207,0
1490530177.171,53.711,-0.977,25.879,2.441,-21.484,0
1490530177.175,48.340,6.348,34.668,11.230,28.809,0
1490530177.179,40.527,11.719,47.363,8.301,80.078,0
1490530177.183,12.207,-13.184,40.039,-7.812,46.387,0
1490530177.187,30.762,15.625,35.156,-6.348,1.953,0
1490530177.190,48.340,25.879,41.504,19.531,19.531,0
1490530177.194,20.020,29.785,38.574,16.113,59.082,0
1490530177.198,9.766,20.020,27.832,-10.254,41.016,0
1490530177.202,8.789,-1.465,24.414,-9.766,0.977,0
1490530177.206,21.973,5.859,43.945,12.695,-1.465,0
1490530177.210,22.949,14.648,37.598,7.324,24.414,0
1490530177.214,7.812,-1.465,6.836,-12.695,20.020,0
1490530177.218,22.949,4.395,-3.906,-9.277,-25.391,0
1490530177.222,32.715,2.930,11.230,-2.930,28.320,0
1490530177.226,31.250,3.906,24.414,-0.977,56.152,0
1490530177.230,49.805,41.992,29.297,2.441,36.133,0
1490530177.233,55.176,7.324,25.391,-2.930,39.062,0
1490530177.237,38.086,-24.414,18.066,-4.395,16.602,0
1490530177.241,52.246,28.320,34.668,15.625,19.043,0
1490530177.245,61.035,44.922,41.504,24.414,46.875,0
1490530177.249,48.828,37.109,19.043,-3.906,34.668,0
1490530177.253,66.895,45.410,24.902,1.953,5.859,0
1490530177.257,72.754,43.457,37.109,21.973,29.785,0
1490530177.261,57.129,19.043,39.551,7.812,31.738,0
1490530177.265,68.359,31.250,45.410,11.719,12.207,0
1490530177.269,62.012,44.922,19.043,13.184,22.949,0
1490530177.272,46.387,24.902,11.719,9.277,31.250,0
1490530177.276,55.176,32.227,28.809,12.207,62.012,0
1490530177.280,68.359,48.828,10.742,8.789,41.504,0
1490530177.284,69.824,15.137,26.855,25.391,16.113,0
1490530177.288,35.645,-5.859,29.297,11.230,1.465,0
1490530177.292,42.969,17.090,17.578,-6.348,10.254,0
1490530177.296,72.754,65.430,40.039,15.137,59.082,0
1490530177.300,62.988,18.066,27.344,23.926,21.973,0
1490530177.304,51.758,-36.133,4.395,10.254,-5.859,0
1490530177.308,66.406,21.484,31.250,14.648,13.184,0
1490530177.312,62.500,51.758,24.414,10.742,37.109,0
1490530177.315,57.617,61.035,13.672,9.277,48.828,0
1490530177.319,60.059,33.691,32.227,20.020,5.371,0
1490530177.323,53.711,-16.602,29.785,11.230,3.906,0
1490530177.327,34.180,5.371,21.973,9.277,42.969,0
1490530177.331,28.809,11.230,13.184,16.113,47.363,0
1490530177.335,42.480,2.441,15.625,9.766,-5.859,0
1490530177.339,49.805,-0.977,18.555,8.301,-22.461,0
1490530177.343,46.875,-10.254,8.301,10.742,38.086,0
1490530177.347,20.020,-27.832,3.418,-10.254,42.969,0
1490530177.351,37.598,17.578,21.484,-1.465,12.695,0
1490530177.355,53.223,40.039,28.320,-7.324,9.766,0
1490530177.358,38.574,10.742,27.344,-23.438,41.016,0
1490530177.362,28.320,-21.973,16.113,-23.438,55.176,2
1490530177.366,41.992,31.738,26.367,-20.508,11.719,0
1490530177.370,73.242,79.590,43.457,-0.488,-12.207,0
1490530177.374,70.312,2.441,28.320,-0.488,34.668,0
1490530177.378,46.875,-4.883,15.625,-18.066,40.527,0
1490530177.382,25.391,36.133,1.465,-36.133,39.062,0
1490530177.386,40.527,37.598,1.465,-12.695,32.715,0
1490530177.390,35.156,29.297,5.371,-18.555,16.602,0
1490530177.394,26.367,-15.137,-12.695,-33.203,18.066,0
1490530177.397,38.574,-20.508,14.648,-11.719,-6.348,0
1490530177.401,43.457,22.461,30.273,-2.930,3.418,0
1490530177.405,68.848,27.832,20.508,2.441,21.484,0
1490530177.409,92.773,27.832,31.250,16.602,19.043,0
1490530177.413,74.707,24.902,38.574,19.043,34.180,0
1490530177.417,53.711,32.715,8.789,-19.531,43.945,0
1490530177.421,50.781,25.391,-5.859,-20.996,20.996,0
1490530177.425,47.363,7.324,-6.836,0.488,-0.977,0
1490530177.429,65.430,15.625,5.371,8.789,52.734,0
1490530177.433,60.059,17.578,15.137,6.836,58.105,0
1490530177.437,46.875,24.414,22.461,-4.883,33.203,0
1490530177.440,69.336,40.527,41.504,17.578,1.953,0
1490530177.444,68.848,20.508,34.668,13.184,-0.488,0
1490530177.448,58.594,47.363,18.066,-7.812,62.988,0
1490530177.452,65.918,29.297,29.297,5.371,24.414,0
1490530177.456,55.664,-24.414,22.949,-2.441,-0.488,0
1490530177.460,35.156,-0.488,4.395,-22.949,38.574,0
1490530177.464,33.691,68.359,-3.418,-20.996,60.059,0
1490530177.468,59.082,94.238,-1.953,3.418,28.320,0
1490530177.472,68.848,21.973,29.785,15.137,-4.395,0
1490530177.476,48.340,-4.395,23.926,-4.883,16.602,0
1490530177.480,41.016,10.742,11.230,-14.648,60.547,0
1490530177.483,34.180,13.184,31.250,-11.719,29.785,0
1490530177.487,50.781,12.207,47.363,7.324,-10.742,0
1490530177.491,78.125,79.590,33.203,19.531,9.766,0
1490530177.495,58.105,46.387,1.953,-7.812,37.109,0
1490530177.499,34.180,-14.160,7.812,-13.184,19.531,0
1490530177.503,28.320,21.973,20.508,-3.906,-49.805,0
1490530177.507,14.160,27.344,15.137,-19.043,-24.902,0
1490530177.511,29.785,41.016,18.555,-11.719,44.434,0
1490530177.515,63.477,100.098,38.086,6.348,30.273,0
1490530177.519,61.035,38.086,25.879,9.277,-4.395,0
1490530177.522,44.922,-23.438,-1.953,-10.254,5.859,0
1490530177.526,37.598,27.344,-3.906,-31.738,32.715,0
1490530177.530,36.133,30.762,-3.906,-28.809,31.250,0
1490530177.534,37.598,33.691,-18.555,-20.996,1.465,0
1490530177.538,42.480,72.266,-0.977,-10.742,14.160,0
1490530177.542,43.945,47.852,24.902,-9.277,30.273,0
1490530177.546,46.387,20.508,20.996,-19.043,23.438,0
1490530177.550,62.500,59.570,24.414,4.883,33.691,0
1490530177.554,58.105,38.086,23.926,11.719,38.574,0
1490530177.558,40.039,-1.953,10.254,-12.695,40.039,0
1490530177.562,47.852,27.344,14.160,-12.207,58.105,0
1490530177.565,52.734,42.480,13.672,-9.277,41.992,0
1490530177.569,50.293,36.133,4.883,5.371,10.254,0
1490530177.573,53.223,43.945,22.461,17.090,-3.418,0
1490530177.577,37.109,30.273,31.738,-1.953,32.715,0
1490530177.581,28.320,-0.488,17.090,-1.953,48.828,0
1490530177.585,20.996,7.324,12.207,-7.324,-18.555,0
1490530177.589,23.438,14.160,18.066,-16.113,-14.160,0
1490530177.593,32.715,21.973,8.789,-2.441,0.000,0
1490530177.597,46.387,52.734,22.949,22.949,4.395,0
1490530177.601,71.777,36.621,47.852,24.902,19.043,0
1490530177.605,61.035,-16.602,41.992,5.859,2.441,0
1490530177.608,41.016,28.809,16.602,-0.977,14.160,0
1490530177.612,26.367,54.688,-5.371,2.441,60.059,0
1490530177.616,31.738,65.918,-0.977,11.719,19.531,0
1490530177.620,33.691,40.527,6.836,-9.277,-13.672,0
1490530177.624,42.969,4.883,20.020,-9.766,8.789,0
1490530177.628,68.848,38.574,19.531,0.977,56.641,0
1490530177.632,59.570,40.527,-0.977,-3.906,54.688,0
1490530177.636,46.875,50.781,0.977,-2.930,-0.488,0
1490530177.640,59.570,47.363,16.113,-12.207,1.465,0
1490530177.644,53.711,15.625,19.043,-19.531,62.988,0
1490530177.647,36.621,24.414,2.441,-20.508,97.656,0
1490530177.651,59.570,34.668,-5.859,-8.789,46.387,0
1490530177.655,65.918,28.320,-14.160,-7.812,7.812,0
1490530177.659,50.781,48.340,-6.348,-14.160,64.941,0
1490530177.663,57.617,52.246,3.906,-8.789,74.707,0
1490530177.667,71.289,9.766,17.578,0.488,25.879,0
1490530177.671,59.570,24.414,15.137,-5.371,2.930,0
1490530177.675,52.734,39.062,10.254,-4.883,26.855,0
1490530177.679,50.781,22.461,11.230,1.953,55.176,0
1490530177.683,37.598,28.809,5.371,-7.812,31.250,0
1490530177.687,27.832,26.855,-0.488,-16.602,16.602,0
1490530177.690,42.969,62.988,-4.883,-0.488,35.645,0
1490530177.694,41.016,57.617,2.441,-2.441,78.125,0
1490530177.698,47.363,-24.414,25.879,6.836,57.129,0
1490530177.702,69.336,-22.949,20.996,20.020,20.508,0
1490530177.706,52.246,37.598,6.348,5.371,51.270,0
1490530177.710,20.996,43.457,10.254,-22.461,33.691,0
1490530177.714,25.879,14.648,16.602,-0.488,41.016,0
1490530177.718,44.922,46.387,13.672,21.484,30.762,0
1490530177.722,49.316,18.555,-14.160,0.488,11.230,0
1490530177.726,30.273,34.180,-2.441,3.418,36.133,0
1490530177.730,44.434,98.145,42.480,18.066,17.090,0
1490530177.733,59.082,42.480,32.715,8.789,43.457,0
1490530177.737,39.551,2.441,11.230,-0.977,36.621,0
1490530177.741,17.578,10.254,-3.906,-11.719,12.207,0
1490530177.745,28.809,46.875,-5.371,-8.301,52.246,0
1490530177.749,59.082,37.598,19.531,7.812,74.707,0
1490530177.753,47.363,19.531,32.715,-3.418,47.363,0
1490530177.757,18.066,20.020,7.324,-24.902,39.551,0
1490530177.761,28.809,53.223,-10.742,-30.273,53.223,0
1490530177.765,48.340,68.359,-1.953,-22.949,46.387,0
1490530177.769,33.691,28.809,-2.930,-27.344,46.387,0
1490530177.772,33.691,25.391,1.465,-27.344,50.781,0
1490530177.776,59.082,42.480,26.855,-10.254,62.012,0
1490530177.780,53.711,74.219,28.809,0.977,67.383,0
1490530177.784,57.617,53.711,17.090,2.930,24.414,0
1490530177.788,59.082,29.785,0.000,1.953,-3.906,0
1490530177.792,49.316,28.320,-3.418,1.953,41.016,0
1490530177.796,56.152,41.992,19.531,4.883,92.773,0
1490530177.800,87.891,87.402,29.297,26.367,47.363,0
1490530177.804,89.844,72.266,20.508,27.344,2.930,0
1490530177.808,58.105,20.508,8.789,16.113,46.875,0
1490530177.812,51.270,24.902,8.301,17.578,77.148,0
1490530177.815,66.406,56.152,16.113,18.066,46.875,0
1490530177.819,78.125,54.688,38.086,15.625,-6.836,0
1490530177.823,87.891,82.520,44.434,26.855,6.348,0
1490530177.827,86.914,80.078,25.879,38.086,56.641,0
1490530177.831,51.758,37.109,20.020,21.973,22.461,0
1490530177.835,48.340,-0.488,32.715,6.836,-25.879,0
1490530177.839,66.895,21.973,19.043,7.324,18.066,0
1490530177.843,67.383,44.434,19.043,12.695,53.711,0
1490530177.847,83.984,76.660,26.855,40.039,47.363,0
1490530177.851,84.473,70.801,33.691,64.941,30.273,0
1490530177.855,48.828,14.648,39.551,31.250,27.832,0
1490530177.858,31.250,34.668,19.531,-10.742,28.809,0
1490530177.862,36.621,53.711,5.859,-25.879,45.898,0
1490530177.866,47.363,45.898,10.254,-11.719,42.480,3
1490530177.870,44.922,35.645,25.879,13.672,38.574,0
1490530177.874,25.879,20.996,14.648,9.277,32.227,0
1490530177.878,23.926,36.621,9.766,0.000,33.691,0
1490530177.882,37.598,20.996,20.020,15.625,45.410,0
1490530177.886,45.898,-13.672,20.508,15.137,27.832,0
1490530177.890,59.082,-1.953,30.762,22.461,16.113,0
1490530177.894,61.523,44.922,34.180,14.160,25.391,0
1490530177.897,47.852,53.223,1.465,-17.090,50.293,0
1490530177.901,60.547,45.410,10.254,-10.254,31.738,0
1490530177.905,56.641,11.230,40.039,13.184,31.250,0
1490530177.909,53.711,3.418,12.207,13.184,53.223,0
1490530177.913,73.242,42.969,-6.348,21.484,65.430,0
1490530177.917,44.434,28.809,1.465,21.484,39.062,0
1490530177.921,35.645,21.973,18.066,4.395,-15.137,0
1490530177.925,57.617,68.848,8.789,12.695,16.113,0
1490530177.929,62.988,40.039,15.137,39.062,73.730,0
1490530177.933,47.363,-19.043,11.230,34.668,24.902,0
1490530177.937,31.738,18.066,-13.184,2.441,-17.090,0
1490530177.940,29.297,21.484,-4.395,-6.836,11.230,0
1490530177.944,29.785,-15.137,0.977,-9.766,48.340,0
1490530177.948,37.109,29.297,-10.254,-4.395,29.297,0
1490530177.952,77.637,97.168,33.203,30.273,-4.395,0
1490530177.956,72.754,20.996,46.387,32.227,25.391,0
1490530177.960,34.180,-20.508,15.625,0.000,50.293,0
1490530177.964,35.156,-10.742,-2.441,-17.578,38.574,0
1490530177.968,42.480,-1.953,-12.695,-9.766,-26.855,0
1490530177.972,38.574,37.598,10.254,4.395,-18.066,0
1490530177.976,45.898,30.762,10.742,-8.789,41.504,0
1490530177.980,48.340,39.551,2.441,-16.113,35.156,0
1490530177.983,40.039,55.664,11.230,3.906,17.578,0
1490530177.987,64.453,21.973,20.020,15.137,12.695,0
1490530177.991,66.406,5.859,24.902,5.371,33.691,0
1490530177.995,41.016,6.348,27.832,-1.465,41.992,0
1490530177.999,13.672,24.902,18.066,-12.695,-6.836,0
1490530178.003,29.785,48.340,11.230,-8.301,-21.484,0
1490530178.007,49.316,25.391,20.020,0.977,8.301,0
1490530178.011,37.598,6.836,27.344,1.465,18.555,0
1490530178.015,25.879,13.672,21.484,-3.906,38.574,0
1490530178.019,5.371,19.531,-5.859,-35.645,14.648,0
1490530178.022,0.977,20.508,-14.160,-39.062,20.996,0
1490530178.026,10.742,8.789,13.184,-17.090,43.457,0
1490530178.030,24.902,1.953,24.414,-5.859,53.223,0
1490530178.034,19.043,39.551,13.672,-2.441,39.062,0
1490530178.038,26.367,26.367,11.230,5.859,-20.996,0
1490530178.042,49.805,51.758,15.137,11.230,-11.719,0
1490530178.046,61.035,52.734,19.531,11.230,29.785,0
1490530178.050,64.453,20.508,20.508,12.207,36.133,0
1490530178.054,58.594,47.852,15.137,10.742,-11.719,0
1490530178.058,51.270,62.988,1.953,-3.418,-29.297,0
1490530178.062,60.059,45.898,2.441,-2.441,11.719,0
1490530178.065,66.895,17.578,9.766,6.836,20.020,0
1490530178.069,73.730,24.902,27.832,21.484,-30.762,0
1490530178.073,77.637,17.090,18.555,14.648,-53.223,0
1490530178.077,79.102,29.785,10.254,-2.441,12.207,0
1490530178.081,90.820,44.922,15.625,19.043,27.344,0
1490530178.085,78.125,7.324,-7.324,6.348,7.324,0
1490530178.089,57.129,31.250,-2.930,-10.742,17.578,0
1490530178.093,70.801,54.688,17.090,1.465,40.039,0
1490530178.097,76.660,52.246,16.113,9.766,62.012,0
1490530178.101,85.449,66.406,11.719,40.039,3.418,0
1490530178.105,73.730,22.949,13.672,29.785,-40.527,0
1490530178.108,48.828,-6.836,24.902,1.465,15.625,0
1490530178.112,45.410,17.090,31.250,-0.488,21.973,0
1490530178.116,41.992,29.297,21.973,-9.766,-5.371,0
1490530178.120,63.965,46.387,7.812,-2.930,-5.859,0
1490530178.124,77.637,25.391,9.766,9.277,6.836,0
1490530178.128,49.805,-2.930,22.461,3.906,43.457,0
1490530178.132,59.082,26.855,37.109,5.859,38.086,0
1490530178.136,82.031,42.480,22.461,-3.418,-8.301,0
1490530178.140,54.199,20.508,5.859,-4.395,-8.301,0
1490530178.144,11.719,-43.457,1.953,-1.465,23.926,0
1490530178.147,27.344,-18.066,8.301,0.488,2.930,0
1490530178.151,67.871,52.246,30.273,15.625,-12.695,0
1490530178.155,72.266,47.363,23.438,18.066,20.996,0
1490530178.159,48.340,15.137,3.906,4.883,16.113,0
1490530178.163,40.527,20.996,18.066,-2.930,-14.648,0
1490530178.167,48.828,46.875,17.090,-0.977,25.391,0
1490530178.171,49.805,12.695,22.461,4.883,30.273,0
1490530178.175,52.246,11.230,25.391,15.625,-2.441,0
1490530178.179,51.758,10.254,19.531,7.812,27.832,0
1490530178.183,60.547,15.137,19.531,7.324,27.832,0
1490530178.187,68.359,63.477,21.484,11.230,-12.695,0
1490530178.190,41.504,48.340,26.367,7.324,-14.648,0
1490530178.194,24.902,20.020,7.812,-0.977,23.438,0
1490530178.198,36.133,4.883,-12.695,-22.461,30.273,0
1490530178.202,57.617,23.438,13.184,-7.324,3.418,0
1490530178.206,52.734,18.066,25.879,20.508,-29.297,0
1490530178.210,57.617,-6.348,35.645,20.020,9.277,0
1490530178.214,85.449,51.758,53.711,17.578,58.594,0
1490530178.218,71.289,37.109,30.273,12.207,16.602,0
1490530178.222,46.387,-31.738,9.766,-1.465,-11.230,0
1490530178.226,44.434,28.809,15.625,-2.441,35.645,0
1490530178.230,44.922,32.227,21.484,-3.906,40.039,0
1490530178.233,39.062,37.598,17.090,-7.812,-21.484,0
1490530178.237,53.223,44.434,31.738,-0.977,-46.387,0
1490530178.241,55.176,-40.527,34.180,-6.348,0.488,0
1490530178.245,41.992,-15.137,17.578,-11.230,62.012,0
1490530178.249,57.617,23.926,48.828,2.930,35.156,0
1490530178.253,67.383,-3.906,45.898,3.906,3.418,0
1490530178.257,51.758,-24.902,19.043,5.859,20.020,0
1490530178.261,36.621,15.625,11.230,-5.859,45.898,0
1490530178.265,53.223,24.414,25.391,-0.488,58.105,0
1490530178.269,49.805,18.066,28.809,-0.488,30.273,0
1490530178.272,49.316,32.227,29.297,8.301,11.719,0
1490530178.276,62.012,14.648,44.922,22.461,56.152,0
1490530178.280,56.641,6.348,39.062,26.367,50.293,0
1490530178.284,34.668,23.438,27.344,11.719,0.977,0
1490530178.288,50.781,53.223,33.691,16.602,4.395,0
1490530178.292,65.918,33.691,19.531,24.902,22.461,0
1490530178.296,44.434,-17.090,12.207,6.836,12.695,0
1490530178.300,35.156,11.719,14.648,-8.301,12.695,0
1490530178.304,62.012,41.016,24.414,10.254,26.367,0
1490530178.308,69.824,30.762,31.738,33.691,13.672,0
1490530178.312,35.645,20.996,6.348,3.418,38.086,0
1490530178.315,20.020,11.230,8.301,-12.207,59.570,0
1490530178.319,51.270,44.922,27.344,5.371,13.184,0
1490530178.323,53.223,37.109,28.320,5.371,-28.809,0
1490530178.327,16.602,-3.906,13.184,-25.391,17.090,0
1490530178.331,16.602,0.488,14.648,-34.668,43.457,0
1490530178.335,-7.324,27.344,14.648,-24.414,18.066,0
1490530178.339,-0.977,41.016,6.836,-31.738,-2.930,0
1490530178.343,15.137,33.691,23.438,-49.316,20.508,0
1490530178.347,3.906,35.645,32.227,-56.641,62.988,0
1490530178.351,-6.348,63.477,26.855,-62.988,26.855,0
1490530178.355,-28.809,67.871,20.996,-74.707,11.719,0
1490530178.358,-31.250,26.855,22.949,-87.891,48.828,0
1490530178.362,-26.855,28.809,23.438,-97.168,70.312,0
1490530178.366,-31.250,32.227,36.133,-93.262,62.988,4
1490530178.370,-51.270,-3.906,46.387,-101.562,17.090,0
1490530178.374,-67.871,0.977,33.203,-109.375,26.367,0
1490530178.378,-66.406,2.441,26.367,-110.840,64.453,0
1490530178.382,-62.988,21.484,28.320,-110.840,62.988,0
1490530178.386,-71.289,6.836,37.598,-117.188,-4.883,0
1490530178.390,-50.781,33.203,50.781,-95.215,-19.531,0
1490530178.394,-26.367,92.285,51.270,-78.125,77.637,0
1490530178.397,-36.621,28.320,44.922,-99.121,85.449,0
1490530178.401,-44.922,-32.715,17.090,-96.680,14.160,0
1490530178.405,-54.199,-17.578,5.859,-89.355,-0.977,0
1490530178.409,-48.340,-1.465,48.340,-93.750,42.969,0
1490530178.413,-37.598,7.812,39.551,-107.422,62.012,0
1490530178.417,-29.297,43.457,20.508,-101.562,14.648,0
1490530178.421,-23.438,67.383,35.645,-68.359,22.949,0
1490530178.425,-37.598,14.160,28.320,-70.801,44.434,0
1490530178.429,-31.738,-12.695,22.949,-85.449,38.086,0
1490530178.433,-30.273,4.395,21.973,-83.984,38.574,0
1490530178.437,-22.949,23.438,33.691,-73.242,30.273,0
1490530178.440,-26.855,-2.441,1.953,-75.684,18.066,0
1490530178.444,-26.367,12.695,-13.184,-63.965,26.855,0
1490530178.448,4.883,67.383,41.504,-42.969,22.949,0
1490530178.452,5.859,46.387,30.762,-29.785,11.719,0
1490530178.456,3.418,56.641,29.297,-16.113,23.438,0
1490530178.460,23.926,51.758,42.969,-27.832,44.922,0
1490530178.464,42.480,43.457,33.691,-14.648,65.430,0
1490530178.468,36.133,35.156,22.461,-5.859,51.758,0
1490530178.472,33.203,14.160,10.254,-15.625,31.250,0
1490530178.476,33.203,22.461,16.602,-13.184,11.719,0
1490530178.480,42.969,21.973,18.555,-8.301,20.996,0
1490530178.483,48.828,3.906,12.207,-7.324,60.547,0
1490530178.487,39.062,4.395,8.301,3.906,34.180,0
1490530178.491,42.969,41.992,21.484,7.812,0.977,0
1490530178.495,71.289,91.797,41.992,20.020,42.480,0
1490530178.499,100.586,65.918,44.922,40.039,53.711,0
1490530178.503,73.730,2.441,18.066,17.090,6.348,0
1490530178.507,51.270,6.836,2.441,11.719,9.766,0
1490530178.511,52.734,11.719,18.555,16.602,44.434,0
1490530178.515,65.918,19.043,29.785,19.531,37.109,0
1490530178.519,79.102,41.016,32.227,35.645,29.297,0
1490530178.522,83.984,8.789,28.809,43.457,27.832,0
1490530178.526,88.867,25.879,13.672,40.527,27.344,0
1490530178.530,92.285,80.566,0.000,47.363,50.293,0
1490530178.534,114.258,78.125,24.414,58.105,32.227,0
1490530178.538,111.328,68.848,30.762,43.945,-2.930,0
1490530178.542,91.797,38.574,24.414,42.969,29.297,0
1490530178.546,85.938,5.859,12.695,46.387,73.242,0
1490530178.550,98.633,8.301,0.488,48.828,10.742,0
1490530178.554,91.797,26.367,6.836,46.875,-45.898,0
1490530178.558,83.008,28.320,12.207,40.527,11.230,0
1490530178.562,100.098,25.879,20.020,47.852,49.316,0
1490530178.565,114.258,53.711,15.625,55.664,15.137,0
1490530178.569,110.840,43.457,0.488,59.082,-14.160,0
1490530178.573,105.957,20.508,10.254,62.988,-4.883,0
1490530178.577,98.145,2.441,-8.789,44.922,44.922,0
1490530178.581,76.660,22.461,-18.066,24.414,55.176,0
1490530178.585,78.613,38.574,29.297,52.246,-3.906,0
1490530178.589,93.750,45.898,34.180,62.988,9.766,0
1490530178.593,99.609,77.148,28.809,51.270,61.035,0
1490530178.597,104.980,52.246,32.715,60.059,33.691,0
1490530178.601,106.445,71.777,16.602,56.152,25.879,0
1490530178.605,116.699,89.844,23.926,66.406,18.555,0
1490530178.608,100.586,19.531,18.555,52.246,9.277,0
1490530178.612,87.402,-7.812,6.836,32.715,20.508,0
1490530178.616,96.191,16.602,-1.953,44.434,5.859,0
1490530178.620,89.355,31.250,3.906,47.363,16.602,0
1490530178.624,67.383,17.090,14.648,31.250,7.324,0
1490530178.628,103.027,41.016,18.555,50.781,-1.465,0
1490530178.632,129.883,62.500,31.250,62.012,31.738,0
1490530178.636,110.352,49.316,35.645,43.945,14.160,0
1490530178.640,94.238,21.973,16.113,31.738,16.602,0
1490530178.644,85.938,15.137,2.930,32.715,45.410,0
1490530178.647,100.098,25.879,7.812,29.785,24.902,0
1490530178.651,123.047,64.941,12.695,45.410,27.832,0
1490530178.655,113.281,69.336,22.461,51.270,-1.953,0
1490530178.659,98.633,25.391,19.043,45.898,-35.156,0
1490530178.663,101.074,21.484,4.395,56.152,36.133,0
1490530178.667,107.422,54.199,15.625,58.105,51.758,0
1490530178.671,120.605,59.082,47.363,64.453,-19.043,0
1490530178.675,120.117,18.066,42.480,57.617,-25.879,0
1490530178.679,95.215,0.488,29.785,33.203,50.781,0
1490530178.683,87.402,22.461,15.625,27.832,31.250,0
1490530178.687,91.309,54.688,4.883,37.109,-11.230,0
1490530178.690,73.730,33.691,14.160,42.969,27.344,0
1490530178.694,83.008,27.344,17.578,38.574,64.453,0
1490530178.698,93.750,19.043,16.113,39.062,48.828,0
1490530178.702,80.078,17.090,20.996,52.246,17.090,0
1490530178.706,103.516,68.359,28.320,67.383,13.672,0
1490530178.710,117.676,69.336,34.180,68.359,14.160,0
1490530178.714,81.055,23.926,39.062,48.828,10.254,0
1490530178.718,76.172,62.012,15.625,40.039,-8.789,0
1490530178.722,75.195,60.059,13.184,25.879,-2.930,0
1490530178.726,44.922,-10.254,13.672,-6.836,20.508,0
1490530178.730,62.988,4.395,22.461,10.742,28.320,0
1490530178.733,75.195,14.648,27.832,13.672,2.441,0
1490530178.737,69.336,16.113,24.902,18.555,10.254,0
1490530178.741,85.938,65.918,29.297,41.016,30.762,0
1490530178.745,97.656,113.281,20.996,41.504,33.691,0
1490530178.749,96.680,38.574,21.973,36.621,26.855,0
1490530178.753,52.246,-14.160,-9.277,-3.906,-3.906,0
1490530178.757,36.133,14.160,7.812,-7.812,-7.324,0
1490530178.761,69.824,41.016,35.156,24.902,22.949,0
1490530178.765,82.031,37.598,17.090,16.113,30.762,0
1490530178.769,71.289,72.266,13.184,7.324,33.691,0
1490530178.772,73.730,68.848,22.461,9.766,29.297,0
1490530178.776,75.195,20.996,30.273,11.230,3.906,0
1490530178.780,80.566,36.133,24.902,18.066,11.719,0
1490530178.784,77.148,42.969,4.395,-0.977,33.691,0
1490530178.788,36.133,38.086,-12.207,-19.043,-11.230,0
1490530178.792,51.270,40.039,25.879,10.742,-13.184,0
1490530178.796,69.336,21.973,27.832,14.160,43.457,0
1490530178.800,41.016,36.133,20.996,-20.020,57.129,0
1490530178.804,30.273,17.578,7.324,-10.254,-0.977,0
1490530178.808,71.289,3.418,13.672,21.973,3.418,0
1490530178.812,83.496,27.344,48.340,36.133,43.945,0
1490530178.815,79.590,52.246,42.969,45.410,30.273,0
1490530178.819,93.262,88.379,33.691,42.480,-13.672,0
1490530178.823,71.777,63.965,23.926,34.180,-34.668,0
1490530178.827,68.848,45.898,25.879,22.949,59.570,0
1490530178.831,63.965,26.367,30.273,6.348,91.797,0
1490530178.835,34.668,7.812,27.344,-6.836,41.504,0
1490530178.839,48.828,34.668,27.832,3.906,2.441,0
1490530178.843,72.266,15.625,38.574,28.809,14.160,0
1490530178.847,67.383,24.414,35.156,26.367,51.270,0
1490530178.851,58.594,34.668,9.277,15.137,13.184,0
1490530178.855,44.434,28.809,17.090,9.277,-11.230,0
1490530178.858,51.270,51.270,41.016,16.602,33.691,0
1490530178.862,73.730,65.430,37.109,25.879,46.387,0
1490530178.866,70.801,35.645,29.297,25.391,25.391,5
1490530178.870,53.711,6.348,31.738,5.371,11.230,0
1490530178.874,57.617,43.457,24.414,2.441,31.250,0
1490530178.878,51.270,56.152,34.180,13.184,33.203,0
1490530178.882,53.711,41.016,37.598,14.160,18.555,0
1490530178.886,58.105,37.109,24.414,17.090,33.691,0
1490530178.890,68.848,41.016,25.391,30.273,51.270,0
1490530178.894,58.105,29.297,33.203,19.043,43.457,0
1490530178.897,29.297,-2.930,12.207,-21.973,10.254,0
1490530178.901,41.016,26.367,10.254,-6.348,8.301,0
1490530178.905,51.758,50.781,26.855,10.254,26.855,0
1490530178.909,61.035,41.016,33.203,11.230,34.180,0
1490530178.913,62.988,41.992,31.250,11.230,42.969,0
1490530178.917,68.359,47.363,29.785,4.883,34.180,0
1490530178.921,57.129,42.480,17.090,2.930,9.277,0
1490530178.925,60.059,9.766,24.902,16.113,1.465,0
1490530178.929,64.941,9.277,29.785,10.742,20.508,0
1490530178.933,38.574,12.695,-9.277,-7.812,32.715,0
1490530178.937,40.527,32.227,1.465,-4.883,11.719,0
1490530178.940,52.734,38.574,21.973,-6.836,-0.977,0
1490530178.944,63.477,61.035,33.203,13.672,12.695,0
1490530178.948,68.359,70.801,20.996,21.973,37.109,0
1490530178.952,69.824,54.688,7.812,11.719,19.043,0
1490530178.956,46.875,23.438,20.508,-3.418,18.066,0
1490530178.960,45.898,6.836,15.137,-14.648,38.086,0
1490530178.964,57.129,1.953,6.348,-10.254,47.852,0
1490530178.968,68.359,57.617,25.391,15.137,24.902,0
1490530178.972,64.941,84.961,11.719,7.812,16.113,0
1490530178.976,74.219,42.480,25.879,3.906,38.086,0
1490530178.980,65.430,6.348,40.039,9.766,63.477,0
1490530178.983,30.762,16.602,0.977,-23.438,28.809,0
1490530178.987,45.410,85.449,11.719,-3.418,-13.672,0
1490530178.991,54.688,60.547,26.367,27.832,19.531,0
1490530178.995,41.504,34.668,28.320,16.602,63.965,0
1490530178.999,30.273,52.734,26.367,4.883,60.059,0
1490530179.003,27.344,31.738,26.855,11.719,-2.441,0
1490530179.007,37.598,41.016,33.691,12.695,3.418,0
1490530179.011,48.340,44.922,24.902,15.625,66.406,0
1490530179.015,36.133,-2.441,0.000,18.555,66.406,0
1490530179.019,47.852,49.805,26.855,26.855,0.977,0
1490530179.022,59.082,83.008,45.898,31.738,7.324,0
1490530179.026,57.129,59.570,44.922,32.715,57.617,0
1490530179.030,39.062,53.711,36.621,13.672,30.762,0
1490530179.034,0.488,12.695,24.902,-21.484,11.230,0
1490530179.038,5.859,-12.207,9.766,-21.484,16.113,0
1490530179.042,31.738,9.766,-0.977,-18.066,20.996,0
1490530179.046,47.852,45.410,17.090,3.418,45.898,0
1490530179.050,52.734,30.273,20.508,15.625,31.250,0
1490530179.054,55.176,30.273,29.297,15.625,32.715,0
1490530179.058,69.336,93.750,31.250,23.438,38.086,0
1490530179.062,66.406,86.426,15.137,7.324,40.527,0
1490530179.065,36.133,37.109,30.273,-2.441,32.715,0
1490530179.069,34.668,12.207,24.414,-9.766,1.953,0
1490530179.073,45.898,11.719,19.043,-3.906,3.906,0
1490530179.077,43.945,25.879,36.621,1.953,21.484,0
1490530179.081,44.922,40.527,12.695,-0.488,27.832,0
1490530179.085,62.012,59.082,14.160,12.207,27.344,0
1490530179.089,72.266,55.176,38.574,12.695,-4.395,0
1490530179.093,50.781,64.453,7.324,-3.418,-4.395,0
1490530179.097,51.270,73.730,8.301,-1.953,29.785,0
1490530179.101,47.852,26.367,22.949,2.930,31.738,0
1490530179.105,29.785,4.395,32.227,1.465,32.715,0
1490530179.108,35.645,22.949,40.039,11.719,49.316,0
1490530179.112,62.500,22.949,20.996,7.324,74.219,0
1490530179.116,65.430,43.457,24.414,6.348,49.316,0
1490530179.120,60.547,76.660,41.504,25.391,5.371,0
1490530179.124,56.641,51.270,23.926,23.926,3.418,0
1490530179.128,53.711,43.457,17.578,23.926,58.594,0
1490530179.132,72.266,87.402,39.062,33.203,72.266,0
1490530179.136,75.195,47.852,34.668,23.438,-4.395,0
1490530179.140,36.133,-2.930,17.578,-6.836,-7.324,0
1490530179.144,20.020,14.160,34.180,-13.672,40.527,0
1490530179.147,30.273,19.043,6.836,-12.207,47.363,0
1490530179.151,36.133,18.555,-4.395,-10.254,7.812,0
1490530179.155,50.293,41.016,20.996,-3.906,-4.883,0
1490530179.159,50.293,47.852,17.090,-6.348,59.570,0
1490530179.163,56.641,62.012,25.879,-5.859,54.199,0
1490530179.167,56.641,77.637,42.480,5.859,8.301,0
1490530179.171,41.016,43.945,37.598,2.930,24.414,0
1490530179.175,36.621,7.812,21.484,-20.020,44.434,0
1490530179.179,31.250,40.527,16.113,-24.902,61.035,0
1490530179.183,38.574,46.875,6.836,-5.859,36.133,0
1490530179.187,53.223,28.809,13.184,4.883,0.977,0
1490530179.190,60.547,68.359,38.574,10.254,19.531,0
1490530179.194,62.500,83.984,29.297,6.348,39.551,0
1490530179.198,68.848,86.426,-6.836,-1.953,30.273,0
1490530179.202,88.379,94.727,28.320,22.949,1.953,0
1490530179.206,51.270,50.781,40.039,24.414,-1.465,0
1490530179.210,12.207,9.277,4.883,-13.672,30.273,0
1490530179.214,43.945,81.055,18.555,-9.766,29.785,0
1490530179.218,59.570,83.496,36.621,10.742,13.184,0
1490530179.222,27.832,56.152,18.555,-5.859,24.414,0
1490530179.226,39.551,91.797,10.742,-3.906,5.371,0
1490530179.230,54.688,77.637,29.297,8.789,0.000,0
1490530179.233,54.688,50.293,36.133,13.672,28.320,0
1490530179.237,61.523,42.969,33.203,19.531,32.715,0
1490530179.241,52.246,46.387,20.020,8.789,17.578,0
1490530179.245,29.297,38.086,8.301,1.465,39.062,0
1490530179.249,33.203,40.527,13.184,17.090,60.059,0
1490530179.253,56.641,41.992,33.691,15.625,15.137,0
1490530179.257,57.129,34.668,42.480,18.555,-7.812,0
1490530179.261,73.730,74.707,41.992,41.504,43.457,0
1490530179.265,69.336,67.871,22.949,18.555,52.734,0
1490530179.269,34.180,59.082,11.719,-3.906,-8.789,0
1490530179.272,39.062,40.527,21.973,11.719,-25.879,0
1490530179.276,57.129,21.484,23.926,21.484,20.508,0
1490530179.280,63.965,8.301,33.691,21.484,47.852,0
1490530179.284,42.969,5.859,34.668,15.625,22.949,0
1490530179.288,35.645,59.570,36.621,18.066,10.254,0
1490530179.292,53.711,56.641,34.668,19.531,28.320,0
1490530179.296,41.504,37.598,23.926,15.137,54.199,0
1490530179.300,36.133,40.527,25.391,5.859,25.391,0
1490530179.304,62.012,32.715,36.621,11.719,-13.672,0
1490530179.308,51.270,20.996,45.898,26.855,17.578,0
1490530179.312,49.805,27.344,47.363,46.875,44.434,0
1490530179.315,62.988,20.996,37.598,37.109,-7.812,0
1490530179.319,30.762,21.484,14.160,3.906,-50.293,0
1490530179.323,27.832,25.879,-6.348,-12.207,-7.324,0
1490530179.327,36.621,-0.977,6.348,-13.184,7.324,0
1490530179.331,30.762,-3.906,32.715,-3.418,14.160,0
1490530179.335,56.641,35.645,31.738,21.484,28.809,0
1490530179.339,49.316,45.410,19.043,18.066,0.488,0
1490530179.343,35.645,12.207,6.348,-1.465,1.953,0
1490530179.347,50.293,29.297,16.602,11.230,25.391,0
1490530179.351,44.434,-3.418,18.555,1.465,32.715,0
1490530179.355,57.617,-13.672,40.039,5.859,16.113,0
1490530179.358,50.781,11.719,40.039,-1.465,-1.953,0
1490530179.362,12.207,-25.879,6.836,-38.086,7.324,0
1490530179.366,17.578,-41.016,3.418,-32.227,12.695,0
1490530179.370,29.297,0.488,9.277,-10.742,-2.930,0
1490530179.374,30.762,13.672,15.137,-6.836,3.906,0
1490530179.378,15.625,-3.906,21.484,-5.371,20.996,0
1490530179.382,9.277,-15.137,20.996,-23.438,67.871,0
1490530179.386,30.273,-17.090,27.344,-34.180,38.574,0
1490530179.390,33.203,15.625,38.574,-19.531,-23.438,0
1490530179.394,14.160,17.578,24.414,-23.926,19.531,0
1490530179.397,-5.859,-5.859,13.672,-34.180,62.012,0
1490530179.401,-12.695,-20.508,19.043,-42.969,50.293,0
1490530179.405,-14.648,-15.137,34.180,-50.781,-4.883,0
1490530179.409,-15.137,-8.301,23.438,-51.758,0.488,0
1490530179.413,-13.184,-17.578,22.949,-53.223,35.645,0
1490530179.417,-16.602,45.898,35.156,-55.176,4.883,0
1490530179.421,-19.531,45.898,32.227,-60.547,-35.156,0
1490530179.425,-12.207,-27.832,37.598,-65.918,-20.996,0
1490530179.429,-16.602,-31.250,28.320,-76.172,35.645,0
1490530179.433,-34.668,-8.301,18.066,-90.820,38.086,0
1490530179.437,-19.531,-11.230,23.926,-80.078,-5.859,0
1490530179.440,-21.484,24.902,32.715,-82.520,-1.465,0
1490530179.444,-46.875,0.488,20.996,-110.840,41.504,0
1490530179.448,-42.480,-32.227,23.926,-113.281,34.668,0
1490530179.452,-56.152,4.883,21.484,-111.328,-17.090,0
1490530179.456,-70.801,0.977,16.602,-107.422,-28.320,0
1490530179.460,-65.430,-39.551,14.648,-116.211,30.273,0
1490530179.464,-60.547,-32.227,1.465,-121.094,33.203,0
1490530179.468,-45.898,-3.906,16.602,-117.188,-18.555,0
1490530179.472,-32.715,21.484,24.414,-106.445,-0.488,0
1490530179.476,-28.809,21.973,30.762,-89.355,26.367,0
1490530179.480,-13.184,12.207,46.387,-79.102,36.621,0
1490530179.483,-7.324,22.461,32.715,-71.289,18.555,0
1490530179.487,5.859,37.109,46.387,-56.152,12.207,0
1490530179.491,5.371,48.828,45.898,-59.082,46.875,0
1490530179.495,-14.648,8.301,9.277,-72.754,69.824,0
1490530179.499,-1.953,-24.414,26.367,-62.988,44.922,0
1490530179.503,1.465,-10.742,31.250,-61.035,23.926,0
1490530179.507,-3.418,-13.672,18.555,-60.547,22.461,0
1490530179.511,-1.953,-28.809,24.414,-46.387,9.277,0
1490530179.515,23.926,-6.348,33.203,-14.160,15.137,0
1490530179.519,43.945,1.465,33.203,-13.184,37.598,0
1490530179.522,45.898,4.395,31.250,-15.625,37.598,0
1490530179.526,42.969,11.230,33.203,-9.766,40.527,0
1490530179.530,61.035,54.199,30.273,-3.418,62.988,0
1490530179.534,69.824,70.312,42.480,1.953,41.016,0
1490530179.538,40.039,-9.766,37.109,-12.695,-4.395,0
1490530179.542,45.410,-25.879,38.086,-2.930,25.391,0
1490530179.546,65.918,4.883,27.344,-1.953,50.781,0
1490530179.550,62.012,-3.906,9.766,-5.371,30.273,0
1490530179.554,55.664,-9.766,11.719,12.695,14.160,0
1490530179.558,52.246,-12.207,30.273,21.973,3.418,0
1490530179.562,76.172,-9.766,44.922,26.367,21.973,0
1490530179.565,103.516,4.395,37.109,23.926,63.965,0
1490530179.569,98.633,-2.930,13.184,19.531,36.133,0
1490530179.573,80.566,21.973,5.859,25.391,6.348,0
1490530179.577,87.402,28.320,38.086,41.016,44.922,0
1490530179.581,109.375,60.547,58.105,49.316,45.898,0
1490530179.585,112.305,64.453,52.246,44.922,19.531,0
1490530179.589,100.586,-8.301,33.691,45.898,0.000,0
1490530179.593,94.238,6.348,25.879,33.691,15.137,0
1490530179.597,83.496,-5.859,14.648,8.789,40.527,0
1490530179.601,93.750,-13.184,11.719,21.484,9.766,0
1490530179.605,100.586,13.672,15.625,23.926,4.395,0
1490530179.608,93.750,17.578,9.277,18.066,40.527,0
1490530179.612,111.328,52.246,15.137,28.320,51.270,0
1490530179.616,110.352,44.922,15.625,36.133,4.395,0
1490530179.620,92.773,38.574,27.344,41.992,-27.344,0
1490530179.624,101.074,29.785,34.668,30.273,25.879,0
1490530179.628,98.145,50.781,29.297,27.832,56.641,0
1490530179.632,81.055,51.758,31.250,26.367,22.949,0
1490530179.636,80.566,-17.090,21.973,9.277,10.254,0
1490530179.640,65.918,1.953,12.695,7.812,22.949,0
1490530179.644,86.426,65.430,24.414,32.715,13.184,0
1490530179.647,109.863,44.434,28.809,44.434,-4.395,0
1490530179.651,91.309,8.789,5.859,31.250,-0.977,0
1490530179.655,85.449,26.855,7.324,46.387,-0.488,0
1490530179.659,104.980,36.621,30.762,57.129,7.812,0
1490530179.663,98.145,26.855,44.434,54.199,33.203,0
1490530179.667,90.820,39.062,51.270,43.945,16.602,0
1490530179.671,96.680,90.820,16.602,26.367,8.789,0
1490530179.675,95.215,62.012,9.277,31.738,20.996,0
1490530179.679,100.586,1.465,34.668,49.805,45.898,0
1490530179.683,93.750,30.762,48.340,64.453,60.059,0
1490530179.687,90.820,27.832,34.180,50.781,16.113,0
1490530179.690,104.004,24.414,9.766,40.039,-28.809,0
1490530179.694,83.496,37.109,9.277,36.621,27.832,0
1490530179.698,67.871,19.043,12.207,29.785,83.984,0
1490530179.702,88.379,49.316,21.973,38.086,14.648,0
1490530179.706,95.215,95.215,24.414,56.641,6.836,0
1490530179.710,93.750,47.363,19.531,46.875,23.926,0
1490530179.714,113.770,23.438,35.156,47.363,21.484,0
1490530179.718,114.746,60.547,36.621,50.781,6.836,0
1490530179.722,74.707,46.875,2.930,31.250,-19.043,0
1490530179.726,56.152,0.488,-0.488,24.902,25.879,0
1490530179.730,74.707,26.855,17.578,37.109,61.523,0
1490530179.733,72.266,33.691,15.625,33.691,26.855,0
1490530179.737,62.988,6.348,34.180,27.344,-16.113,0
1490530179.741,70.801,37.598,43.457,33.203,5.371,0
1490530179.745,71.289,37.598,20.996,16.602,51.758,0
1490530179.749,61.523,11.230,13.184,4.883,49.316,0
1490530179.753,64.941,21.973,27.344,7.324,7.324,0
1490530179.757,68.848,38.574,25.879,12.695,0.977,0
1490530179.761,55.176,45.410,29.297,20.996,33.203,0
1490530179.765,65.430,31.250,28.809,21.973,39.062,0
1490530179.769,74.707,26.367,19.043,12.695,23.926,0
1490530179.772,69.824,33.691,31.738,9.277,27.832,0
1490530179.776,60.059,39.062,25.391,11.719,17.578,0
1490530179.780,44.434,36.133,21.973,4.883,14.160,0
1490530179.784,67.871,52.734,39.062,14.648,11.230,0
1490530179.788,77.637,14.160,35.645,26.367,6.348,0
1490530179.792,64.941,-4.395,32.715,20.996,23.926,0
1490530179.796,74.707,42.969,34.180,26.855,40.039,0
1490530179.800,81.543,34.180,35.156,19.531,37.109,0
1490530179.804,80.566,37.598,41.504,17.578,20.508,0
1490530179.808,73.730,53.711,38.574,30.273,19.043,0
1490530179.812,73.730,42.480,7.812,12.695,41.992,0
1490530179.815,72.266,50.781,2.441,0.000,52.734,0
1490530179.819,62.500,33.691,20.020,21.484,8.789,0
1490530179.823,68.359,-3.906,15.625,24.414,-17.578,0
1490530179.827,86.914,37.109,24.902,24.414,6.348,0
1490530179.831,70.312,79.102,21.973,26.855,25.879,0
1490530179.835,45.898,38.574,11.230,7.324,15.137,0
1490530179.839,67.871,-1.953,20.996,-1.465,-18.066,0
1490530179.843,82.031,31.250,20.996,11.230,-20.020,0
1490530179.847,68.359,61.523,18.555,12.695,22.461,0
1490530179.851,65.918,49.805,18.066,7.812,41.016,0
1490530179.855,75.195,23.926,26.367,14.648,-8.301,0
1490530179.858,65.918,16.113,29.785,7.812,-25.391,0
1490530179.862,46.387,35.156,19.043,-5.371,34.668,0
1490530179.866,42.480,29.297,4.395,-20.508,42.480,0
1490530179.870,53.711,31.250,-3.418,-26.367,7.812,0
1490530179.874,66.895,79.102,10.254,-4.883,9.277,0
1490530179.878,57.129,54.688,5.371,-10.254,45.410,0
1490530179.882,56.152,49.316,7.812,-7.812,63.477,0
1490530179.886,46.875,50.293,23.926,-5.859,-4.395,0
1490530179.890,32.715,7.324,23.926,-5.371,-20.508,0
1490530179.894,57.617,35.156,26.367,34.180,15.137,0
1490530179.897,56.641,27.344,10.254,13.184,12.695,0
1490530179.901,47.363,6.348,8.789,-12.695,10.742,0
1490530179.905,37.109,41.504,15.137,-4.883,-6.836,0
1490530179.909,40.527,66.406,9.766,4.883,38.086,0
1490530179.913,72.754,60.059,24.902,19.043,75.684,0
1490530179.917,63.477,32.227,36.621,21.484,32.715,0
1490530179.921,50.293,15.625,33.691,16.113,2.441,0
1490530179.925,35.645,17.578,15.137,-4.395,16.602,0
1490530179.929,33.203,0.000,1.953,-8.789,23.926,0
1490530179.933,53.223,24.414,14.648,3.906,-5.859,0
1490530179.937,57.129,55.176,31.250,7.324,-2.441,0
1490530179.940,56.152,59.082,34.668,9.277,8.301,0
1490530179.944,59.570,41.504,30.273,10.254,16.113,0
1490530179.948,51.758,2.930,19.043,3.418,44.434,0
1490530179.952,59.082,16.602,16.602,-1.465,36.621,0
1490530179.956,62.012,32.227,21.973,-2.441,12.695,0
1490530179.960,43.945,32.227,17.090,-13.184,11.719,0
1490530179.964,74.707,43.945,29.785,15.137,30.273,0
1490530179.968,90.332,37.598,27.832,26.367,41.992,0
1490530179.972,67.383,29.785,9.277,6.348,29.785,0
1490530179.976,66.895,47.852,0.488,-8.301,-11.719,0
1490530179.980,57.617,39.062,7.812,-10.254,12.695,0
1490530179.983,35.645,41.992,22.461,-6.836,31.738,0
1490530179.987,41.016,49.805,16.602,-20.020,-0.488,0
1490530179.991,74.707,29.297,25.391,-11.719,17.578,0
1490530179.995,80.078,34.180,33.691,6.836,34.180,0
1490530179.999,70.312,57.617,27.344,-11.230,45.898,0
1490530180.003,63.965,30.273,33.203,-22.949,20.508,0
1490530180.007,50.781,-13.672,17.578,-10.742,-3.906,0
1490530180.011,35.156,11.230,6.836,0.488,37.109,0
1490530180.015,21.484,58.105,8.789,9.766,50.293,0
1490530180.019,26.367,40.039,7.812,12.207,-2.930,0
1490530180.022,52.246,15.137,22.949,25.879,-33.203,0
1490530180.026,44.434,26.367,18.555,10.254,0.488,0
1490530180.030,25.391,36.133,18.066,0.977,38.574,0
1490530180.034,30.273,35.156,36.621,3.418,34.668,0
1490530180.038,36.621,25.879,33.203,-1.465,-3.906,0
1490530180.042,46.875,24.414,29.297,7.812,16.113,0
1490530180.046,54.688,26.367,23.438,23.438,64.453,0
1490530180.050,40.039,23.438,9.277,8.301,45.898,0
1490530180.054,42.969,25.879,23.926,-2.441,9.277,0
1490530180.058,45.898,35.156,23.926,2.930,16.113,0
1490530180.062,27.344,13.672,4.883,-7.812,29.785,0
1490530180.065,27.832,3.418,4.395,-1.465,4.883,0
1490530180.069,45.410,37.598,22.461,12.207,-42.969,0
1490530180.073,54.688,43.457,27.344,5.859,1.953,0
1490530180.077,54.199,37.109,22.461,7.812,58.594,0
1490530180.081,76.660,56.152,28.809,35.156,25.391,0
1490530180.085,69.824,25.879,18.555,23.438,1.465,0
1490530180.089,36.621,16.602,16.113,4.883,2.930,0
1490530180.093,52.246,33.691,30.762,10.254,0.488,0
1490530180.097,65.430,51.758,36.621,10.742,25.391,0
1490530180.101,57.617,41.504,38.574,4.883,24.414,0
1490530180.105,62.012,6.348,35.156,8.301,3.906,0
1490530180.108,55.176,16.113,20.996,5.859,-4.883,0
1490530180.112,45.410,49.805,20.508,0.488,5.859,0
1490530180.116,59.570,41.992,31.250,17.090,41.016,0
1490530180.120,46.387,15.625,31.250,16.113,14.160,0
1490530180.124,33.203,31.250,15.625,4.883,-10.742,0
1490530180.128,42.480,33.691,4.395,-1.465,12.695,0
1490530180.132,57.129,48.828,13.672,9.766,19.531,0
1490530180.136,71.289,40.039,30.762,15.625,20.508,0
1490530180.140,61.523,32.715,35.156,5.371,-8.789,0
1490530180.144,33.691,23.926,20.020,-0.977,-13.672,0
1490530180.147,34.180,-9.277,8.789,-4.395,36.621,0
1490530180.151,51.270,22.949,18.066,4.395,24.414,0
1490530180.155,56.152,39.062,21.973,3.906,-19.043,0
1490530180.159,64.941,37.598,8.301,3.906,-44.434,0
1490530180.163,75.684,31.738,11.719,17.090,10.742,0
1490530180.167,58.594,41.992,20.020,13.184,3.906,0
1490530180.171,49.805,42.480,4.395,5.859,-54.688,0
1490530180.175,72.754,34.668,0.000,15.625,-33.691,0
1490530180.179,77.148,49.316,12.207,30.273,15.625,0
1490530180.183,64.453,26.367,21.973,24.414,30.762,0
1490530180.187,49.805,15.137,33.203,12.207,-9.766,0
1490530180.190,48.340,30.273,13.672,11.719,-10.254,0
1490530180.194,49.805,53.223,7.812,9.277,12.695,0
1490530180.198,79.102,50.293,34.180,33.203,18.555,0
1490530180.202,88.379,15.625,45.410,38.574,-17.578,0
1490530180.206,60.059,10.742,38.086,-0.488,-25.391,0
1490530180.210,51.270,-2.441,16.602,-14.160,-1.953,0
1490530180.214,47.363,13.672,7.812,-0.977,2.441,0
1490530180.218,52.734,42.480,20.508,8.301,-10.254,0
1490530180.222,39.062,18.066,12.207,-14.648,-16.113,0
1490530180.226,31.250,5.859,5.859,-26.367,0.977,0
1490530180.230,46.387,41.992,26.855,-4.395,19.043,0
1490530180.233,57.617,57.617,36.621,5.859,-6.348,0
1490530180.237,68.848,26.855,30.273,9.766,-38.574,0
1490530180.241,55.176,30.273,10.254,5.371,-37.598,0
1490530180.245,38.086,33.691,-8.789,-7.324,-26.855,0
1490530180.249,39.062,2.930,7.812,1.465,-11.719,0
1490530180.253,29.297,18.555,13.672,3.906,-26.855,0
1490530180.257,51.270,34.180,22.461,15.137,-35.156,0
1490530180.261,55.176,15.625,42.969,23.438,-17.090,0
1490530180.265,44.922,17.090,23.926,5.859,-14.648,0
1490530180.269,57.129,25.879,2.441,2.441,-24.414,0
1490530180.272,46.387,32.715,22.949,19.043,-30.273,0
1490530180.276,39.551,39.551,33.203,18.555,-5.859,0
1490530180.280,31.250,48.340,6.836,-8.789,6.348,0
1490530180.284,41.992,23.926,14.648,0.000,-7.812,0
1490530180.288,57.129,-12.207,24.902,9.277,-25.391,0
1490530180.292,58.105,28.809,11.719,7.324,-24.414,0
1490530180.296,56.641,62.988,6.836,15.137,28.809,0
1490530180.300,51.270,55.664,11.719,14.160,13.184,0
1490530180.304,54.688,47.852,11.719,5.859,-44.434,0
1490530180.308,66.406,59.082,19.531,8.301,-46.387,0
1490530180.312,86.914,34.180,32.715,30.273,0.977,0
1490530180.315,69.824,24.414,24.414,17.090,30.273,0
1490530180.319,85.938,45.898,34.180,27.344,-26.367,0
1490530180.323,105.469,30.273,44.434,29.785,-62.012,0
1490530180.327,60.547,15.137,10.742,-5.371,-12.695,0
1490530180.331,41.016,8.301,-11.230,-5.859,33.203,0
1490530180.335,58.105,39.062,7.812,0.977,21.973,0
1490530180.339,62.012,72.266,17.578,4.395,-28.809,0
1490530180.343,52.246,39.062,22.949,-5.371,-30.273,0
1490530180.347,53.223,11.719,16.602,-2.930,-14.160,0
1490530180.351,51.270,30.273,10.742,20.996,-43.945,0
1490530180.355,52.734,57.617,22.949,30.273,-55.176,0
1490530180.358,78.613,76.172,38.086,35.156,-11.719,0
1490530180.362,104.492,63.477,54.688,38.086,25.879,0
1490530180.366,94.727,42.480,54.688,23.926,-6.836,0
1490530180.370,47.852,31.250,36.621,0.488,-47.363,0
1490530180.374,18.555,36.621,-0.488,-18.555,-20.508,0
1490530180.378,28.809,51.758,-4.883,-11.230,2.930,0
1490530180.382,47.363,37.598,27.832,4.395,-7.324,0
1490530180.386,63.477,36.133,23.438,13.184,-22.461,0
1490530180.390,77.637,90.820,31.738,23.438,-22.949,0
1490530180.394,62.988,78.125,28.809,16.113,-25.391,0
1490530180.397,59.570,12.695,13.184,12.207,-43.457,0
1490530180.401,68.359,1.465,13.672,15.137,-47.852,0
1490530180.405,49.316,19.531,17.090,-17.090,-43.945,0
1490530180.409,57.129,67.871,26.855,-9.277,-26.855,0
1490530180.413,57.617,65.430,7.812,3.906,28.320,0
1490530180.417,43.945,21.973,-7.812,-16.602,38.574,0
1490530180.421,52.734,53.223,2.930,-5.859,-5.371,0
1490530180.425,78.613,60.059,18.066,6.348,-7.324,0
1490530180.429,71.289,-5.371,21.484,5.859,31.738,0
1490530180.433,48.340,20.020,16.602,-2.441,46.387,0
1490530180.437,54.199,48.340,22.461,1.953,2.930,0
1490530180.440,58.594,63.965,43.945,30.273,-11.230,0
1490530180.444,55.176,70.312,41.016,19.531,35.156,0
1490530180.448,48.340,13.184,14.648,2.441,69.824,0
1490530180.452,48.828,13.672,15.625,21.484,64.941,0
1490530180.456,59.570,59.082,23.438,29.297,42.969,0
1490530180.460,83.008,41.016,28.320,24.414,65.430,0
1490530180.464,55.176,7.812,20.996,5.371,90.332,0
1490530180.468,6.348,15.625,12.695,-4.395,67.383,0
1490530180.472,31.250,28.809,11.230,13.672,60.547,0
1490530180.476,62.500,24.902,23.926,16.113,69.824,0
1490530180.480,48.828,20.508,25.391,-0.488,97.656,0
1490530180.483,47.852,58.105,37.109,13.672,99.121,0
1490530180.487,66.406,14.160,29.297,20.020,54.199,0
1490530180.491,60.547,-14.648,10.254,3.418,93.750,0
1490530180.495,56.152,38.086,13.672,2.930,135.254,0
1490530180.499,45.410,42.969,5.371,-7.324,110.840,0
1490530180.503,35.645,43.457,10.742,-20.508,65.430,0
1490530180.507,45.410,44.434,23.926,-13.672,82.520,0
1490530180.511,61.035,44.434,43.457,4.395,125.977,0
1490530180.515,63.477,25.391,36.621,17.090,126.953,0
1490530180.519,53.711,10.742,33.203,0.488,111.328,0
1490530180.522,42.480,35.156,38.574,-10.254,104.980,0
1490530180.526,46.875,39.551,30.762,1.953,117.676,0
1490530180.530,55.664,32.715,24.414,-4.883,140.625,0
1490530180.534,42.480,28.320,12.207,-14.160,102.539,0
1490530180.538,28.809,32.227,12.207,-4.395,59.570,0
1490530180.542,52.734,62.012,28.320,-6.348,83.984,0
1490530180.546,62.012,48.828,22.949,-9.766,98.633,0
1490530180.550,46.387,12.695,-2.930,-10.742,77.148,0
1490530180.554,22.461,-3.418,0.000,-27.832,66.406,0
1490530180.558,28.320,21.484,16.602,-16.113,73.242,0
1490530180.562,37.109,48.340,23.926,-1.953,79.102,0
1490530180.565,26.367,24.902,16.113,-9.277,97.168,0
1490530180.569,34.180,19.531,4.395,-12.695,83.496,0
1490530180.573,40.527,29.785,16.113,0.977,54.688,0
1490530180.577,46.875,50.293,22.949,5.859,47.363,0
1490530180.581,69.824,70.312,26.855,20.508,70.312,0
1490530180.585,66.406,70.312,30.762,19.531,76.172,0
1490530180.589,37.598,12.207,20.020,-3.906,38.086,0
1490530180.593,46.875,-10.742,11.719,-2.930,12.695,0
1490530180.597,46.875,29.297,6.836,-3.906,45.898,0
1490530180.601,33.691,41.504,1.953,-4.883,75.195,0
1490530180.605,45.410,24.414,5.371,7.812,36.621,0
1490530180.608,65.918,28.809,32.715,18.066,19.531,0
1490530180.612,79.590,61.523,52.734,33.203,57.617,0
1490530180.616,74.707,61.035,38.086,35.645,67.383,0
1490530180.620,62.988,12.695,24.902,11.230,40.039,0
1490530180.624,49.805,-13.184,18.066,-11.230,37.598,0
1490530180.628,48.828,9.766,16.113,2.930,58.594,0
1490530180.632,73.242,37.109,23.438,13.184,87.402,0
1490530180.636,70.312,35.645,9.277,-4.883,38.086,0
1490530180.640,53.711,34.668,13.184,0.977,-6.836,0
1490530180.644,54.688,41.504,20.508,2.930,60.059,0
1490530180.647,56.152,43.945,13.184,3.418,91.797,0
1490530180.651,39.551,43.457,18.066,6.836,35.156,0
1490530180.655,41.016,28.320,21.484,2.441,3.906,0
1490530180.659,55.176,35.645,2.930,4.395,53.223,0
1490530180.663,43.457,21.973,6.348,4.883,41.016,0
1490530180.667,54.199,21.484,38.574,5.859,14.160,0
1490530180.671,63.965,50.293,46.387,12.695,35.156,0
1490530180.675,45.410,28.809,36.133,10.742,55.664,0
1490530180.679,48.828,38.086,21.973,6.348,30.273,0
1490530180.683,44.922,4.883,25.391,9.277,0.000,0
1490530180.687,26.855,-8.789,15.137,1.953,5.859,0
1490530180.690,40.039,61.523,14.160,13.672,27.344,0
1490530180.694,42.480,77.148,21.484,9.766,54.199,0
1490530180.698,48.340,48.828,18.555,5.859,55.176,0
1490530180.702,60.059,25.391,31.738,8.789,34.180,0
1490530180.706,47.363,25.391,34.668,4.395,20.020,0
1490530180.710,47.852,45.410,14.648,19.043,20.996,0
1490530180.714,54.688,51.270,6.348,17.578,20.996,0
1490530180.718,69.824,57.129,24.902,21.973,20.508,0
1490530180.722,67.383,40.527,32.715,17.578,44.922,0
1490530180.726,48.340,1.953,13.184,-3.906,31.738,0
1490530180.730,42.480,31.738,9.766,-1.953,25.391,0
1490530180.733,48.340,47.363,16.113,19.043,46.387,0
1490530180.737,72.266,29.785,16.113,29.297,-1.953,0
1490530180.741,73.730,29.297,16.602,16.602,13.672,0
1490530180.745,55.664,31.250,25.879,0.488,65.430,0
1490530180.749,68.359,9.766,40.039,9.766,71.777,0
1490530180.753,65.918,12.207,20.996,14.160,38.086,0
1490530180.757,50.293,36.133,15.625,0.977,4.395,0
1490530180.761,53.711,65.430,14.160,3.906,38.086,0
1490530180.765,58.594,67.383,4.883,13.672,50.781,0
1490530180.769,62.500,27.832,27.344,3.906,17.090,0
1490530180.772,59.570,46.875,34.668,-1.465,-19.043,0
1490530180.776,60.547,51.270,37.109,14.648,10.254,0
1490530180.780,54.688,17.090,14.160,3.418,73.242,0
1490530180.784,46.387,19.531,5.859,-4.395,36.133,0
1490530180.788,35.645,9.766,9.766,-17.090,-9.277,0
1490530180.792,41.504,24.902,10.742,-13.184,3.418,0
1490530180.796,52.734,48.340,27.344,13.672,24.902,0
1490530180.800,49.805,30.762,36.621,26.367,26.855,0
1490530180.804,57.129,5.371,26.855,30.762,8.789,0
1490530180.808,48.828,9.766,19.531,12.695,24.902,0
1490530180.812,35.156,-7.812,14.648,6.348,26.367,0
1490530180.815,41.016,-4.883,7.324,7.324,-3.906,0
1490530180.819,56.641,52.246,27.832,12.695,3.418,0
1490530180.823,57.617,64.453,25.879,9.277,32.227,0
1490530180.827,49.805,54.199,13.672,-12.695,74.707,0
1490530180.831,60.059,37.598,19.043,-1.465,76.172,0
1490530180.835,51.270,20.508,20.020,18.066,7.812,0
1490530180.839,36.133,-6.836,10.742,4.395,20.020,0
1490530180.843,62.988,22.949,12.207,-1.953,45.410,0
1490530180.847,46.387,29.785,10.254,1.465,35.156,0
1490530180.851,37.598,12.695,16.602,5.859,31.250,0
1490530180.855,65.918,52.734,27.832,3.906,43.945,0
1490530180.858,58.594,64.453,19.043,-2.930,31.250,0
1490530180.862,77.637,54.199,33.691,20.020,33.203,0
1490530180.866,78.613,18.555,25.879,26.855,44.922,0
1490530180.870,63.477,6.836,18.066,15.625,36.133,0
1490530180.874,89.355,42.969,42.480,30.762,21.484,0
1490530180.878,71.777,17.578,30.273,22.461,0.000,0
1490530180.882,49.805,31.738,20.996,7.324,5.859,0
1490530180.886,67.383,69.336,21.973,10.742,-10.742,0
1490530180.890,66.406,52.246,7.812,5.859,-31.738,0
1490530180.894,62.012,24.414,25.879,1.465,-0.977,0
1490530180.897,62.500,-3.906,42.969,9.277,33.691,0
1490530180.901,46.875,17.090,29.297,6.836,16.602,0
1490530180.905,54.688,38.574,18.066,7.324,-23.926,0
1490530180.909,63.965,34.668,23.438,4.395,-30.762,0
1490530180.913,49.805,46.387,29.297,3.418,19.043,0
1490530180.917,45.898,34.180,30.762,4.883,41.504,0
1490530180.921,74.707,4.395,45.410,22.949,-28.809,0
1490530180.925,78.613,-14.160,44.434,32.715,-34.180,0
1490530180.929,41.504,-11.719,22.949,7.324,21.484,0
1490530180.933,36.621,23.926,1.465,-3.418,34.180,0
1490530180.937,64.453,60.547,7.812,4.883,6.348,0
1490530180.940,72.754,34.180,38.086,8.301,-3.906,0
1490530180.944,57.129,29.785,41.504,6.836,22.949,0
1490530180.948,44.434,25.879,23.438,-4.883,8.789,0
1490530180.952,43.945,14.648,10.742,-1.953,-46.387,0
1490530180.956,32.227,0.488,19.043,0.000,-40.039,0
1490530180.960,29.785,4.883,19.531,-3.418,7.812,0
1490530180.964,48.340,30.273,21.484,-5.859,19.043,0
1490530180.968,45.410,30.273,37.598,-7.812,-2.930,0
1490530180.972,45.898,27.832,43.457,5.371,3.418,0
1490530180.976,53.223,30.273,41.504,11.230,34.180,0
1490530180.980,32.715,10.742,28.320,11.230,11.230,0
1490530180.983,12.695,28.320,7.324,-0.488,7.324,0
1490530180.987,31.738,31.250,22.949,-8.789,15.137,0
1490530180.991,48.828,8.301,19.043,-2.930,6.348,0
1490530180.995,35.645,51.758,-3.418,-7.324,9.277,0
1490530180.999,17.090,51.758,-2.441,-10.742,6.836,0
1490530181.003,18.066,7.324,28.809,-13.672,-23.926,0
1490530181.007,29.297,-0.488,33.691,-16.602,-28.320,0
1490530181.011,22.949,26.367,16.602,-6.836,-18.066,0
1490530181.015,35.645,47.363,28.809,2.441,-14.648,0
1490530181.019,49.805,37.598,18.555,-1.465,2.441,0
1490530181.022,53.711,50.781,19.531,-5.371,-23.926,0
1490530181.026,43.945,21.973,9.277,-15.625,-27.832,0
1490530181.030,35.645,12.207,5.371,-14.648,10.254,0
1490530181.034,39.551,49.316,14.648,-10.742,12.207,0
1490530181.038,48.828,26.367,-0.488,-7.812,-20.020,0
1490530181.042,46.387,14.648,-1.465,-3.906,-14.160,0
1490530181.046,53.711,14.648,24.414,-2.930,19.043,0
1490530181.050,69.336,29.785,39.551,16.602,-4.395,0
1490530181.054,40.039,8.789,22.461,-1.465,-61.523,0
1490530181.058,23.438,0.000,3.418,-25.879,-62.500,0
1490530181.062,44.434,47.363,11.719,-12.207,8.301,0
1490530181.065,52.734,44.922,20.020,-2.930,29.785,0
1490530181.069,64.453,38.574,27.832,3.906,-25.391,0
1490530181.073,63.965,80.566,14.648,8.301,-27.832,0
1490530181.077,70.312,62.012,18.555,17.578,7.812,0
1490530181.081,81.543,-0.977,20.020,20.996,25.879,0
1490530181.085,50.781,2.441,1.953,-9.277,2.930,0
1490530181.089,30.273,28.809,15.137,-24.414,-5.859,0
1490530181.093,50.293,26.367,29.785,-16.602,14.648,0
1490530181.097,52.246,37.598,31.738,-21.973,22.949,0
1490530181.101,68.359,73.242,39.551,-6.348,-23.438,0
1490530181.105,62.500,45.898,48.340,3.418,-57.617,0
1490530181.108,45.410,4.395,33.203,0.488,-7.324,0
1490530181.112,41.992,3.418,11.719,-2.930,9.766,0
1490530181.116,20.996,21.973,-0.488,-16.113,-33.691,0
1490530181.120,35.156,35.645,-13.184,-1.465,-55.176,0
1490530181.124,37.109,34.180,1.953,21.973,-15.625,0
1490530181.128,28.320,31.250,14.648,14.648,22.461,0
1490530181.132,49.316,8.301,18.066,17.578,26.855,0
1490530181.136,64.941,21.973,38.086,21.484,-21.484,0
1490530181.140,48.828,36.133,41.992,6.348,-22.949,0
1490530181.144,46.387,33.203,24.902,-1.465,26.855,0
1490530181.147,55.664,34.180,20.996,3.906,-12.207,0
1490530181.151,72.266,67.871,42.969,31.250,-20.508,0
1490530181.155,68.848,86.914,29.297,22.949,4.883,0
1490530181.159,58.105,49.316,12.207,14.160,-15.137,0
1490530181.163,52.246,-10.254,-0.488,-0.977,8.789,0
1490530181.167,56.152,-19.043,-0.488,-1.953,17.090,0
1490530181.171,62.012,41.504,26.367,4.395,-25.879,0
1490530181.175,74.219,52.734,37.109,0.488,-38.574,0
1490530181.179,79.102,22.461,29.297,5.859,-2.930,0
1490530181.183,58.594,53.711,19.531,-8.789,24.902,0
1490530181.187,37.598,57.129,19.531,-20.020,-11.719,0
1490530181.190,55.664,38.574,37.598,0.977,-49.805,0
1490530181.194,58.594,34.180,37.598,8.301,2.930,0
1490530181.198,44.434,33.203,21.484,-1.465,51.758,0
1490530181.202,61.035,59.570,20.996,6.348,17.090,0
1490530181.206,71.289,48.340,9.277,12.207,-36.133,0
1490530181.210,79.590,20.996,21.484,21.973,-27.832,0
1490530181.214,59.082,46.387,40.527,4.883,24.414,0
1490530181.218,62.500,60.059,36.621,8.789,24.414,0
1490530181.222,71.289,30.762,12.695,12.207,2.441,0
1490530181.226,47.852,20.508,8.301,-6.836,13.184,0
1490530181.230,48.828,33.691,25.391,12.695,44.434,0
1490530181.233,61.035,60.547,22.461,23.438,41.016,0
1490530181.237,63.477,55.664,22.461,24.414,-12.695,0
1490530181.241,62.012,55.176,20.508,4.883,0.000,0
1490530181.245,53.223,34.180,20.996,-5.859,60.547,0
1490530181.249,64.453,-2.930,18.555,16.113,43.457,0
1490530181.253,54.199,28.320,15.625,0.488,0.488,0
1490530181.257,55.664,35.645,33.691,9.766,9.277,0
1490530181.261,60.547,55.176,30.762,18.066,51.270,0
1490530181.265,66.406,70.801,22.949,21.973,35.156,0
1490530181.269,85.449,26.855,32.715,23.926,12.207,0
1490530181.272,74.219,19.531,22.461,11.230,22.949,0
1490530181.276,69.824,48.340,29.785,27.832,28.320,0
1490530181.280,61.035,36.133,33.691,18.066,67.383,0
1490530181.284,59.570,22.949,23.926,3.906,61.035,0
1490530181.288,61.523,40.527,19.043,12.207,19.043,0
1490530181.292,60.059,58.105,12.695,11.230,25.879,0
1490530181.296,62.988,56.641,35.156,18.066,52.246,0
1490530181.300,82.520,47.363,51.758,24.902,30.273,0
1490530181.304,74.219,22.949,35.156,18.555,5.371,0
1490530181.308,67.383,39.551,25.391,21.484,33.203,0
1490530181.312,63.477,29.785,24.414,0.488,78.613,0
1490530181.315,59.570,49.316,28.320,-2.441,86.426,0
1490530181.319,67.871,78.125,34.180,16.113,60.059,0
1490530181.323,61.035,19.531,9.766,8.789,38.574,0
1490530181.327,33.691,-3.906,-8.301,-11.230,76.172,0
1490530181.331,38.574,20.020,20.020,2.930,87.891,0
1490530181.335,55.176,62.012,32.715,20.996,77.148,0
1490530181.339,60.547,64.453,31.250,27.344,65.430,0
1490530181.343,65.430,19.043,26.367,27.344,32.227,0
1490530181.347,56.152,24.902,9.766,8.789,74.219,0
1490530181.351,63.477,43.945,25.879,6.348,84.473,0
1490530181.355,69.824,46.875,34.668,12.695,33.203,0
1490530181.358,80.078,96.191,18.555,41.016,20.996,0
1490530181.362,69.824,53.711,6.836,31.738,42.969,0
1490530181.366,43.457,-22.949,10.742,-1.465,44.922,0
1490530181.370,41.504,-1.465,9.766,-3.906,9.277,0
1490530181.374,50.781,36.621,7.812,-2.441,1.465,0
1490530181.378,68.359,83.008,33.203,11.230,44.434,0
1490530181.382,70.312,78.125,38.086,10.254,85.938,0
1490530181.386,75.684,24.902,26.855,14.160,21.484,0
1490530181.390,95.215,23.926,20.996,23.438,-27.344,0
1490530181.394,79.102,42.969,22.949,6.836,20.020,0
1490530181.397,45.410,28.809,7.812,-13.672,63.477,0
1490530181.401,55.664,35.156,12.207,-1.953,56.152,0
1490530181.405,66.895,66.895,20.508,0.000,16.113,0
1490530181.409,83.496,57.129,15.625,3.418,17.578,0
1490530181.413,60.059,36.133,32.227,9.766,46.875,0
1490530181.417,34.180,54.199,21.484,-3.906,57.617,0
1490530181.421,56.152,40.039,17.578,4.883,54.688,0
1490530181.425,61.035,23.926,23.438,11.719,61.035,0
1490530181.429,45.898,23.438,1.465,-10.254,52.734,0
1490530181.433,26.855,17.578,7.324,-18.066,29.297,0
1490530181.437,36.621,21.484,36.621,4.395,35.156,0
1490530181.440,39.551,37.598,27.344,7.812,40.039,0
1490530181.444,35.156,22.949,20.020,2.930,45.898,0
1490530181.448,41.504,12.695,22.949,-4.395,67.383,0
1490530181.452,51.270,40.527,20.996,2.441,69.824,0
1490530181.456,51.270,62.500,13.672,2.930,75.195,0
1490530181.460,53.711,55.176,12.207,14.160,72.754,0
1490530181.464,61.523,53.711,29.297,14.648,69.336,0
1490530181.468,61.523,55.664,38.574,10.742,72.266,0
1490530181.472,66.895,33.691,23.438,29.785,56.641,0
1490530181.476,58.105,14.648,17.578,22.461,34.180,0
1490530181.480,46.387,17.090,12.695,4.883,63.965,0
1490530181.483,46.875,52.246,7.812,-9.277,92.773,0
1490530181.487,66.406,47.363,26.855,2.441,26.367,0
1490530181.491,83.496,55.176,22.461,26.855,15.625,0
1490530181.495,69.824,58.594,10.742,30.273,70.312,0
1490530181.499,47.363,2.930,18.555,19.043,68.848,0
1490530181.503,49.805,11.719,17.090,20.020,32.227,0
1490530181.507,72.266,53.711,15.625,29.785,8.789,0
1490530181.511,77.637,56.641,25.391,32.227,37.598,0
1490530181.515,90.332,51.270,56.152,35.645,75.195,0
1490530181.519,92.773,42.969,38.574,25.879,50.293,0
1490530181.522,63.477,17.090,11.719,14.160,-13.184,0
1490530181.526,48.340,14.648,4.883,8.301,9.277,0
1490530181.530,44.922,26.367,9.277,0.488,69.336,0
1490530181.534,32.715,35.156,16.602,-4.883,34.668,0
1490530181.538,44.922,48.828,17.090,12.207,1.465,0
1490530181.542,79.102,60.059,49.316,44.434,54.199,0
1490530181.546,80.566,33.203,38.574,30.273,71.289,0
1490530181.550,51.270,40.527,22.949,6.348,37.598,0
1490530181.554,18.555,50.293,14.160,0.000,5.371,0
1490530181.558,26.367,15.625,6.348,-8.789,11.230,0
1490530181.562,54.688,45.898,24.414,6.836,15.625,0
1490530181.565,46.875,38.574,27.344,9.277,-7.324,0
1490530181.569,19.531,-21.973,12.695,-3.418,-11.230,0
1490530181.573,33.691,29.297,15.137,6.836,-3.906,0
1490530181.577,54.688,63.965,37.109,6.836,-15.137,0
1490530181.581,59.082,69.824,42.969,9.766,-0.977,0
1490530181.585,46.875,43.945,33.203,13.184,8.789,0
1490530181.589,39.551,49.316,28.809,14.160,-0.977,0
1490530181.593,43.945,47.852,30.762,11.719,31.738,0
1490530181.597,35.156,19.043,20.020,-4.395,53.711,0
1490530181.601,33.691,31.250,10.742,-4.883,30.273,0
1490530181.605,28.809,-0.977,20.996,10.742,24.414,0
1490530181.608,21.484,-1.953,20.020,6.348,13.672,0
1490530181.612,25.879,33.691,14.648,4.883,6.348,0
1490530181.616,40.039,59.082,20.508,13.184,41.016,0
1490530181.620,50.293,62.012,37.598,28.320,36.621,0
1490530181.624,59.082,56.641,39.551,42.480,3.418,0
1490530181.628,73.242,57.617,24.414,29.785,-9.766,0
1490530181.632,59.082,4.395,20.996,0.000,28.809,0
1490530181.636,36.621,-15.137,21.973,0.488,31.250,0
1490530181.640,30.273,21.484,29.785,13.672,-0.488,0
1490530181.644,56.641,24.902,37.109,16.113,33.203,0
1490530181.647,56.641,8.301,25.879,3.906,67.871,0
1490530181.651,39.551,37.598,6.836,-5.371,51.758,0
1490530181.655,53.711,62.500,7.324,-3.418,-4.395,0
1490530181.659,49.805,11.719,9.766,5.371,-16.113,0
1490530181.663,46.387,19.043,10.254,4.883,39.062,0
1490530181.667,54.688,56.641,7.324,5.859,50.781,0
1490530181.671,59.082,37.598,18.555,8.301,2.930,0
1490530181.675,61.523,31.250,33.203,3.418,9.277,0
1490530181.679,70.801,23.926,33.691,13.672,52.734,0
1490530181.683,50.781,16.602,9.766,-9.766,41.992,0
1490530181.687,69.336,62.012,10.254,-2.441,25.879,0
1490530181.690,95.703,50.781,41.992,28.809,23.926,0
1490530181.694,72.754,41.504,45.410,23.438,57.129,0
1490530181.698,51.758,48.828,21.484,14.160,70.801,0
1490530181.702,51.270,4.883,-8.301,9.766,29.785,0
1490530181.706,45.410,20.020,-0.977,-2.441,17.090,0
1490530181.710,40.039,58.105,21.973,-16.602,67.871,0
1490530181.714,59.570,48.828,33.691,-1.465,56.152,0
1490530181.718,74.707,50.781,32.227,13.672,12.207,0
1490530181.722,62.500,49.805,27.832,3.418,-13.672,0
1490530181.726,37.598,20.996,17.578,3.906,0.000,0
1490530181.730,27.832,17.090,24.902,1.465,32.227,0
1490530181.733,35.156,35.645,29.785,-16.113,31.738,0
1490530181.737,42.969,59.570,24.902,-8.301,17.578,0
1490530181.741,43.457,32.715,13.672,10.742,31.738,0
1490530181.745,48.340,45.410,3.906,0.000,57.129,0
1490530181.749,69.824,78.613,49.805,16.113,55.664,0
1490530181.753,59.082,1.953,48.828,17.578,47.363,0
1490530181.757,26.367,-28.320,-4.395,-28.320,45.898,0
1490530181.761,35.156,18.066,2.441,-26.855,41.992,0
1490530181.765,34.180,45.410,12.207,-18.066,32.227,0
1490530181.769,35.645,58.105,12.207,-16.602,58.105,0
1490530181.772,49.805,80.566,13.672,-2.930,29.297,0
1490530181.776,72.754,68.848,18.066,18.066,23.438,0
1490530181.780,68.848,19.531,30.273,24.902,71.289,0
1490530181.784,53.223,40.039,23.926,20.508,69.336,0
1490530181.788,36.133,42.480,27.344,-2.930,28.320,0
1490530181.792,40.039,21.973,26.367,-24.414,50.293,0
1490530181.796,80.078,75.684,20.020,-2.441,51.758,0
1490530181.800,79.102,76.660,15.137,13.184,41.992,0
1490530181.804,53.223,18.066,21.973,-3.418,16.113,0
1490530181.808,44.922,50.781,26.855,-6.348,-26.855,0
1490530181.812,46.875,58.594,4.395,5.371,17.578,0
1490530181.815,33.203,16.113,-4.883,-16.113,52.246,0
1490530181.819,33.691,26.855,14.648,-17.578,18.555,0
1490530181.823,63.965,76.660,20.996,9.277,10.254,0
1490530181.827,63.477,56.641,14.648,8.301,41.016,0
1490530181.831,48.340,46.387,31.250,-5.371,55.176,0
1490530181.835,57.129,56.641,25.391,-9.277,34.668,0
1490530181.839,42.969,36.621,7.324,-6.836,10.254,0
1490530181.843,20.996,30.273,23.438,-14.160,34.668,0
1490530181.847,24.902,17.090,23.438,-31.250,34.180,0
1490530181.851,23.438,-5.371,12.695,-38.086,-1.953,0
1490530181.855,25.879,31.250,14.648,-28.809,-11.230,0
1490530181.858,27.832,39.062,13.672,-15.137,20.020,0
1490530181.862,21.484,20.996,25.391,-2.441,49.316,0
1490530181.866,35.156,32.715,39.062,0.488,38.086,0
1490530181.870,45.410,41.992,39.551,5.859,-11.719,0
1490530181.874,46.387,32.227,36.621,23.926,-1.953,0
1490530181.878,45.898,41.992,41.504,20.996,40.527,0
1490530181.882,39.062,-8.789,35.156,16.602,38.086,0
1490530181.886,29.297,-15.137,25.879,15.625,42.969,0
1490530181.890,43.945,38.574,21.973,18.066,47.363,0
1490530181.894,43.945,16.113,29.785,19.043,22.461,0
1490530181.897,28.809,39.062,34.668,12.695,8.789,0
1490530181.901,36.133,67.383,0.488,8.301,10.742,0
1490530181.905,38.086,34.180,-4.395,5.859,-6.348,0
1490530181.909,36.621,12.207,21.484,12.695,-5.371,0
1490530181.913,51.758,29.785,50.293,26.367,26.855,0
1490530181.917,75.684,49.316,53.711,17.090,49.805,0
1490530181.921,67.871,23.926,18.066,2.930,18.066,0
1490530181.925,47.852,-2.930,18.066,9.766,0.488,0
1490530181.929,46.387,31.738,35.645,16.602,56.152,0
1490530181.933,54.199,55.176,25.391,11.719,73.242,0
1490530181.937,69.824,56.641,21.973,16.113,29.785,0
1490530181.940,84.961,33.691,15.137,23.438,-9.766,0
1490530181.944,67.383,25.391,8.789,9.277,0.977,0
1490530181.948,56.641,28.809,8.301,-7.324,45.410,0
1490530181.952,61.035,25.391,2.930,-4.395,46.387,0
1490530181.956,69.824,79.102,10.254,14.648,2.441,0
1490530181.960,83.008,75.195,15.625,20.996,4.883,0
1490530181.964,75.684,34.668,26.855,1.953,42.480,0
1490530181.968,64.941,46.875,42.969,-7.812,42.480,0
1490530181.972,59.082,40.527,41.016,-4.883,22.461,0
1490530181.976,60.547,36.133,25.879,-3.418,13.184,0
1490530181.980,75.684,78.613,13.184,1.953,29.297,0
1490530181.983,67.871,68.359,24.414,11.230,5.371,0
1490530181.987,36.621,24.902,12.695,-13.184,-34.668,0
1490530181.991,33.203,37.109,-10.742,-27.832,-1.465,0
1490530181.995,64.941,41.016,24.902,18.555,62.500,0
1490530181.999,65.430,27.832,36.133,30.273,60.059,0
1490530182.003,57.617,36.133,9.277,21.484,19.043,0
1490530182.007,54.199,22.461,-3.906,16.602,18.066,0
1490530182.011,55.664,-10.254,17.090,17.090,56.641,0
1490530182.015,65.430,19.531,31.250,22.461,51.270,0
1490530182.019,52.734,3.418,18.066,7.812,18.066,0
1490530182.022,23.438,10.742,25.391,-2.930,18.066,0
1490530182.026,19.531,43.945,35.156,-10.742,48.340,0
1490530182.030,54.199,39.551,32.715,6.348,41.016,0
1490530182.034,66.895,43.457,41.016,21.484,21.973,0
1490530182.038,68.848,38.086,37.598,17.578,6.836,0
1490530182.042,67.383,48.828,21.973,11.230,22.461,0
1490530182.046,43.457,42.480,16.602,13.672,54.688,0
1490530182.050,41.016,3.906,31.738,12.695,37.109,0
1490530182.054,74.219,12.695,32.227,15.625,28.320,0
1490530182.058,64.453,30.273,22.949,10.742,25.879,0
1490530182.062,52.734,38.086,49.316,20.020,38.574,0
1490530182.065,50.293,25.391,37.598,11.719,44.434,0
1490530182.069,28.320,-25.879,11.230,-10.254,41.992,0
1490530182.073,53.711,-2.930,38.574,17.090,17.578,0
1490530182.077,44.434,6.348,30.273,11.230,4.883,0
1490530182.081,32.715,-10.742,9.277,10.742,46.387,0
1490530182.085,71.289,41.504,32.227,42.969,41.504,0
1490530182.089,69.824,39.551,36.621,24.902,35.156,0
1490530182.093,62.500,14.648,20.508,6.836,32.715,0
1490530182.097,45.898,30.762,16.113,0.000,24.414,0
1490530182.101,47.363,40.527,31.738,20.996,20.020,0
1490530182.105,69.824,18.555,39.062,44.434,1.465,0
1490530182.108,68.848,2.441,40.039,38.574,4.395,0
1490530182.112,60.059,20.508,29.785,32.227,52.246,0
1490530182.116,49.316,26.855,8.301,15.625,65.918,0
1490530182.120,38.574,25.879,2.441,5.371,23.438,0
1490530182.124,51.270,38.574,12.695,20.020,2.441,0
1490530182.128,50.781,-1.953,25.391,24.414,46.387,0
1490530182.132,61.035,34.180,34.180,24.902,67.871,0
1490530182.136,69.336,31.250,37.598,23.438,18.066,0
1490530182.140,49.805,-20.996,33.203,15.625,-11.719,0
1490530182.144,44.434,-3.418,18.066,3.906,42.969,0
1490530182.147,36.621,-9.766,10.742,-0.977,66.406,0
1490530182.151,41.504,22.461,14.648,6.836,4.395,0
1490530182.155,75.684,81.543,29.297,22.461,-15.137,0
1490530182.159,82.520,65.430,33.203,20.020,30.762,0
1490530182.163,58.594,28.320,7.324,-0.488,45.898,0
1490530182.167,52.246,23.926,2.930,-4.395,21.973,0
1490530182.171,62.500,12.207,10.742,-9.277,-0.977,0
1490530182.175,61.523,16.602,15.625,-16.602,-14.160,0
1490530182.179,55.176,48.340,17.578,-20.020,8.301,0
1490530182.183,60.547,35.156,0.000,-12.207,31.738,0
1490530182.187,69.824,27.832,5.859,2.930,31.250,0
1490530182.190,63.965,62.988,21.973,13.184,9.766,0
1490530182.194,58.594,63.477,41.016,27.832,13.672,0
1490530182.198,35.645,40.039,24.902,22.461,25.391,0
1490530182.202,17.090,29.785,-1.953,18.066,31.250,0
1490530182.206,13.184,7.812,11.230,4.883,18.066,0
1490530182.210,32.227,7.812,23.438,6.836,17.090,0
1490530182.214,50.781,20.020,32.227,18.555,43.457,0
1490530182.218,45.898,16.602,34.180,14.648,23.926,0
1490530182.222,56.641,28.809,37.598,40.527,3.418,0
1490530182.226,54.688,39.551,27.344,31.250,7.324,0
1490530182.230,44.434,37.109,21.484,16.113,21.484,0
1490530182.233,48.340,44.434,21.973,13.184,34.180,0
1490530182.237,51.758,54.688,19.531,18.066,7.324,0
1490530182.241,48.828,19.043,32.227,16.602,-4.395,0
1490530182.245,55.664,27.832,33.691,0.000,5.371,0
1490530182.249,46.875,27.832,30.273,3.906,33.203,0
1490530182.253,33.691,15.625,13.672,5.371,21.484,0
1490530182.257,46.875,28.320,0.488,5.371,4.395,0
1490530182.261,62.012,52.246,32.227,25.879,33.691,0
1490530182.265,62.988,60.547,47.852,25.391,39.062,0
1490530182.269,46.875,22.461,17.090,7.324,-7.812,0
1490530182.272,43.457,9.277,13.672,4.395,-47.363,0
1490530182.276,39.551,27.344,35.645,-3.906,8.301,0
1490530182.280,45.898,48.828,34.180,1.953,67.871,0
1490530182.284,55.664,53.711,16.602,16.113,25.391,0
1490530182.288,70.312,26.367,12.207,31.738,-33.691,0
1490530182.292,79.590,5.371,25.391,38.574,-1.465,0
1490530182.296,41.016,23.926,21.973,18.555,56.641,0
1490530182.300,46.875,61.035,27.344,18.555,36.133,0
1490530182.304,66.895,36.621,23.926,8.301,5.371,0
1490530182.308,72.266,29.297,16.602,5.371,-2.930,0
1490530182.312,66.406,20.508,31.250,13.672,5.371,0
1490530182.315,37.109,21.973,24.414,-8.789,16.602,0
1490530182.319,38.086,58.594,10.254,-8.789,-6.836,0
1490530182.323,72.754,57.129,29.297,16.113,0.488,0
1490530182.327,67.383,56.152,18.555,16.113,39.062,0
1490530182.331,38.574,48.340,3.906,4.395,56.152,0
1490530182.335,38.574,5.859,17.090,-6.836,60.059,0
1490530182.339,60.059,36.133,36.621,-1.465,61.523,0
1490530182.343,60.547,62.012,28.320,9.766,48.828,0
1490530182.347,37.109,52.246,9.766,-2.441,55.664,0
1490530182.351,48.340,40.039,15.137,-0.977,63.965,0
1490530182.355,53.223,26.855,35.156,5.859,20.996,0
1490530182.358,44.922,51.758,36.621,0.977,19.043,0
1490530182.362,62.500,70.801,29.785,2.441,44.434,0
1490530182.366,46.387,27.832,27.344,-3.418,45.410,0
1490530182.370,39.551,14.160,20.996,-0.488,43.945,0
1490530182.374,49.805,11.230,32.227,5.371,8.789,0
1490530182.378,43.457,52.246,27.344,-2.441,0.000,0
1490530182.382,46.387,49.805,4.395,4.395,39.551,0
1490530182.386,60.547,24.902,14.160,21.484,47.852,0
1490530182.390,44.922,32.715,18.066,17.578,13.672,0
1490530182.394,32.227,46.875,20.020,-6.836,14.160,0
1490530182.397,46.875,29.297,21.484,2.930,45.898,0
1490530182.401,58.594,4.395,22.461,33.691,31.250,0
1490530182.405,54.688,17.090,24.902,23.926,-20.996,0
1490530182.409,53.711,23.926,20.020,27.832,-12.207,0
1490530182.413,61.523,41.504,31.738,36.621,44.922,0
1490530182.417,84.473,49.805,28.809,39.551,44.922,0
1490530182.421,88.867,46.875,12.207,32.227,-20.996,0
1490530182.425,85.449,47.363,18.555,23.926,-22.461,0
1490530182.429,77.148,24.414,26.367,30.762,20.996,0
1490530182.433,45.410,7.812,1.953,14.648,26.855,0
1490530182.437,44.434,16.113,-3.418,6.348,6.348,0
1490530182.440,77.148,28.809,25.879,11.719,8.789,0
1490530182.444,78.613,56.641,45.898,18.066,48.340,0
1490530182.448,55.664,53.223,24.414,4.883,54.688,0
1490530182.452,54.199,14.648,-1.953,-14.648,18.066,0
1490530182.456,63.477,2.441,-7.324,-14.160,6.836,0
1490530182.460,70.312,56.152,11.230,1.465,40.039,0
1490530182.464,59.082,81.543,22.949,-0.977,45.898,0
1490530182.468,59.570,32.715,19.531,0.000,-16.602,0
1490530182.472,58.594,15.137,11.719,-1.465,-14.648,0
1490530182.476,52.246,21.484,20.996,-13.184,36.133,0
1490530182.480,36.133,5.371,11.719,-22.461,49.316,0
1490530182.483,40.527,22.949,14.648,-25.879,39.551,0
1490530182.487,60.059,66.406,8.301,-24.414,2.441,0
1490530182.491,51.270,62.500,-2.930,-29.785,21.484,0
1490530182.495,39.551,39.551,19.043,-19.043,44.434,0
1490530182.499,44.922,7.324,10.742,1.953,32.715,0
1490530182.503,74.219,25.391,30.762,26.855,4.883,0
1490530182.507,69.336,37.598,51.270,28.809,-8.301,0
1490530182.511,46.387,33.203,22.461,1.953,-13.184,0
1490530182.515,48.828,24.414,24.902,-2.441,4.883,0
1490530182.519,48.828,21.973,37.598,18.066,33.203,0
1490530182.522,80.078,49.316,46.875,54.688,7.324,0
1490530182.526,65.430,14.160,40.039,25.879,41.992,0
1490530182.530,36.133,26.367,27.832,4.395,56.152,0
1490530182.534,34.668,32.715,13.184,13.672,32.227,0
1490530182.538,18.555,-11.230,-2.441,-6.348,9.277,0
1490530182.542,27.344,-18.066,20.996,-0.488,16.113,0
1490530182.546,50.293,18.555,41.016,18.066,42.969,0
1490530182.550,26.367,45.898,24.902,11.230,38.086,0
1490530182.554,35.645,29.785,34.668,22.461,-8.301,0
1490530182.558,62.988,18.555,52.734,37.109,-26.855,0
1490530182.562,48.828,17.578,42.480,11.719,51.270,0
1490530182.565,49.316,-4.395,34.668,7.324,74.707,0
1490530182.569,29.785,17.090,13.672,10.742,14.160,0
1490530182.573,20.996,56.641,21.973,26.367,3.418,0
1490530182.577,20.508,13.184,14.648,19.531,44.434,0
1490530182.581,23.438,-5.371,-0.977,6.836,56.641,0
1490530182.585,39.551,26.367,27.832,11.230,16.602,0
1490530182.589,45.898,28.809,37.598,13.672,10.742,0
1490530182.593,49.316,40.527,33.691,25.879,28.320,0
1490530182.597,47.852,13.184,36.133,26.367,34.668,0
1490530182.601,48.340,1.953,30.273,12.207,30.762,0
1490530182.605,48.828,20.508,30.762,13.184,14.648,0
1490530182.608,30.762,38.086,21.484,11.719,22.461,0
1490530182.612,41.992,53.711,21.973,12.695,20.020,0
1490530182.616,50.781,7.324,29.297,12.207,27.832,0
1490530182.620,41.992,-9.766,37.598,10.742,46.387,0
1490530182.624,60.547,23.438,43.457,25.879,47.363,0
1490530182.628,43.457,40.039,15.625,0.977,37.598,0
1490530182.632,30.273,41.016,12.695,-5.371,62.500,0
1490530182.636,56.152,33.203,10.742,13.672,41.016,0
1490530182.640,52.246,27.832,17.578,11.230,0.977,0
1490530182.644,35.645,41.016,27.344,2.441,-8.789,0
1490530182.647,49.316,86.914,27.344,1.953,9.766,0
1490530182.651,62.500,66.406,46.875,5.859,54.688,0
1490530182.655,35.156,41.992,30.762,-19.043,44.922,0
1490530182.659,15.137,15.137,1.953,-39.062,18.555,0
1490530182.663,6.348,-7.324,0.977,-40.039,21.484,0
1490530182.667,-25.391,-3.906,7.324,-46.387,34.180,0
1490530182.671,-38.086,30.762,10.742,-61.523,21.973,0
1490530182.675,-19.531,48.340,7.812,-65.430,12.695,0
1490530182.679,-30.273,35.645,2.441,-84.473,43.457,0
1490530182.683,-34.180,70.312,13.672,-86.914,57.617,0
1490530182.687,-35.156,65.918,9.277,-66.895,21.973,0
1490530182.690,-47.363,4.883,22.461,-80.078,-3.418,0
1490530182.694,-39.551,-24.414,21.484,-90.820,17.090,0
1490530182.698,-31.250,17.090,-6.836,-78.613,64.453,0
1490530182.702,-46.875,28.320,-6.348,-84.473,47.363,0
1490530182.706,-39.062,40.527,9.766,-85.449,-27.832,0
1490530182.710,-22.949,67.383,29.297,-75.684,-8.789,0
1490530182.714,-31.250,22.461,29.785,-91.309,53.711,0
1490530182.718,-52.246,-14.160,12.207,-102.539,54.199,0
1490530182.722,-28.320,2.930,18.555,-73.730,18.555,0
1490530182.726,-1.465,3.906,24.902,-62.500,11.230,0
1490530182.730,-26.855,-3.906,22.949,-84.473,72.754,0
1490530182.733,-42.480,38.574,25.879,-86.426,64.941,0
1490530182.737,-13.184,68.848,26.367,-72.754,-21.973,0
1490530182.741,5.371,43.945,31.738,-64.941,-32.715,0
1490530182.745,-9.277,41.016,34.180,-71.289,44.922,0
1490530182.749,-10.254,28.320,21.484,-63.965,65.430,0
1490530182.753,5.371,11.230,17.578,-36.621,29.297,0
1490530182.757,21.973,13.184,47.363,-21.484,17.090,0
1490530182.761,33.691,30.273,54.688,-13.184,50.781,0
1490530182.765,23.438,53.223,21.973,-22.949,58.594,0
1490530182.769,16.602,49.805,8.301,-39.062,28.809,0
1490530182.772,20.996,34.668,20.996,-33.203,22.461,0
1490530182.776,18.555,53.711,21.484,-19.043,33.203,0
1490530182.780,6.836,10.254,12.695,-27.832,64.941,0
1490530182.784,15.625,-8.789,15.137,-19.531,35.645,0
1490530182.788,42.480,52.734,27.344,2.441,16.113,0
1490530182.792,45.898,40.039,15.625,-0.488,30.273,0
1490530182.796,31.250,28.320,8.789,-8.789,4.395,0
1490530182.800,37.598,96.191,36.621,5.371,9.277,0
1490530182.804,32.227,59.082,20.508,4.395,9.277,0
1490530182.808,28.320,-25.391,-10.742,-16.602,13.672,0
1490530182.812,48.828,9.277,19.043,-5.859,40.039,0
1490530182.815,45.898,60.547,42.969,9.766,34.668,0
1490530182.819,46.875,81.543,29.785,-6.348,42.480,0
1490530182.823,63.965,66.406,36.133,-2.441,41.504,0
1490530182.827,62.500,36.133,36.133,24.414,38.086,0
1490530182.831,41.992,2.441,5.859,11.719,62.988,0
1490530182.835,32.227,3.418,6.836,0.488,73.730,0
1490530182.839,40.527,22.949,11.230,7.324,47.852,0
1490530182.843,61.523,24.902,4.395,25.879,-12.207,0
1490530182.847,64.941,47.852,26.367,29.297,4.883,0
1490530182.851,53.711,76.660,29.785,8.301,60.547,0
1490530182.855,58.105,70.312,13.672,0.488,14.160,0
1490530182.858,44.922,23.438,24.902,0.977,5.859,0
1490530182.862,41.016,18.555,34.180,7.324,55.176,0
1490530182.866,53.711,27.344,35.645,26.855,43.457,0
1490530182.870,76.172,23.438,27.832,45.898,19.043,0
1490530182.874,67.383,27.344,6.836,31.738,11.230,0
1490530182.878,62.500,41.016,15.625,26.855,49.316,0
1490530182.882,73.242,30.273,26.367,32.227,57.617,0
1490530182.886,74.707,15.137,14.160,29.785,13.672,0
1490530182.890,85.449,41.992,13.672,33.203,-11.230,0
1490530182.894,99.121,30.762,31.250,48.828,19.531,0
1490530182.897,91.309,21.973,34.180,61.035,82.031,0
1490530182.901,78.125,28.809,19.531,57.129,72.266,0
1490530182.905,107.422,68.848,38.086,69.824,4.883,0
1490530182.909,107.910,66.895,32.227,58.105,14.648,0
1490530182.913,97.168,63.965,27.832,50.293,55.176,0
1490530182.917,109.375,62.500,36.621,71.289,43.457,0
1490530182.921,102.539,0.977,25.879,66.895,26.367,0
1490530182.925,80.566,9.277,16.602,39.062,10.254,0
1490530182.929,88.379,40.527,18.555,38.574,1.953,0
1490530182.933,101.562,-0.488,30.273,50.293,39.551,0
1490530182.937,96.191,39.551,41.016,43.945,45.898,0
1490530182.940,90.332,60.059,45.410,42.480,15.625,0
1490530182.944,92.285,42.480,28.809,42.969,1.953,0
1490530182.948,85.938,55.664,6.348,38.574,0.977,0
1490530182.952,70.801,24.902,13.184,26.855,28.809,0
1490530182.956,76.172,22.949,18.066,35.645,24.414,0
1490530182.960,78.613,41.504,34.668,51.758,25.879,0
1490530182.964,77.148,31.250,38.574,58.105,34.668,0
1490530182.968,85.938,50.293,19.043,51.758,-0.488,0
1490530182.972,95.215,63.965,27.832,44.434,1.953,0
1490530182.976,80.078,45.410,45.898,41.992,4.395,0
1490530182.980,65.430,17.578,14.160,28.320,11.230,0
1490530182.983,66.895,20.020,-3.418,25.391,53.711,0
1490530182.987,54.688,30.762,16.602,15.625,37.598,0
1490530182.991,27.344,14.648,21.484,-3.906,-11.719,0
1490530182.995,51.758,30.273,26.367,5.371,10.254,0
1490530182.999,80.078,42.969,35.645,16.602,42.480,0
1490530183.003,49.805,45.410,27.344,15.137,33.203,0
1490530183.007,49.316,68.359,19.043,21.973,49.316,0
1490530183.011,55.664,43.945,20.508,18.555,47.852,0
1490530183.015,42.480,7.812,19.043,4.395,40.527,0
1490530183.019,43.945,56.641,14.160,-5.859,40.039,0
1490530183.022,50.781,81.055,17.578,4.883,-19.531,0
1490530183.026,54.199,38.574,20.508,17.090,-5.371,0
1490530183.030,50.781,30.762,23.926,10.742,65.918,0
1490530183.034,53.223,25.879,23.438,8.301,33.203,0
1490530183.038,60.547,42.969,11.230,13.672,-16.113,0
1490530183.042,68.359,43.945,27.344,20.508,-5.859,0
1490530183.046,30.273,12.207,33.691,4.883,28.320,0
1490530183.050,26.855,22.949,25.391,-1.953,54.199,0
1490530183.054,60.059,41.504,41.016,8.789,54.199,0
1490530183.058,51.758,35.645,35.156,3.418,28.809,0
1490530183.062,31.738,28.809,7.812,-19.043,41.992,0
1490530183.065,26.855,40.039,29.785,-7.324,36.133,0
1490530183.069,22.461,22.949,33.203,-4.395,10.254,0
1490530183.073,9.766,3.418,9.277,-25.879,20.508,0
1490530183.077,3.906,3.418,15.137,-28.809,20.020,0
1490530183.081,5.859,15.137,26.367,-34.180,49.805,0
1490530183.085,-1.465,30.273,7.812,-42.969,36.621,0
1490530183.089,4.395,37.109,11.230,-41.992,19.043,0
1490530183.093,31.250,77.148,28.320,-20.508,34.180,0
1490530183.097,55.664,96.680,47.852,11.230,20.996,0
1490530183.101,30.273,34.180,50.293,-12.695,40.527,0
1490530183.105,-8.789,3.906,14.648,-47.852,25.879,0
1490530183.108,-10.254,-13.672,-15.137,-39.551,-3.906,0
1490530183.112,-11.230,-14.160,-4.395,-56.152,-3.418,0
1490530183.116,4.883,22.461,15.625,-58.594,15.137,0
1490530183.120,18.066,56.641,7.812,-44.434,24.414,0
1490530183.124,3.418,70.312,1.953,-41.992,-10.742,0
1490530183.128,16.602,63.477,11.719,-22.949,3.906,0
1490530183.132,49.316,63.477,27.832,-7.812,76.172,0
1490530183.136,55.664,47.363,32.715,-5.371,52.246,0
1490530183.140,33.691,12.695,13.184,-18.555,-5.371,0
1490530183.144,15.625,8.789,13.672,-36.133,32.227,0
1490530183.147,-6.836,34.668,-5.371,-46.875,100.098,0
1490530183.151,-4.395,25.391,-23.926,-41.016,65.430,0
1490530183.155,27.344,33.203,15.137,-28.320,-9.766,0
1490530183.159,36.621,39.551,28.320,-24.414,-10.742,0
1490530183.163,27.832,50.293,16.602,-25.879,37.109,0
1490530183.167,25.391,39.062,10.254,-41.992,41.992,0
1490530183.171,46.875,13.672,15.625,-24.414,23.438,0
1490530183.175,52.734,53.223,45.898,13.672,-7.812,0
1490530183.179,23.438,31.738,27.832,-12.207,26.855,0
1490530183.183,-4.883,12.695,-13.672,-53.223,50.781,0
1490530183.187,5.859,27.344,10.254,-44.922,16.602,0
1490530183.190,27.832,32.715,37.598,-22.949,-6.348,0
1490530183.194,23.926,12.695,33.203,-31.738,-6.836,0
1490530183.198,15.137,26.855,29.297,-30.762,3.906,0
1490530183.202,27.832,51.758,24.414,-18.555,-7.812,0
1490530183.206,56.152,40.527,31.250,-10.254,-15.137,0
1490530183.210,39.062,41.992,22.949,-9.766,21.973,0
1490530183.214,9.766,52.246,-2.441,-21.973,52.246,0
1490530183.218,21.484,22.949,23.438,-11.230,26.367,0
1490530183.222,14.648,-5.371,9.277,-21.484,23.438,0
1490530183.226,13.184,25.879,-2.930,-20.020,30.762,0
1490530183.230,44.922,16.113,33.691,14.160,25.391,0
1490530183.233,39.062,13.672,35.645,11.719,35.645,0
1490530183.237,26.855,27.344,31.738,0.977,37.598,0
1490530183.241,22.949,13.672,14.160,-18.555,36.621,0
1490530183.245,25.879,34.180,5.859,-20.020,39.551,0
1490530183.249,25.391,53.223,4.395,-20.020,24.902,0
1490530183.253,28.320,15.137,11.719,-15.137,40.039,0
1490530183.257,34.180,6.836,0.000,8.301,46.875,0
1490530183.261,34.668,23.926,-3.418,-0.977,20.508,0
1490530183.265,36.621,14.648,22.461,-9.766,-2.441,0
1490530183.269,32.227,41.504,15.137,-18.555,12.695,0
1490530183.272,26.855,36.621,17.090,-28.809,29.297,0
1490530183.276,22.461,39.551,18.555,-24.414,37.598,0
1490530183.280,33.203,41.016,19.531,-1.465,70.801,0
1490530183.284,48.340,24.414,19.043,7.812,76.660,0
1490530183.288,38.574,15.625,1.953,2.441,34.180,0
1490530183.292,31.738,8.301,17.578,7.812,31.250,0
1490530183.296,38.574,48.340,28.320,6.836,61.523,0
1490530183.300,47.852,42.969,20.508,8.301,25.391,0
1490530183.304,51.270,22.461,26.855,16.602,-7.324,0
1490530183.308,28.809,12.695,17.090,16.602,-7.812,0
1490530183.312,35.156,25.879,-1.953,12.207,16.113,0
1490530183.315,44.434,33.691,10.254,16.602,45.898,0
1490530183.319,29.785,-0.977,11.719,22.461,15.625,0
1490530183.323,27.832,25.879,1.465,7.812,-23.926,0
1490530183.327,38.574,37.598,12.695,-2.441,20.996,0
1490530183.331,54.688,32.227,28.320,15.625,82.031,0
1490530183.335,38.574,25.879,18.066,13.184,42.480,0
1490530183.339,27.832,25.391,19.043,22.949,-19.043,0
1490530183.343,15.625,5.859,13.184,14.160,9.277,0
1490530183.347,14.648,17.578,0.488,-12.207,62.988,0
1490530183.351,40.527,76.660,20.996,7.812,37.598,0
1490530183.355,36.133,21.973,16.113,8.301,-3.418,0
1490530183.358,21.484,-19.043,-27.344,-11.230,11.230,0
1490530183.362,10.742,8.789,-40.039,-28.809,32.715,0
1490530183.366,21.973,27.344,-11.230,-23.926,38.086,0
1490530183.370,35.645,27.344,9.766,-20.020,22.461,0
1490530183.374,28.320,11.230,-16.113,-40.527,20.996,0
1490530183.378,20.996,21.484,-17.578,-33.203,8.789,0
1490530183.382,32.227,33.691,4.395,-17.090,47.363,0
1490530183.386,51.758,65.918,23.438,-11.230,45.898,0
1490530183.390,52.734,63.965,39.551,1.465,-4.395,0
1490530183.394,38.086,11.230,9.766,-13.184,10.254,0
1490530183.397,38.574,8.301,-18.555,-19.531,24.414,0
1490530183.401,43.945,51.758,-20.996,-23.438,46.875,0
1490530183.405,45.410,52.246,-14.160,-23.926,42.480,0
1490530183.409,46.875,49.805,-1.953,-10.742,7.812,0
1490530183.413,46.875,74.219,19.043,6.348,30.273,0
1490530183.417,63.965,34.668,34.668,21.973,49.316,0
1490530183.421,58.105,17.090,19.531,11.719,15.137,0
1490530183.425,38.086,29.785,-13.672,-7.324,9.277,0
1490530183.429,53.223,19.043,4.395,12.695,20.020,0
1490530183.433,59.570,29.297,24.414,27.832,22.949,0
1490530183.437,64.453,57.617,24.902,21.973,9.277,0
1490530183.440,53.711,42.969,13.184,16.113,-17.578,0
1490530183.444,39.551,7.812,4.883,20.996,-15.625,0
1490530183.448,41.992,40.039,2.930,15.137,30.273,0
1490530183.452,45.410,37.109,10.742,7.812,54.688,0
1490530183.456,58.594,2.441,31.738,27.832,14.160,0
1490530183.460,50.781,12.207,10.254,13.672,-3.906,0
1490530183.464,47.363,21.484,2.930,14.160,23.926,0
1490530183.468,53.223,22.949,22.949,15.137,20.508,0
1490530183.472,65.918,35.645,28.320,19.531,-7.812,0
1490530183.476,56.152,45.410,25.391,26.367,7.324,0
1490530183.480,53.223,35.156,23.926,7.812,23.926,0
1490530183.483,66.895,20.508,9.766,3.906,19.043,0
1490530183.487,50.293,43.945,1.465,-2.441,-8.301,0
1490530183.491,57.129,81.055,22.949,-6.348,-23.438,0
1490530183.495,72.754,40.039,36.621,20.996,26.367,0
1490530183.499,56.152,-11.230,21.484,13.672,53.711,0
1490530183.503,43.945,20.508,5.859,-11.719,11.230,0
1490530183.507,61.035,36.133,-12.207,2.441,17.090,0
1490530183.511,71.289,43.457,1.465,6.348,39.062,0
1490530183.515,62.500,54.688,7.324,-1.953,60.059,0
1490530183.519,48.340,23.438,4.883,-4.883,51.270,0
1490530183.522,59.570,35.156,13.184,-2.441,-3.906,0
1490530183.526,75.684,43.457,17.578,2.441,12.695,0
1490530183.530,72.754,37.109,33.203,11.719,35.645,0
1490530183.534,58.594,25.391,31.250,-0.488,18.066,0
1490530183.538,43.457,-0.488,18.066,-5.859,16.113,0
1490530183.542,41.016,24.414,13.184,0.977,12.207,0
1490530183.546,60.547,42.480,22.461,18.555,3.418,0
1490530183.550,71.289,41.992,16.113,32.227,0.977,0
1490530183.554,63.477,19.043,8.789,32.227,-7.812,0
1490530183.558,66.406,46.875,21.484,39.551,-7.812,0
1490530183.562,61.035,41.504,17.090,22.461,-2.441,0
1490530183.565,38.574,4.883,10.742,5.859,22.461,0
1490530183.569,49.316,33.691,32.715,19.531,43.945,0
1490530183.573,69.824,43.945,44.434,21.973,25.879,0
1490530183.577,52.734,54.199,31.738,22.949,-13.672,0
1490530183.581,50.293,62.988,28.809,24.902,4.883,0
1490530183.585,41.992,1.465,13.184,2.441,52.246,0
1490530183.589,31.250,-1.953,6.348,3.906,-2.930,0
1490530183.593,45.898,46.387,19.043,13.672,-26.367,0
1490530183.597,53.711,53.711,1.465,4.395,38.574,0
1490530183.601,58.105,45.898,-7.324,7.324,27.344,0
1490530183.605,54.688,60.059,18.066,15.137,-0.977,0
1490530183.608,52.246,52.246,44.922,24.414,-6.836,0
1490530183.612,74.219,13.672,27.344,25.391,-11.230,0
1490530183.616,71.777,43.457,7.324,4.883,18.066,0
1490530183.620,66.895,54.688,25.391,6.348,-9.766,0
1490530183.624,79.102,46.387,26.367,17.090,-29.785,0
1490530183.628,80.078,39.551,12.695,16.602,14.160,0
1490530183.632,86.914,38.574,16.113,18.066,58.594,0
1490530183.636,87.402,62.988,33.691,15.625,11.719,0
1490530183.640,76.172,48.828,22.949,17.090,-25.391,0
1490530183.644,82.031,30.273,-0.488,22.949,39.062,0
1490530183.647,83.496,25.879,25.391,27.344,69.824,0
1490530183.651,67.871,24.414,35.645,14.648,33.691,0
1490530183.655,69.336,53.711,25.391,7.324,8.789,0
1490530183.659,72.266,66.406,30.762,16.602,42.969,0
1490530183.663,76.172,47.363,29.785,30.762,67.871,0
1490530183.667,86.914,42.969,29.785,33.691,62.012,0
1490530183.671,86.914,32.715,25.391,31.250,18.066,0
1490530183.675,72.754,49.805,9.277,14.648,5.859,0
1490530183.679,73.730,29.297,12.695,26.367,29.785,0
1490530183.683,82.031,0.488,19.043,37.109,10.742,0
1490530183.687,68.848,45.410,16.113,17.578,12.695,0
1490530183.690,58.105,44.922,7.812,23.438,27.344,0
1490530183.694,62.500,5.371,10.254,23.438,21.484,0
1490530183.698,66.895,23.438,13.672,9.277,19.043,0
1490530183.702,81.055,32.227,18.066,27.832,47.363,0
1490530183.706,90.332,59.082,39.062,48.828,25.879,0
1490530183.710,71.289,73.730,31.738,26.367,5.371,0
1490530183.714,52.734,35.156,19.531,13.672,52.246,0
1490530183.718,66.406,89.844,21.484,29.297,37.598,0
1490530183.722,74.219,69.336,24.414,37.109,42.969,0
1490530183.726,36.133,-39.062,11.719,8.789,30.762,0
1490530183.730,30.273,-19.531,5.371,-5.371,-8.301,0
1490530183.733,41.992,21.973,14.648,-4.395,28.320,0
1490530183.737,48.828,27.832,19.043,0.977,36.621,0
1490530183.741,49.316,32.715,3.418,5.371,-9.277,0
1490530183.745,48.340,53.223,9.766,11.230,20.020,0
1490530183.749,50.293,57.617,32.715,25.879,68.848,0
1490530183.753,52.734,42.480,45.898,37.598,41.992,0
1490530183.757,53.711,41.504,35.156,20.996,0.000,0
1490530183.761,60.059,47.852,30.762,18.066,4.883,0
1490530183.765,83.984,41.016,41.504,35.156,47.852,0
1490530183.769,68.359,30.762,31.250,21.973,31.738,0
1490530183.772,30.762,25.879,26.855,13.184,-42.480,0
1490530183.776,40.527,27.832,26.367,6.348,-24.902,0
1490530183.780,52.246,17.090,21.973,2.441,61.035,0
1490530183.784,51.758,23.438,25.391,13.184,81.543,0
1490530183.788,47.852,48.828,23.438,19.531,25.879,0
1490530183.792,63.477,42.969,27.832,35.156,24.414,0
1490530183.796,84.961,35.156,41.992,46.875,50.293,0
1490530183.800,59.570,41.992,35.156,22.461,48.340,0
1490530183.804,57.129,40.039,31.250,27.832,29.785,0
1490530183.808,56.641,37.109,22.461,26.855,22.949,0
1490530183.812,58.594,34.668,20.508,29.297,32.715,0
1490530183.815,64.941,46.387,40.039,57.129,-3.418,0
1490530183.819,48.828,34.180,32.715,40.527,-34.180,0
1490530183.823,55.176,22.949,22.949,25.391,19.531,0
1490530183.827,52.246,42.480,12.207,18.555,35.156,0
1490530183.831,42.969,39.551,16.602,8.789,8.301,0
1490530183.835,74.707,54.199,16.602,20.996,11.719,0
1490530183.839,78.613,73.730,19.531,24.902,29.297,0
1490530183.843,61.523,60.059,34.668,14.160,30.273,0
1490530183.847,64.453,35.156,27.344,23.926,24.902,0
1490530183.851,51.270,-15.625,14.648,8.301,41.992,0
1490530183.855,44.922,16.602,13.672,10.254,37.109,0
1490530183.858,58.594,75.684,17.578,21.484,-1.953,0
1490530183.862,55.664,67.383,17.578,3.906,-9.277,0
1490530183.866,43.457,39.062,18.555,-2.930,12.695,0
1490530183.870,50.781,27.344,20.508,-3.906,31.250,0
1490530183.874,67.383,54.199,30.762,10.254,33.203,0
1490530183.878,65.918,69.824,28.809,17.578,19.043,0
1490530183.882,40.039,38.086,17.578,-0.488,52.246,0
1490530183.886,33.691,35.645,23.438,-5.371,77.637,0
1490530183.890,38.086,34.668,16.602,0.000,28.320,0
1490530183.894,43.945,31.250,16.113,12.207,8.301,0
1490530183.897,59.570,55.664,22.461,10.254,52.734,0
1490530183.901,65.918,54.199,18.555,2.930,48.828,0
1490530183.905,71.289,61.523,27.344,28.320,-3.418,0
1490530183.909,52.246,53.223,24.414,19.531,-29.297,0
1490530183.913,59.570,28.809,22.461,15.625,23.926,0
1490530183.917,89.355,31.738,35.645,39.062,56.152,0
1490530183.921,64.453,37.109,23.438,17.578,0.977,0
1490530183.925,71.289,41.992,33.691,18.555,-17.578,0
1490530183.929,78.125,71.777,38.086,34.180,29.297,0
1490530183.933,57.129,60.059,20.508,13.672,64.453,0
1490530183.937,65.430,16.113,24.902,14.160,41.504,0
1490530183.940,63.965,32.715,36.133,27.832,28.320,0
1490530183.944,65.918,64.453,31.738,29.297,39.551,0
1490530183.948,67.871,71.289,28.320,22.949,56.641,0
1490530183.952,51.270,29.785,29.297,14.648,38.086,0
1490530183.956,60.547,40.039,24.414,20.508,-0.977,0
1490530183.960,64.941,42.969,10.254,15.137,18.066,0
1490530183.964,62.012,40.039,23.438,26.855,39.551,0
1490530183.968,74.219,73.242,44.434,38.574,37.598,0
1490530183.972,74.219,30.762,41.504,25.391,15.137,0
1490530183.976,65.918,-4.395,29.297,29.785,1.465,0
1490530183.980,51.758,3.906,30.762,30.273,1.465,0
1490530183.983,41.016,47.363,22.949,17.090,-5.371,0
1490530183.987,53.711,55.176,9.766,18.066,6.836,0
1490530183.991,62.500,20.020,36.621,27.832,18.555,0
1490530183.995,49.805,-10.742,29.785,16.113,-3.418,0
1490530183.999,44.434,13.184,21.484,4.883,6.836,0
1490530184.003,59.082,86.426,31.738,26.855,43.457,0
1490530184.007,70.312,30.273,25.391,25.391,20.020,0
1490530184.011,67.383,11.230,21.973,7.812,13.184,0
1490530184.015,59.082,64.941,23.926,0.488,48.340,0
1490530184.019,41.016,32.715,18.066,7.324,37.109,0
1490530184.022,25.391,28.320,15.137,2.930,2.930,0
1490530184.026,54.688,60.059,23.926,8.789,-16.602,0
1490530184.030,71.777,50.293,13.672,17.090,35.156,0
1490530184.034,55.176,21.484,24.414,18.555,77.637,0
1490530184.038,50.781,18.555,30.273,16.113,23.438,0
1490530184.042,41.504,29.297,9.277,10.254,9.277,0
1490530184.046,29.297,53.223,10.254,7.324,18.066,0
1490530184.050,39.551,59.570,0.488,-14.160,42.969,0
1490530184.054,53.223,21.973,-19.531,-17.090,36.621,0
1490530184.058,75.684,35.645,8.789,10.254,-3.418,0
1490530184.062,98.145,55.664,36.133,25.391,15.137,0
1490530184.065,80.078,24.414,24.902,11.230,54.688,0
1490530184.069,46.875,41.504,21.484,-3.906,20.996,0
1490530184.073,57.617,47.852,27.344,1.953,-19.043,0
1490530184.077,69.824,36.133,23.926,0.000,19.531,0
1490530184.081,60.547,35.156,3.906,4.395,73.242,0
1490530184.085,54.688,25.879,0.000,15.625,39.062,0
1490530184.089,66.895,33.691,9.766,14.160,-20.508,0
1490530184.093,72.266,62.012,10.254,15.137,8.301,0
1490530184.097,61.523,39.551,2.441,5.371,45.898,0
1490530184.101,66.406,18.555,0.000,1.465,23.926,0
1490530184.105,49.805,49.316,5.371,-7.812,-38.574,0
1490530184.108,62.500,79.102,34.180,17.090,-23.438,0
1490530184.112,88.379,32.715,56.641,37.598,6.836,0
1490530184.116,62.500,-5.859,23.926,11.719,8.789,0
1490530184.120,43.457,37.109,4.883,-18.066,17.578,0
1490530184.124,37.598,24.902,13.184,-24.414,27.832,0
1490530184.128,41.992,24.414,5.371,-5.859,33.203,0
1490530184.132,30.273,44.434,8.301,-10.742,52.734,0
1490530184.136,22.949,33.691,28.320,-5.859,38.574,0
1490530184.140,56.152,59.570,36.133,22.949,0.977,0
1490530184.144,78.125,84.961,25.879,26.367,-6.836,0
1490530184.147,57.129,37.598,20.996,11.719,-10.254,0
1490530184.151,33.691,8.301,26.367,17.578,-7.324,0
1490530184.155,39.551,29.785,20.996,27.344,-3.418,0
1490530184.159,41.992,22.461,19.043,12.207,-15.625,0
1490530184.163,40.527,18.555,15.137,1.953,15.137,0
1490530184.167,66.406,54.688,36.621,34.180,29.297,0
1490530184.171,74.707,52.246,36.133,40.039,15.625,0
1490530184.175,58.105,46.875,16.602,25.391,15.137,0
1490530184.179,51.270,47.363,23.438,20.508,41.504,0
1490530184.183,62.988,27.344,28.809,35.645,62.012,0
1490530184.187,45.898,35.156,-2.441,24.902,25.879,0
1490530184.190,20.996,-6.836,-1.465,-3.906,-22.949,0
1490530184.194,47.363,-2.441,22.461,18.555,-26.855,0
1490530184.198,62.988,56.641,20.020,17.090,21.973,0
1490530184.202,67.383,20.020,24.414,16.113,29.297,0
1490530184.206,66.406,22.949,30.273,19.531,-8.301,0
1490530184.210,51.270,59.082,30.762,14.648,6.348,0
1490530184.214,60.059,65.430,27.832,28.320,60.547,0
1490530184.218,70.801,68.359,20.996,18.066,60.059,0
1490530184.222,94.238,49.805,23.438,19.531,21.973,0
1490530184.226,81.543,36.133,20.020,6.836,9.277,0
1490530184.230,46.875,34.180,-0.488,-22.949,26.855,0
1490530184.233,48.828,20.996,-1.953,-19.531,33.203,0
1490530184.237,62.500,3.418,22.949,0.488,-2.930,0
1490530184.241,63.965,48.340,23.438,5.371,-15.137,0
1490530184.245,52.246,78.613,18.555,7.812,20.996,0
1490530184.249,57.617,35.156,26.367,18.066,39.062,0
1490530184.253,59.082,34.180,15.625,24.414,20.996,0
1490530184.257,63.477,76.172,4.883,30.762,9.766,0
1490530184.261,64.941,53.711,23.438,42.480,19.531,0
1490530184.265,59.570,33.691,35.645,46.875,24.414,0
1490530184.269,56.152,17.578,9.766,20.996,26.855,0
1490530184.272,58.594,15.625,-10.254,19.531,9.277,0
1490530184.276,38.574,32.715,-6.836,10.254,6.836,0
1490530184.280,16.602,15.137,9.277,4.395,29.297,0
1490530184.284,31.738,46.875,13.672,8.789,19.531,0
1490530184.288,61.523,93.262,25.879,26.367,-10.254,0
1490530184.292,54.199,43.945,32.715,22.949,14.648,0
1490530184.296,32.227,-4.883,13.184,-7.324,26.367,0
1490530184.300,29.297,22.949,12.695,7.812,13.184,0
1490530184.304,49.805,83.984,44.434,29.297,16.602,0
1490530184.308,52.246,50.293,40.039,20.996,22.461,0
1490530184.312,44.922,16.113,0.977,12.695,48.828,0
1490530184.315,45.898,42.969,-0.488,21.484,60.059,0
1490530184.319,48.828,42.480,32.227,21.484,22.949,0
1490530184.323,66.895,43.945,39.062,21.484,-20.996,0
1490530184.327,71.289,33.691,18.066,20.508,-34.668,0
1490530184.331,60.059,49.316,28.320,18.066,-14.648,0
1490530184.335,53.223,65.430,42.969,15.137,15.625,0
1490530184.339,57.129,23.926,23.926,14.648,-0.488,0
1490530184.343,53.223,33.691,17.578,20.508,2.441,0
1490530184.347,43.457,46.875,23.438,22.461,28.809,0
1490530184.351,58.105,43.945,41.504,25.879,36.133,0
1490530184.355,56.152,59.082,31.738,20.020,28.809,0
1490530184.358,58.594,49.316,4.395,13.672,21.973,0
1490530184.362,80.078,60.547,16.602,27.344,30.762,0
1490530184.366,74.219,29.297,30.273,4.883,44.922,0
1490530184.370,67.871,26.367,33.203,5.371,33.203,0
1490530184.374,55.664,31.250,45.410,24.414,-0.977,0
1490530184.378,46.387,25.391,40.039,12.207,-4.395,0
1490530184.382,61.523,38.086,16.113,8.789,2.441,0
1490530184.386,65.918,41.992,10.254,3.418,-19.531,0
1490530184.390,67.383,57.617,25.879,16.602,-48.828,0
1490530184.394,67.383,32.227,26.855,25.879,-38.086,0
1490530184.397,62.500,-6.836,12.695,18.555,0.488,0
1490530184.401,48.828,20.020,17.090,1.465,16.602,0
1490530184.405,49.316,59.082,7.812,1.953,2.441,0
1490530184.409,48.340,69.336,12.695,-5.859,18.555,0
1490530184.413,56.152,69.336,34.180,10.742,48.340,0
1490530184.417,87.402,54.199,49.316,45.898,58.594,0
1490530184.421,80.566,17.090,54.199,23.438,25.391,0
1490530184.425,56.641,-3.418,35.645,13.184,10.254,0
1490530184.429,64.941,29.785,37.109,32.715,34.668,0
1490530184.433,61.035,73.730,40.527,20.508,40.527,0
1490530184.437,45.898,51.270,28.320,11.230,9.277,0
1490530184.440,57.617,30.273,19.531,23.438,19.531,0
1490530184.444,46.875,20.996,14.160,11.719,16.602,0
1490530184.448,44.434,43.457,15.625,3.418,-16.113,0
1490530184.452,72.266,47.852,11.719,11.719,19.531,0
1490530184.456,60.547,-4.395,24.414,11.719,24.414,0
1490530184.460,67.871,14.648,24.414,33.691,-9.766,0
1490530184.464,72.266,37.598,12.695,35.645,17.578,0
1490530184.468,44.434,36.621,22.949,33.691,30.762,0
1490530184.472,67.383,49.316,31.738,31.250,14.648,0
1490530184.476,87.402,77.148,47.363,32.715,13.184,0
