timestamps,TP9,AF7,AF8,TP10,Right AUX,Marker0
1490439035.761,52.734,32.715,38.086,65.918,13.184,0
1490439035.765,-1.953,24.414,3.906,22.461,43.945,0
1490439035.769,-55.176,-16.602,-4.883,-22.949,38.574,0
1490439035.773,13.184,30.762,44.922,35.156,13.184,0
1490439035.777,41.992,1.465,69.824,61.035,19.531,0
1490439035.781,22.949,-3.906,40.527,47.852,30.273,0
1490439035.785,-20.996,-28.320,0.000,9.277,29.785,0
1490439035.788,-18.555,7.812,-27.344,8.301,18.555,0
1490439035.792,14.160,22.461,23.926,44.434,-2.441,0
1490439035.796,-2.441,-4.883,64.453,46.875,26.855,0
1490439035.800,-23.926,-26.367,32.227,34.180,34.668,0
1490439035.804,-43.457,-37.109,-22.949,3.906,23.926,0
1490439035.808,-21.484,17.578,-18.066,-9.277,57.617,0
1490439035.812,-14.160,-6.348,14.160,-13.672,71.289,0
1490439035.816,-28.320,-33.691,10.254,-12.207,63.477,0
1490439035.820,-10.254,24.414,46.387,21.484,30.273,0
1490439035.824,-32.227,-4.395,12.207,4.395,26.367,0
1490439035.828,-23.926,-59.570,4.883,-2.930,37.598,0
1490439035.831,27.832,38.086,79.590,44.434,55.664,0
1490439035.835,29.785,63.965,37.598,36.621,51.270,0
1490439035.839,11.719,25.391,9.277,3.906,0.000,0
1490439035.843,-36.133,8.301,48.340,-37.109,17.090,0
1490439035.847,-99.609,-35.645,9.766,-75.684,52.246,0
1490439035.851,-73.730,-41.016,4.395,-53.711,45.410,0
1490439035.855,-27.344,-27.832,36.133,-15.137,25.879,0
1490439035.859,-27.832,-2.930,23.926,-11.719,24.902,0
1490439035.863,-10.254,20.996,33.203,0.977,22.461,0
1490439035.867,22.461,30.762,60.059,49.805,45.410,0
1490439035.870,-7.324,41.504,52.734,23.438,52.246,0
1490439035.874,-43.945,20.996,23.926,-40.039,9.766,0
1490439035.878,-37.109,-16.602,4.883,-34.668,15.625,0
1490439035.882,-47.363,-10.254,-8.301,-42.969,34.668,0
1490439035.886,-13.184,-7.812,30.762,-19.043,46.875,0
1490439035.890,46.875,18.555,108.887,80.078,64.453,0
1490439035.894,-17.090,29.785,57.129,30.762,33.691,0
1490439035.898,-61.035,29.297,18.555,-38.086,30.273,0
1490439035.902,-22.949,57.129,47.363,7.812,37.109,0
1490439035.906,-47.363,52.246,1.953,-19.531,44.434,0
1490439035.910,-59.570,76.660,-8.789,-43.457,44.434,0
1490439035.913,-10.254,109.863,70.801,-3.906,22.949,0
1490439035.917,-13.184,83.496,91.309,4.883,37.598,0
1490439035.921,-49.805,41.992,53.711,-22.461,18.555,0
1490439035.925,-58.105,45.898,-20.508,-40.039,4.395,0
1490439035.929,-34.668,75.684,-12.207,-21.484,17.090,0
1490439035.933,-9.277,92.285,58.594,1.953,20.996,0
1490439035.937,1.953,81.055,56.641,19.531,17.578,0
1490439035.941,1.465,70.801,62.988,26.855,27.344,0
1490439035.945,-42.480,63.477,-4.883,-19.531,49.316,0
1490439035.949,-10.254,61.035,-17.090,-11.719,49.805,0
1490439035.953,71.289,86.426,80.566,54.199,26.855,0
1490439035.956,51.758,75.684,80.078,55.176,1.465,0
1490439035.960,-27.344,30.273,-9.277,-8.301,-6.348,0
1490439035.964,18.066,77.637,30.762,29.785,17.090,0
1490439035.968,68.848,72.754,94.238,75.684,13.184,0
1490439035.972,5.371,35.156,26.367,10.254,-24.414,0
1490439035.976,25.391,92.285,28.320,37.598,0.000,0
1490439035.980,77.148,84.961,70.312,92.285,43.945,0
1490439035.984,47.363,60.547,55.664,54.688,34.668,0
1490439035.988,-20.996,68.848,-49.805,-27.344,0.977,0
1490439035.992,17.578,71.289,-33.691,26.855,3.418,0
1490439035.995,97.168,77.637,60.059,108.887,40.527,0
1490439035.999,89.844,75.684,74.219,90.820,47.852,0
1490439036.003,34.180,16.113,59.570,36.133,47.852,0
1490439036.007,36.133,42.480,52.246,41.016,46.387,0
1490439036.011,50.293,65.430,41.016,61.523,56.152,0
1490439036.015,-12.207,46.875,-10.254,0.000,47.852,0
1490439036.019,35.645,51.270,24.902,39.551,16.113,0
1490439036.023,106.934,67.871,63.965,104.492,29.785,0
1490439036.027,69.824,85.938,50.293,92.773,41.016,0
1490439036.031,92.773,98.145,107.422,136.230,18.066,0
1490439036.035,56.152,69.336,86.426,93.262,39.062,0
1490439036.038,42.480,64.453,47.363,55.664,65.430,0
1490439036.042,82.520,85.938,32.715,74.219,32.227,0
1490439036.046,-11.230,34.668,-40.039,-22.461,33.203,0
1490439036.050,-30.762,12.695,-24.414,-29.785,58.594,0
1490439036.054,35.156,41.992,39.062,62.012,53.711,0
1490439036.058,38.086,49.805,11.719,57.617,57.129,0
1490439036.062,52.246,71.777,29.785,66.895,24.414,0
1490439036.066,73.242,77.148,95.703,109.863,4.395,0
1490439036.070,30.273,29.785,41.992,60.059,38.086,0
1490439036.074,50.293,23.926,19.531,85.449,30.762,0
1490439036.078,69.824,62.500,57.129,113.281,14.160,0
1490439036.081,6.836,19.043,7.812,47.852,48.828,0
1490439036.085,41.504,52.246,23.926,80.078,49.316,0
1490439036.089,69.336,88.867,69.824,94.238,38.086,0
1490439036.093,37.598,50.781,31.250,65.918,48.340,0
1490439036.097,7.812,37.109,21.973,41.504,36.621,0
1490439036.101,11.719,43.457,40.039,38.574,29.785,0
1490439036.105,44.434,47.852,52.246,82.031,28.320,0
1490439036.109,71.777,52.734,79.590,120.117,16.602,0
1490439036.113,58.594,42.969,72.266,107.422,38.086,0
1490439036.117,7.324,42.969,30.273,50.781,56.152,0
1490439036.120,33.691,83.984,34.668,60.059,22.461,0
1490439036.124,48.340,51.270,25.879,56.152,16.113,0
1490439036.128,-7.324,8.789,-22.461,2.441,83.496,0
1490439036.132,-41.016,14.648,-38.574,-21.973,83.496,0
1490439036.136,60.547,97.656,45.410,65.918,14.648,0
1490439036.140,133.789,127.930,117.676,147.949,21.484,0
1490439036.144,94.238,63.477,92.285,108.887,62.988,0
1490439036.148,88.867,63.965,53.711,97.656,42.969,0
1490439036.152,-26.367,1.953,-66.895,3.906,30.273,0
1490439036.156,-83.984,-39.062,-105.957,-62.012,41.992,0
1490439036.160,86.914,101.074,92.285,103.027,43.945,0
1490439036.163,149.414,133.301,164.551,157.715,55.176,0
1490439036.167,67.871,33.691,66.406,65.430,7.324,0
1490439036.171,44.434,38.086,34.180,55.176,-7.812,0
1490439036.175,12.695,66.895,-22.949,24.902,8.301,0
1490439036.179,4.395,57.617,-30.273,12.695,-1.465,0
1490439036.183,108.887,81.055,88.379,122.070,16.113,0
1490439036.187,117.676,55.176,112.305,146.484,41.016,0
1490439036.191,38.574,55.176,72.266,65.918,41.016,0
1490439036.195,-15.625,62.500,9.277,-3.906,33.691,0
1490439036.199,12.207,50.293,-4.395,7.812,40.039,0
1490439036.203,81.055,90.820,73.730,75.195,32.227,0
1490439036.206,60.547,108.887,68.848,82.031,42.969,0
1490439036.210,6.348,37.109,6.348,32.227,15.625,0
1490439036.214,0.977,4.883,8.301,12.207,-6.836,0
1490439036.218,-5.859,39.062,-2.441,5.371,27.832,0
1490439036.222,2.930,75.195,-1.953,42.969,19.043,0
1490439036.226,40.527,77.148,52.246,85.449,2.930,0
1490439036.230,66.895,62.988,22.461,60.547,4.395,0
1490439036.234,77.148,45.898,22.461,54.688,10.742,0
1490439036.238,61.523,26.855,71.289,48.828,10.254,0
1490439036.242,41.992,70.801,61.523,41.992,34.180,0
1490439036.245,31.738,93.262,17.578,37.598,43.945,0
1490439036.249,6.348,58.594,0.977,19.043,8.301,0
1490439036.253,0.488,36.621,-1.465,21.973,27.832,0
1490439036.257,47.852,84.961,47.363,64.941,23.926,0
1490439036.261,32.715,64.941,32.715,47.852,41.504,0
1490439036.265,30.273,60.547,21.973,43.945,78.125,0
1490439036.269,54.199,94.727,77.148,78.613,31.738,0
1490439036.273,0.977,41.504,14.160,18.066,1.465,0
1490439036.277,4.883,43.457,0.977,18.555,14.160,0
1490439036.281,46.875,76.172,26.367,67.871,59.082,0
1490439036.285,56.641,70.801,25.879,69.824,50.781,0
1490439036.288,26.855,44.922,35.645,55.664,35.645,0
1490439036.292,22.949,34.668,25.879,54.199,54.199,0
1490439036.296,41.504,59.082,31.250,60.547,35.156,0
1490439036.300,28.809,73.730,39.551,43.945,18.555,0
1490439036.304,0.000,28.809,30.762,12.695,15.137,0
1490439036.308,20.996,18.555,42.969,43.457,31.250,0
1490439036.312,63.965,95.703,72.266,93.750,35.645,0
1490439036.316,41.992,79.102,48.340,76.660,7.812,0
1490439036.320,19.531,50.293,42.969,61.035,5.859,0
1490439036.324,-21.973,39.062,10.742,13.672,34.668,0
1490439036.328,-24.414,15.137,-42.969,-5.859,27.832,0
1490439036.331,72.266,80.566,47.852,86.426,25.391,0
1490439036.335,54.199,79.590,73.730,70.312,44.434,0
1490439036.339,16.602,44.922,34.668,38.574,41.504,0
1490439036.343,44.434,63.965,66.406,62.500,3.906,0
1490439036.347,27.344,46.875,57.617,46.875,-24.902,0
1490439036.351,20.508,54.688,37.598,56.641,31.738,0
1490439036.355,-7.324,8.301,4.395,31.738,62.988,0
1490439036.359,-33.691,-9.277,-26.367,7.324,33.691,0
1490439036.363,49.316,108.887,62.500,81.055,10.742,0
1490439036.367,72.266,91.309,98.145,83.984,28.809,0
1490439036.370,3.418,19.043,21.973,16.602,38.574,0
1490439036.374,-4.395,25.391,18.066,15.625,20.996,0
1490439036.378,13.672,50.293,23.438,32.715,47.363,0
1490439036.382,32.715,77.148,31.738,57.617,51.758,0
1490439036.386,48.828,83.984,77.637,96.680,41.504,0
1490439036.390,39.551,64.941,68.848,82.520,8.301,0
1490439036.394,59.570,62.988,65.430,78.613,7.812,0
1490439036.398,34.668,49.805,50.293,67.871,50.781,0
1490439036.402,29.297,58.105,41.504,59.570,52.734,0
1490439036.406,49.805,45.410,84.473,74.219,10.254,0
1490439036.410,0.000,16.113,38.574,19.043,-12.207,0
1490439036.413,-43.457,5.859,-66.406,-37.109,57.129,0
1490439036.417,-19.043,-7.324,-29.297,-4.883,58.105,0
1490439036.421,29.785,54.688,70.801,58.105,35.645,0
1490439036.425,61.523,98.633,103.027,100.586,35.156,0
1490439036.429,94.238,120.605,116.699,123.535,44.922,0
1490439036.433,100.586,109.863,76.660,111.816,29.297,0
1490439036.437,29.785,25.879,7.812,41.992,32.227,0
1490439036.441,15.625,35.156,51.270,41.504,46.875,0
1490439036.445,17.090,36.133,32.227,36.621,25.391,0
1490439036.449,-16.602,-7.812,-25.879,0.488,29.785,0
1490439036.453,-8.301,46.875,-23.926,9.766,52.246,0
1490439036.456,8.301,44.434,2.441,12.695,60.547,0
1490439036.460,53.223,69.824,98.145,62.012,25.879,1
1490439036.464,68.848,86.426,98.633,85.449,-16.602,0
1490439036.468,54.688,45.410,54.688,68.848,-30.273,0
1490439036.472,40.039,41.016,57.617,41.016,26.367,0
1490439036.476,28.320,28.809,26.367,29.297,60.059,0
1490439036.480,21.973,52.734,16.113,38.574,41.016,0
1490439036.484,22.949,48.828,10.254,43.457,13.184,0
1490439036.488,41.504,2.930,44.922,48.828,6.836,0
1490439036.492,48.340,34.180,55.176,60.547,18.066,0
1490439036.495,58.105,69.336,75.684,79.102,12.207,0
1490439036.499,63.965,51.270,90.332,73.242,40.039,0
1490439036.503,41.504,55.664,60.059,66.895,54.688,0
1490439036.507,18.066,48.828,43.945,46.387,27.832,0
1490439036.511,11.719,35.645,24.414,26.855,21.484,0
1490439036.515,14.648,41.504,10.254,35.156,37.598,0
1490439036.519,15.625,26.855,13.184,43.457,25.391,0
1490439036.523,51.758,52.734,51.758,77.148,15.137,0
1490439036.527,73.730,86.914,33.691,95.215,20.996,0
1490439036.531,77.637,73.730,71.777,107.910,2.930,0
1490439036.535,39.062,54.199,82.520,70.801,3.906,0
1490439036.538,20.996,40.039,47.363,40.527,4.883,0
1490439036.542,78.613,64.453,73.730,86.426,-14.648,0
1490439036.546,45.898,60.059,33.203,42.480,11.230,0
1490439036.550,38.574,39.551,8.301,32.715,50.293,0
1490439036.554,-16.113,-31.250,-58.105,-7.324,68.359,0
1490439036.558,17.578,18.066,-14.160,20.020,49.805,0
1490439036.562,148.438,125.488,132.812,139.648,26.855,0
1490439036.566,111.816,84.473,112.305,83.496,23.438,0
1490439036.570,49.805,51.758,47.363,22.949,27.344,0
1490439036.574,45.898,79.102,28.320,30.273,44.922,0
1490439036.578,94.727,104.980,72.266,78.613,45.898,0
1490439036.581,53.711,36.621,62.988,60.547,12.207,0
1490439036.585,-39.551,-22.461,-40.039,-26.855,-20.996,0
1490439036.589,19.531,35.156,-16.113,35.645,-15.137,0
1490439036.593,78.125,86.914,77.148,103.516,28.320,0
1490439036.597,50.781,49.805,82.520,59.570,52.734,0
1490439036.601,71.777,38.574,69.824,58.594,19.531,0
1490439036.605,42.969,45.410,50.781,33.691,32.715,0
1490439036.609,-4.395,48.340,29.297,-0.977,44.434,0
1490439036.613,23.926,51.758,40.527,40.039,7.324,0
1490439036.617,14.648,9.277,31.250,47.852,39.062,0
1490439036.620,3.906,3.418,14.160,30.762,41.504,0
1490439036.624,-4.395,10.742,-37.109,-1.953,16.113,0
1490439036.628,42.480,64.941,-10.742,50.293,2.930,0
1490439036.632,91.309,68.359,83.984,101.562,-12.207,0
1490439036.636,64.453,20.508,68.848,62.500,7.812,0
1490439036.640,52.246,46.387,55.664,65.918,23.926,0
1490439036.644,38.086,77.148,83.496,71.289,41.504,0
1490439036.648,44.922,40.527,89.355,76.660,7.324,0
1490439036.652,16.602,4.395,34.180,42.480,-5.371,0
1490439036.656,-11.230,29.297,20.996,26.855,24.414,0
1490439036.660,39.062,57.129,71.777,87.891,16.602,0
1490439036.663,56.641,54.688,48.340,78.613,43.945,0
1490439036.667,49.805,17.090,40.039,59.570,32.227,0
1490439036.671,65.918,27.832,71.289,99.121,12.207,0
1490439036.675,60.547,62.500,59.570,92.285,11.230,0
1490439036.679,20.996,24.902,-1.953,35.156,-4.883,0
1490439036.683,11.719,8.301,-11.719,30.762,27.344,0
1490439036.687,61.035,38.086,58.105,99.609,44.434,0
1490439036.691,45.898,34.668,50.293,72.266,38.574,0
1490439036.695,92.285,59.082,39.551,87.402,55.176,0
1490439036.699,107.910,66.406,62.012,101.074,57.617,0
1490439036.703,65.430,49.805,55.664,61.523,30.273,0
1490439036.706,12.695,5.859,-8.301,18.066,51.758,0
1490439036.710,20.508,43.457,53.223,49.805,65.918,0
1490439036.714,53.223,34.668,68.359,91.309,43.945,0
1490439036.718,41.992,6.836,36.621,75.195,17.090,0
1490439036.722,72.754,81.055,93.262,99.609,1.953,0
1490439036.726,68.359,47.852,78.613,68.848,21.484,0
1490439036.730,29.297,-0.488,57.617,45.898,47.852,0
1490439036.734,31.250,57.617,66.406,74.707,42.969,0
1490439036.738,54.199,83.008,71.777,105.469,14.648,0
1490439036.742,4.883,19.531,-6.836,41.016,9.766,0
1490439036.745,12.207,23.438,-15.625,26.367,21.484,0
1490439036.749,21.973,41.504,22.461,40.527,47.852,0
1490439036.753,-6.836,-22.461,-21.484,7.812,73.242,0
1490439036.757,38.086,0.977,40.527,61.523,33.691,0
1490439036.761,98.145,89.355,134.766,122.070,-1.465,0
1490439036.765,60.547,65.430,81.543,60.059,4.395,0
1490439036.769,6.836,46.875,12.695,11.719,2.930,0
1490439036.773,57.129,76.172,58.594,78.613,33.203,0
1490439036.777,76.660,73.730,60.547,98.145,36.133,0
1490439036.781,81.055,78.613,52.246,99.609,20.020,0
1490439036.785,80.566,59.082,64.941,101.074,32.227,0
1490439036.788,34.668,20.020,22.949,65.918,44.922,0
1490439036.792,53.223,26.367,49.316,79.590,38.574,0
1490439036.796,56.152,27.832,32.227,65.918,22.949,0
1490439036.800,28.809,49.316,26.855,35.156,41.992,0
1490439036.804,32.227,48.828,28.809,26.855,49.316,0
1490439036.808,18.555,25.879,-8.789,13.184,44.922,0
1490439036.812,26.855,54.199,20.996,51.270,51.758,0
1490439036.816,64.941,67.871,64.941,81.055,31.250,0
1490439036.820,87.891,62.500,85.449,79.102,20.996,0
1490439036.824,99.121,71.289,92.285,89.844,31.250,0
1490439036.828,45.898,34.668,40.527,43.945,7.324,0
1490439036.831,1.465,-3.906,2.930,0.488,49.805,0
1490439036.835,65.918,27.344,46.875,70.801,75.684,0
1490439036.839,47.852,56.152,39.062,56.152,25.879,0
1490439036.843,41.504,73.730,25.879,39.062,8.789,0
1490439036.847,67.871,65.918,22.461,69.336,42.480,0
1490439036.851,17.090,27.832,23.438,30.762,38.086,0
1490439036.855,6.348,22.949,34.180,20.996,24.902,0
1490439036.859,-8.301,40.527,26.367,-0.977,23.438,0
1490439036.863,34.668,55.176,60.547,33.203,36.133,0
1490439036.867,86.914,68.359,91.797,91.797,46.387,0
1490439036.870,70.801,51.270,83.496,87.891,37.109,0
1490439036.874,24.902,31.738,30.762,31.738,31.250,0
1490439036.878,-14.648,11.719,-5.859,-9.277,31.738,0
1490439036.882,50.781,40.527,56.152,64.453,35.156,0
1490439036.886,55.176,35.156,50.781,74.707,47.363,0
1490439036.890,37.598,44.434,39.551,61.035,48.340,0
1490439036.894,73.730,93.262,65.918,88.867,36.133,0
1490439036.898,61.035,32.715,73.730,80.566,21.484,0
1490439036.902,43.457,12.695,62.012,59.082,16.602,0
1490439036.906,49.805,40.039,62.012,58.105,13.184,0
1490439036.910,39.062,41.016,31.738,50.293,4.883,0
1490439036.913,37.598,26.855,-1.953,45.898,6.836,0
1490439036.917,54.199,38.086,55.176,59.570,-4.395,0
1490439036.921,37.598,49.805,34.180,34.668,-15.137,0
1490439036.925,57.129,34.668,54.199,60.547,6.348,0
1490439036.929,30.273,2.930,65.918,35.156,46.387,0
1490439036.933,-15.625,-4.883,-21.973,-26.367,16.602,0
1490439036.937,82.520,95.703,65.918,75.684,-1.465,0
1490439036.941,93.750,94.238,97.656,123.047,33.203,0
1490439036.945,6.836,28.320,3.418,24.902,16.602,0
1490439036.949,17.090,30.762,20.020,-3.906,13.672,0
1490439036.953,41.504,28.320,62.012,6.836,19.043,0
1490439036.956,8.789,0.000,24.414,-25.879,32.715,0
1490439036.960,4.395,-22.949,-24.902,-25.391,41.016,0
1490439036.964,28.320,8.301,-9.766,11.719,22.949,0
1490439036.968,50.293,53.223,39.551,41.016,52.734,0
1490439036.972,36.621,42.480,39.062,35.645,37.109,0
1490439036.976,70.312,55.176,84.473,80.078,5.859,0
1490439036.980,77.637,43.945,77.637,78.125,30.762,0
1490439036.984,78.613,35.156,41.016,70.312,35.156,0
1490439036.988,62.500,28.809,59.082,58.105,24.902,0
1490439036.992,-33.691,-28.320,-8.301,-30.762,57.617,0
1490439036.995,-8.301,-2.930,-26.367,-6.836,30.273,0
1490439036.999,44.922,39.062,23.926,42.969,8.789,0
1490439037.003,62.988,37.598,86.426,72.754,19.531,0
1490439037.007,68.359,33.203,93.262,85.449,7.324,0
1490439037.011,68.359,50.293,57.617,70.312,7.812,0
1490439037.015,56.641,65.918,51.270,62.012,23.926,0
1490439037.019,77.637,56.152,62.012,76.660,34.180,0
1490439037.023,61.523,29.297,28.809,53.223,11.230,0
1490439037.027,-21.484,-3.418,-26.855,-31.250,15.625,0
1490439037.031,-19.531,17.578,-10.742,-35.156,33.691,0
1490439037.035,83.984,85.449,98.145,81.055,33.691,0
1490439037.038,101.074,77.148,99.609,114.746,35.156,0
1490439037.042,47.852,13.184,35.156,62.988,39.551,0
1490439037.046,20.508,7.812,38.086,27.832,29.297,0
1490439037.050,22.949,30.273,34.180,14.160,36.621,0
1490439037.054,28.809,13.184,6.348,13.672,41.992,0
1490439037.058,101.562,67.383,63.477,94.238,49.316,0
1490439037.062,143.066,73.730,129.883,145.020,24.902,0
1490439037.066,46.875,15.625,64.941,46.875,5.859,0
1490439037.070,-1.465,51.758,14.648,-4.395,30.762,0
1490439037.074,30.762,67.383,51.758,21.484,16.113,0
1490439037.078,8.301,-4.883,34.668,9.766,14.648,0
1490439037.081,-16.602,-4.883,10.254,-10.254,-9.766,0
1490439037.085,37.109,37.109,52.246,32.715,-9.277,0
1490439037.089,67.871,33.691,71.289,53.223,41.016,0
1490439037.093,57.129,27.344,35.645,46.875,27.344,0
1490439037.097,69.824,56.152,41.992,70.312,12.695,0
1490439037.101,62.012,62.988,69.336,58.105,36.621,0
1490439037.105,-5.371,5.371,16.602,-8.301,37.598,0
1490439037.109,-19.043,7.324,9.766,-15.137,20.996,0
1490439037.113,10.254,20.020,10.742,8.301,12.695,0
1490439037.117,29.297,15.137,2.930,33.691,20.508,0
1490439037.120,57.617,48.340,96.680,81.543,50.781,0
1490439037.124,59.570,71.777,112.793,80.078,34.668,0
1490439037.128,-16.113,6.348,23.926,-5.371,-9.277,0
1490439037.132,-41.992,-18.066,15.625,-34.668,29.297,0
1490439037.136,32.227,85.449,85.938,42.480,35.645,0
1490439037.140,-18.066,-8.789,17.578,-3.418,14.160,0
1490439037.144,-7.812,-40.039,27.832,-0.977,-1.465,0
1490439037.148,81.543,87.402,133.301,101.074,22.949,0
1490439037.152,-40.527,2.930,3.906,-21.973,41.504,0
1490439037.156,-139.160,-40.039,-65.918,-122.559,-0.977,0
1490439037.160,-74.707,42.480,28.320,-39.062,-0.488,0
1490439037.163,-38.086,13.184,51.270,-17.578,10.742,0
1490439037.167,-43.457,-28.320,20.996,-34.668,20.508,0
1490439037.171,-30.273,-6.836,16.113,-21.484,16.113,0
1490439037.175,-20.996,22.949,45.410,-32.715,15.625,0
1490439037.179,-58.105,24.414,3.906,-66.406,41.504,0
1490439037.183,-41.016,12.207,17.090,-45.898,44.922,0
1490439037.187,4.395,27.344,74.707,0.977,34.668,0
1490439037.191,-3.906,35.645,59.082,-1.465,28.320,0
1490439037.195,-24.414,42.969,9.766,-32.227,35.645,0
1490439037.199,-53.711,-18.555,-17.090,-57.129,34.668,0
1490439037.203,-54.688,-56.152,14.160,-50.781,3.906,0
1490439037.206,-50.293,10.254,31.738,-42.480,10.742,0
1490439037.210,-45.410,56.641,37.109,-34.180,33.203,0
1490439037.214,-4.883,46.387,32.227,-7.812,31.738,0
1490439037.218,12.695,14.648,40.039,3.906,18.066,0
1490439037.222,-1.465,57.617,58.105,3.906,16.602,0
1490439037.226,-23.438,47.852,26.855,-39.062,6.836,0
1490439037.230,-30.273,-1.465,-25.879,-56.641,27.344,0
1490439037.234,8.301,28.320,1.465,7.324,31.250,0
1490439037.238,53.711,38.574,55.176,75.684,9.277,0
1490439037.242,1.953,8.789,37.109,29.785,31.250,0
1490439037.245,-17.578,53.711,68.848,-11.230,28.809,0
1490439037.249,-9.277,36.133,54.688,-14.648,11.230,0
1490439037.253,-36.621,-6.836,-5.371,-30.273,49.805,0
1490439037.257,-18.066,66.895,2.441,2.441,79.102,0
1490439037.261,-0.977,41.992,26.855,10.254,29.785,0
1490439037.265,43.945,76.660,80.566,47.852,20.508,0
1490439037.269,50.781,119.629,83.984,72.266,65.430,0
1490439037.273,51.758,47.852,50.293,55.664,44.434,0
1490439037.277,68.359,-4.395,65.430,60.059,5.371,0
1490439037.281,18.066,14.648,23.438,25.879,7.812,0
1490439037.285,-34.668,65.430,-43.945,-27.344,41.504,0
1490439037.288,0.488,93.262,0.977,0.977,49.805,0
1490439037.292,77.637,83.496,71.289,70.801,7.324,0
1490439037.296,90.820,70.312,62.988,75.684,-13.184,0
1490439037.300,69.824,45.898,59.082,60.059,48.340,0
1490439037.304,116.211,72.266,111.816,113.281,24.414,0
1490439037.308,94.238,79.102,48.340,82.520,9.277,0
1490439037.312,42.480,64.941,8.301,26.367,45.898,0
1490439037.316,58.594,81.055,30.762,42.969,45.898,0
1490439037.320,85.938,104.492,41.504,72.754,55.664,0
1490439037.324,84.961,54.688,53.223,82.031,36.621,0
1490439037.328,77.148,47.852,30.273,69.336,24.414,0
1490439037.331,80.566,129.883,28.809,65.430,31.250,0
1490439037.335,59.570,101.074,14.648,40.039,2.930,0
1490439037.339,97.656,117.188,31.738,60.547,-16.602,0
1490439037.343,120.605,114.746,81.543,79.102,20.996,0
1490439037.347,68.848,28.809,52.246,41.992,24.414,0
1490439037.351,69.336,48.340,25.879,43.457,18.555,0
1490439037.355,71.777,42.480,24.414,63.477,56.641,0
1490439037.359,73.242,66.895,61.035,81.543,64.453,0
1490439037.363,115.723,151.367,83.008,108.398,32.227,0
1490439037.367,69.336,93.750,26.855,66.895,21.973,0
1490439037.370,17.578,38.574,-6.836,29.297,35.156,0
1490439037.374,92.773,88.379,48.340,88.379,40.039,0
1490439037.378,119.629,82.031,51.758,101.074,21.973,0
1490439037.382,90.332,91.309,19.043,93.750,-3.418,0
1490439037.386,149.902,124.023,115.234,164.551,20.996,0
1490439037.390,122.559,62.988,109.375,130.371,55.176,0
1490439037.394,25.879,41.504,-1.465,19.043,30.273,0
1490439037.398,10.254,36.133,-34.668,-6.348,8.789,0
1490439037.402,84.961,81.543,37.598,73.730,34.180,0
1490439037.406,98.633,109.863,84.473,96.191,34.180,0
1490439037.410,96.680,85.449,85.449,92.773,3.906,0
1490439037.413,119.629,83.496,103.027,125.488,11.719,0
1490439037.417,34.180,32.715,12.695,45.410,36.133,0
1490439037.421,85.449,62.012,42.480,85.938,35.645,0
1490439037.425,80.078,53.223,47.852,87.402,-5.371,0
1490439037.429,20.508,9.766,9.766,24.414,-3.906,0
1490439037.433,61.035,58.105,49.316,59.082,35.645,0
1490439037.437,74.219,79.102,58.105,58.105,53.711,0
1490439037.441,89.844,54.199,59.570,81.543,20.020,0
1490439037.445,30.762,67.871,4.883,33.203,-1.953,0
1490439037.449,12.695,50.781,-11.230,8.789,11.230,0
1490439037.453,47.852,53.223,6.836,44.434,28.809,0
1490439037.456,93.750,131.348,83.496,79.102,7.324,0
1490439037.460,83.496,95.215,96.191,78.125,31.738,0
1490439037.464,72.266,56.152,46.875,73.730,44.922,0
1490439037.468,50.293,53.711,30.762,54.688,15.625,0
1490439037.472,47.363,52.734,40.527,64.941,-4.395,0
1490439037.476,74.707,57.129,61.035,83.496,5.371,0
1490439037.480,59.082,72.266,53.223,77.148,39.062,0
1490439037.484,53.223,53.711,34.180,73.242,21.973,0
1490439037.488,20.020,19.531,3.906,22.949,19.531,0
1490439037.492,-4.883,49.805,0.488,-10.742,20.020,0
1490439037.495,31.250,59.082,27.344,30.273,34.668,0
1490439037.499,78.125,65.430,61.035,80.078,34.668,0
1490439037.503,51.758,51.758,60.547,44.922,0.977,0
1490439037.507,64.453,94.727,58.594,58.594,31.250,0
1490439037.511,95.215,95.215,63.477,103.027,51.270,0
1490439037.515,16.113,45.410,5.859,27.344,10.742,0
1490439037.519,32.227,49.316,8.301,41.504,-18.066,0
1490439037.523,84.473,35.645,58.105,102.051,23.926,0
1490439037.527,77.148,59.082,83.496,98.633,47.363,0
1490439037.531,85.938,73.242,47.852,88.379,9.277,0
1490439037.535,39.062,66.406,-12.695,34.180,20.020,0
1490439037.538,-41.992,17.090,-69.336,-34.180,50.293,0
1490439037.542,100.586,87.402,62.500,113.281,32.715,0
1490439037.546,171.875,134.766,157.227,183.594,27.344,0
1490439037.550,62.988,75.684,95.703,76.660,43.457,0
1490439037.554,48.828,45.410,54.688,62.500,37.598,0
1490439037.558,89.844,62.012,59.082,97.168,18.555,0
1490439037.562,83.008,58.594,41.016,76.660,26.855,0
1490439037.566,73.730,55.664,31.250,67.383,43.457,0
1490439037.570,13.672,44.434,-16.602,17.578,39.551,0
1490439037.574,17.578,31.250,-11.719,18.066,24.902,0
1490439037.578,127.930,89.844,85.938,117.188,12.695,0
1490439037.581,97.656,83.496,51.758,74.219,52.734,0
1490439037.585,73.730,93.262,37.598,48.828,70.312,0
1490439037.589,64.453,73.242,32.227,46.387,28.809,0
1490439037.593,16.113,37.598,-2.930,-7.324,22.461,0
1490439037.597,28.320,42.480,17.090,5.859,57.617,0
1490439037.601,58.105,47.852,32.227,57.617,35.645,0
1490439037.605,84.473,101.074,79.102,88.379,32.715,0
1490439037.609,125.977,82.520,111.816,113.770,37.598,0
1490439037.613,88.867,28.809,60.547,81.055,28.809,0
1490439037.617,10.254,46.875,-4.883,14.160,38.086,0
1490439037.620,-20.996,8.789,-31.738,-22.949,15.137,0
1490439037.624,17.090,41.992,-16.602,20.508,-8.301,0
1490439037.628,67.871,109.375,53.223,80.078,20.508,0
1490439037.632,112.305,94.727,112.305,117.188,44.922,0
1490439037.636,122.070,59.082,88.379,106.445,38.086,0
1490439037.640,62.500,29.785,34.180,43.457,27.344,0
1490439037.644,52.734,59.570,32.227,42.480,45.410,0
1490439037.648,44.434,30.762,32.715,27.344,24.902,0
1490439037.652,50.293,42.969,53.223,26.855,9.766,0
1490439037.656,44.434,83.496,21.973,27.832,34.668,0
1490439037.660,30.273,72.754,23.926,31.738,24.902,0
1490439037.663,35.645,35.156,68.359,52.246,9.766,0
1490439037.667,97.656,62.012,87.891,113.770,7.812,0
1490439037.671,114.746,92.285,95.703,137.207,34.668,0
1490439037.675,14.160,38.574,22.461,43.945,58.594,0
1490439037.679,3.906,52.734,-3.906,14.160,48.828,0
1490439037.683,10.742,59.082,16.113,20.508,36.621,0
1490439037.687,39.062,36.621,62.988,55.664,9.766,0
1490439037.691,8.789,-3.418,43.457,34.180,18.066,0
1490439037.695,-22.949,15.625,18.066,2.441,24.414,0
1490439037.699,63.477,46.387,83.496,76.660,30.273,0
1490439037.703,73.730,58.105,76.660,93.750,36.621,0
1490439037.706,45.898,86.914,28.809,57.129,23.926,0
1490439037.710,30.273,74.707,20.020,36.133,-0.977,0
1490439037.714,4.883,42.969,-11.719,8.789,0.488,0
1490439037.718,10.742,69.824,8.789,27.832,43.945,0
1490439037.722,20.996,51.270,61.523,40.039,35.645,0
1490439037.726,99.609,58.105,105.469,98.145,10.254,0
1490439037.730,134.277,59.570,101.074,142.578,21.973,2
1490439037.734,56.152,10.254,44.434,70.801,67.871,0
1490439037.738,-14.648,15.137,6.836,-1.465,66.895,0
1490439037.742,31.738,81.055,40.527,45.898,10.254,0
1490439037.745,84.473,90.332,44.922,88.379,25.879,0
1490439037.749,69.824,54.199,37.598,74.707,38.086,0
1490439037.753,32.227,41.504,22.949,39.062,23.926,0
1490439037.757,18.066,50.293,22.461,15.137,-3.418,0
1490439037.761,30.762,43.457,30.762,17.090,-6.836,0
1490439037.765,67.871,27.832,63.965,50.293,13.184,0
1490439037.769,46.875,20.020,52.734,43.457,-2.441,0
1490439037.773,45.410,39.062,25.879,42.480,-8.789,0
1490439037.777,127.441,91.797,93.262,122.070,34.180,0
1490439037.781,104.492,118.164,74.219,98.145,50.781,0
1490439037.785,7.812,50.781,14.160,2.930,35.645,0
1490439037.788,8.301,54.688,20.020,3.906,37.598,0
1490439037.792,-12.207,18.555,-14.648,-12.695,41.016,0
1490439037.796,18.066,33.203,23.926,22.461,20.020,0
1490439037.800,134.766,125.000,111.328,122.559,-2.441,0
1490439037.804,89.355,61.035,58.594,69.336,5.371,0
1490439037.808,53.711,22.461,42.480,49.316,25.879,0
1490439037.812,105.469,43.457,107.910,114.258,35.156,0
1490439037.816,112.305,72.266,89.355,104.492,34.668,0
1490439037.820,30.762,45.898,19.531,17.578,-6.836,0
1490439037.824,-19.043,47.363,-27.344,-23.438,6.836,0
1490439037.828,42.969,114.746,18.555,42.969,47.363,0
1490439037.831,61.523,72.266,56.152,69.336,33.203,0
1490439037.835,57.617,9.766,46.387,63.477,32.227,0
1490439037.839,88.867,28.320,91.309,92.773,34.668,0
1490439037.843,30.273,50.293,54.199,43.457,19.531,0
1490439037.847,-17.090,48.340,26.367,-4.883,-20.996,0
1490439037.851,26.367,80.566,37.109,37.598,-14.160,0
1490439037.855,0.977,81.055,-11.230,-0.488,49.316,0
1490439037.859,-0.488,54.199,5.859,-14.160,43.457,0
1490439037.863,44.434,42.480,23.926,29.297,20.020,0
1490439037.867,79.102,54.199,69.824,70.312,44.434,0
1490439037.870,79.590,53.711,83.008,77.637,27.344,0
1490439037.874,33.691,19.043,30.762,44.434,10.254,0
1490439037.878,-0.488,27.344,7.324,23.926,33.203,0
1490439037.882,9.277,39.062,45.410,39.551,35.645,0
1490439037.886,33.691,68.848,90.332,73.242,36.133,0
1490439037.890,41.504,74.707,49.316,58.594,23.926,0
1490439037.894,101.562,63.477,89.844,107.422,8.789,0
1490439037.898,115.234,85.938,111.328,116.699,47.363,0
1490439037.902,32.715,43.457,14.160,36.621,48.828,0
1490439037.906,-6.836,12.207,-5.371,2.930,-16.113,0
1490439037.910,25.391,55.176,38.086,22.461,-9.277,0
1490439037.913,37.109,67.871,41.016,39.062,19.531,0
1490439037.917,41.016,48.828,21.973,49.805,37.109,0
1490439037.921,97.168,95.703,65.430,110.352,39.062,0
1490439037.925,56.641,45.410,22.461,76.172,17.578,0
1490439037.929,11.230,8.301,-21.484,20.508,24.414,0
1490439037.933,44.922,83.008,22.949,44.922,11.719,0
1490439037.937,63.965,43.945,57.129,55.664,42.480,0
1490439037.941,96.191,52.734,97.168,94.727,57.617,0
1490439037.945,62.988,88.867,50.781,72.266,30.273,0
1490439037.949,36.621,55.176,13.672,46.875,42.969,0
1490439037.953,68.359,33.203,64.941,71.777,-15.137,0
1490439037.956,61.035,43.457,84.961,55.664,-16.113,0
1490439037.960,20.996,18.066,28.320,12.695,27.344,0
1490439037.964,49.316,30.762,0.977,21.484,31.738,0
1490439037.968,70.312,78.125,39.551,41.504,33.203,0
1490439037.972,35.156,74.707,37.598,32.227,49.805,0
1490439037.976,89.844,65.918,76.660,95.215,64.453,0
1490439037.980,73.242,27.832,65.918,66.895,28.320,0
1490439037.984,19.043,57.129,16.113,11.719,16.113,0
1490439037.988,27.344,67.383,-0.488,25.879,9.277,0
1490439037.992,48.828,49.316,-8.789,48.340,30.273,0
1490439037.995,109.863,66.895,97.656,107.910,34.668,0
1490439037.999,105.469,75.195,132.812,95.215,-0.488,0
1490439038.003,55.664,53.711,43.457,33.691,14.160,0
1490439038.007,44.922,42.480,20.508,38.086,18.066,0
1490439038.011,43.945,63.477,49.805,47.852,20.996,0
1490439038.015,79.102,106.445,29.297,69.824,67.871,0
1490439038.019,73.242,71.289,21.973,53.711,71.289,0
1490439038.023,63.477,48.828,62.988,54.688,35.645,0
1490439038.027,85.449,55.176,75.195,85.449,51.758,0
1490439038.031,52.246,46.875,29.297,38.086,41.992,0
1490439038.035,55.176,45.898,26.855,50.293,41.504,0
1490439038.038,81.055,37.598,70.312,99.121,45.898,0
1490439038.042,83.496,95.215,39.062,81.543,40.039,0
1490439038.046,56.152,107.422,36.133,34.668,38.086,0
1490439038.050,47.363,52.734,36.621,41.992,49.316,0
1490439038.054,50.781,49.805,16.602,51.758,43.457,0
1490439038.058,56.641,79.590,54.688,62.500,1.953,0
1490439038.062,72.266,77.637,75.684,87.891,41.992,0
1490439038.066,44.922,57.129,51.758,44.922,51.270,0
1490439038.070,18.066,37.109,11.719,6.836,34.180,0
1490439038.074,16.602,41.504,13.672,16.602,37.598,0
1490439038.078,89.355,128.418,101.562,93.262,39.062,0
1490439038.081,95.703,91.797,107.422,113.770,57.617,0
1490439038.085,69.824,37.598,58.594,90.820,16.602,0
1490439038.089,96.191,81.543,69.336,100.586,7.324,0
1490439038.093,42.969,59.082,25.879,46.875,78.125,0
1490439038.097,-39.062,52.246,-28.320,-27.344,90.820,0
1490439038.101,-85.938,20.020,-36.133,-66.895,60.059,0
1490439038.105,-6.836,36.621,14.648,0.977,53.223,0
1490439038.109,44.434,53.223,57.129,48.340,58.594,0
1490439038.113,83.984,65.918,115.234,90.820,55.176,0
1490439038.117,70.312,79.590,77.637,89.355,55.176,0
1490439038.120,63.477,22.461,77.148,81.543,18.066,0
1490439038.124,117.188,41.016,110.840,129.883,22.461,0
1490439038.128,18.066,55.176,6.836,29.785,12.207,0
1490439038.132,-71.289,27.832,-37.598,-35.156,-7.812,0
1490439038.136,11.230,82.031,58.594,46.387,40.039,0
1490439038.140,37.598,64.453,47.852,45.898,52.734,0
1490439038.144,16.602,41.016,20.996,48.828,18.066,0
1490439038.148,34.668,50.293,38.574,65.430,21.484,0
1490439038.152,43.457,46.387,24.414,47.852,54.199,0
1490439038.156,73.730,49.316,41.992,82.031,44.434,0
1490439038.160,64.453,91.797,36.621,87.891,20.996,0
1490439038.163,109.375,150.391,115.723,133.789,29.785,0
1490439038.167,129.395,107.910,135.254,171.387,29.785,0
1490439038.171,44.922,26.855,66.406,99.121,5.371,0
1490439038.175,24.414,24.414,28.809,64.453,-7.812,0
1490439038.179,47.852,57.129,33.203,76.660,28.320,0
1490439038.183,73.242,48.340,46.387,92.285,49.316,0
1490439038.187,55.664,46.387,28.809,71.777,20.020,0
1490439038.191,25.879,67.383,29.297,40.039,3.906,0
1490439038.195,3.418,35.645,7.812,38.574,20.508,0
1490439038.199,37.109,53.711,42.480,81.055,49.316,0
1490439038.203,88.867,79.590,76.172,116.211,32.227,0
1490439038.206,141.602,127.930,122.559,162.109,2.930,0
1490439038.210,145.996,140.625,130.859,160.645,20.508,0
1490439038.214,48.828,67.871,31.738,59.570,44.434,0
1490439038.218,5.371,22.949,-2.930,18.066,17.578,0
1490439038.222,19.531,36.621,33.203,35.645,6.836,0
1490439038.226,55.176,64.453,75.684,79.102,32.715,0
1490439038.230,40.527,86.426,34.180,58.594,56.152,3
1490439038.234,-19.531,50.781,-26.855,-7.812,62.012,0
1490439038.238,27.832,78.125,46.875,36.621,38.574,0
1490439038.242,107.910,93.750,146.484,115.234,32.715,0
1490439038.245,73.242,98.145,117.188,96.191,46.875,0
1490439038.249,-12.695,57.617,18.555,30.762,29.785,0
1490439038.253,-12.695,15.625,8.789,35.156,28.320,0
1490439038.257,59.082,98.633,83.008,95.215,58.105,0
1490439038.261,55.176,72.266,82.031,94.727,60.547,0
1490439038.265,7.324,32.715,20.508,44.922,48.828,0
1490439038.269,-20.996,20.020,-4.395,21.973,30.273,0
1490439038.273,36.621,63.965,46.387,85.449,47.363,0
1490439038.277,92.773,145.996,111.816,131.836,44.922,0
1490439038.281,17.090,95.703,42.969,54.688,-10.254,0
1490439038.285,7.812,56.641,20.996,43.457,4.883,0
1490439038.288,40.527,79.590,62.500,75.195,46.387,0
1490439038.292,9.277,40.039,49.316,54.199,28.809,0
1490439038.296,-20.020,-1.465,26.367,26.855,20.020,0
1490439038.300,24.414,25.879,55.176,68.359,16.113,0
1490439038.304,70.801,42.969,88.867,111.328,33.203,0
1490439038.308,37.109,86.914,-2.930,52.246,31.738,0
1490439038.312,39.551,101.074,16.602,56.641,5.859,0
1490439038.316,31.738,35.156,71.777,63.477,10.742,0
1490439038.320,0.488,58.105,13.184,11.230,43.457,0
1490439038.324,-5.859,67.383,37.109,19.043,34.180,0
1490439038.328,26.855,72.754,91.797,64.453,18.555,0
1490439038.331,33.691,81.055,72.754,64.453,34.180,0
1490439038.335,72.266,83.008,86.426,110.840,31.250,0
1490439038.339,65.918,64.941,82.031,124.512,-0.977,0
1490439038.343,10.254,85.449,45.410,66.406,14.160,0
1490439038.347,-12.207,38.574,14.160,35.645,30.762,0
1490439038.351,-20.996,11.719,-13.184,11.719,-2.930,0
1490439038.355,12.695,74.707,23.438,30.273,1.953,0
1490439038.359,59.570,78.125,77.637,74.219,8.301,0
1490439038.363,34.668,52.246,49.805,62.988,14.160,0
1490439038.367,8.789,77.148,32.227,43.457,50.293,0
1490439038.370,-18.066,42.969,30.762,2.930,23.438,0
1490439038.374,-13.184,34.180,21.973,-3.906,-18.066,0
1490439038.378,39.062,56.641,25.391,50.781,19.531,0
1490439038.382,-0.488,-8.789,19.043,31.738,43.945,0
1490439038.386,25.879,69.824,69.824,78.125,14.160,0
1490439038.390,35.156,65.918,64.941,76.172,20.508,0
1490439038.394,-5.859,48.828,27.832,11.719,46.875,0
1490439038.398,-9.277,73.242,19.531,20.996,51.270,0
1490439038.402,-24.414,2.441,-13.184,14.160,20.508,0
1490439038.406,47.363,61.523,47.852,84.473,17.090,0
1490439038.410,122.070,98.633,139.160,161.133,62.500,0
1490439038.413,51.270,35.156,67.871,101.074,31.250,0
1490439038.417,-54.199,40.039,-47.852,-4.395,-32.227,0
1490439038.421,-28.320,84.961,-5.371,7.812,10.254,0
1490439038.425,23.438,89.844,74.219,69.824,50.781,0
1490439038.429,7.812,53.711,47.852,54.199,3.906,0
1490439038.433,-1.465,23.926,37.598,35.156,-4.883,0
1490439038.437,37.109,51.270,61.035,72.266,38.574,0
1490439038.441,14.160,49.316,50.781,59.570,53.711,0
1490439038.445,39.551,32.227,69.336,83.496,43.457,0
1490439038.449,48.340,29.297,55.176,89.355,38.574,0
1490439038.453,-9.277,52.246,27.832,37.109,24.414,0
1490439038.456,28.809,106.445,78.125,64.941,23.926,0
1490439038.460,3.906,68.359,44.922,34.668,25.879,0
1490439038.464,-15.625,35.645,-16.113,17.090,13.184,0
1490439038.468,-32.715,57.617,-13.184,-4.883,34.180,0
1490439038.472,-18.066,45.898,47.852,5.859,43.457,0
1490439038.476,108.887,74.707,142.090,133.789,25.879,0
1490439038.480,84.473,113.281,85.449,117.188,35.156,0
1490439038.484,-7.812,62.500,10.742,21.973,56.641,0
1490439038.488,2.930,25.879,49.805,29.785,29.785,0
1490439038.492,-42.480,17.578,-6.836,-12.695,-0.977,0
1490439038.495,-39.551,41.992,-12.207,-17.090,14.160,0
1490439038.499,60.547,100.586,79.590,70.801,42.969,0
1490439038.503,91.309,84.961,108.398,122.070,26.855,0
1490439038.507,57.617,18.066,87.891,109.863,-3.906,0
1490439038.511,15.137,32.715,39.551,54.688,20.508,0
1490439038.515,-22.461,58.594,12.695,5.859,23.926,0
1490439038.519,27.344,106.934,31.738,51.758,13.184,0
1490439038.523,77.637,114.746,83.496,107.422,36.133,0
1490439038.527,38.086,58.105,87.891,69.824,41.016,0
1490439038.531,-8.301,15.137,40.039,29.785,33.203,0
1490439038.535,36.621,31.250,68.359,80.078,10.254,0
1490439038.538,56.152,69.824,78.613,101.074,9.766,0
1490439038.542,-11.230,47.852,16.113,15.137,27.832,0
1490439038.546,87.402,126.953,118.652,101.562,48.340,0
1490439038.550,114.258,144.043,169.922,161.621,41.504,0
1490439038.554,-25.391,45.410,-2.930,25.391,-0.488,0
1490439038.558,-46.875,13.672,-45.410,-21.484,33.203,0
1490439038.562,-31.738,36.621,2.930,-7.812,44.434,0
1490439038.566,-1.953,61.523,29.297,38.086,14.160,0
1490439038.570,20.996,30.762,38.574,69.336,9.277,0
1490439038.574,38.086,89.355,79.590,83.496,31.250,0
1490439038.578,30.762,62.988,89.355,74.219,35.156,0
1490439038.581,13.184,4.883,55.664,52.246,27.832,0
1490439038.585,20.508,65.918,66.406,57.617,36.133,0
1490439038.589,3.418,62.500,37.109,54.199,45.410,0
1490439038.593,-15.137,62.500,7.812,32.227,23.926,0
1490439038.597,-26.367,28.809,-16.113,-2.930,10.254,0
1490439038.601,28.809,41.016,52.734,47.363,37.598,0
1490439038.605,74.219,74.219,93.750,104.492,45.410,0
1490439038.609,41.992,54.688,55.176,89.355,48.828,0
1490439038.613,4.395,58.594,53.711,42.480,33.691,0
1490439038.617,-26.367,65.430,18.066,-7.812,23.438,0
1490439038.620,-13.672,37.109,2.930,4.395,40.039,0
1490439038.624,57.617,55.664,72.754,83.984,29.785,0
1490439038.628,62.500,104.980,105.469,107.422,21.973,0
1490439038.632,39.062,92.773,103.516,100.098,23.438,0
1490439038.636,-4.395,24.414,60.547,54.199,47.852,0
1490439038.640,-70.312,7.324,-10.742,-12.695,34.668,0
1490439038.644,-93.750,32.715,-20.508,-44.434,2.930,0
1490439038.648,-62.988,49.805,9.277,-19.043,16.602,0
1490439038.652,-59.570,6.348,-18.555,-0.488,37.109,0
1490439038.656,-16.602,32.715,22.461,53.711,11.230,0
1490439038.660,-25.391,69.824,71.777,55.664,-8.789,0
1490439038.663,-102.539,37.109,6.836,-18.555,29.297,0
1490439038.667,-68.848,47.363,20.508,0.000,32.715,0
1490439038.671,-27.832,32.227,77.148,23.438,19.531,0
1490439038.675,-53.223,34.668,56.152,2.930,26.855,0
1490439038.679,-106.934,26.367,5.859,-44.434,56.152,0
1490439038.683,-113.770,19.043,0.000,-57.617,61.523,0
1490439038.687,-104.004,26.855,8.789,-51.270,35.156,0
1490439038.691,-94.238,34.668,20.508,-41.504,38.574,0
1490439038.695,-117.676,15.625,22.461,-68.848,34.668,0
1490439038.699,-76.172,42.480,21.484,-40.527,14.648,0
1490439038.703,-79.590,42.969,20.020,-38.574,6.836,0
1490439038.706,-133.789,12.695,13.184,-85.938,33.691,0
1490439038.710,-134.766,-22.949,0.000,-80.566,41.992,0
1490439038.714,-114.746,-4.883,-5.371,-56.641,33.691,0
1490439038.718,-95.215,64.941,23.926,-41.992,23.438,0
1490439038.722,-50.293,63.477,70.312,-10.254,43.457,0
1490439038.726,-13.184,34.180,101.562,36.133,78.125,0
1490439038.730,-108.398,-12.207,28.809,-31.738,50.781,4
1490439038.734,-154.297,10.742,-31.738,-86.914,17.090,0
1490439038.738,-125.977,41.016,-31.250,-79.590,-2.441,0
1490439038.742,-72.754,36.621,24.414,-19.531,11.230,0
1490439038.745,-70.801,24.902,7.812,-7.812,0.488,0
1490439038.749,-92.285,41.504,13.672,-41.992,12.695,0
1490439038.753,-72.266,43.457,79.102,-20.508,42.480,0
1490439038.757,-39.551,24.414,65.918,14.648,51.758,0
1490439038.761,-6.348,31.738,67.871,27.832,67.871,0
1490439038.765,-32.715,21.973,64.453,17.090,53.711,0
1490439038.769,-65.918,56.152,31.250,0.000,38.086,0
1490439038.773,-81.543,80.078,1.465,-25.879,30.273,0
1490439038.777,-51.758,80.078,34.180,5.859,38.574,0
1490439038.781,22.949,97.168,85.449,79.590,14.648,0
1490439038.785,36.621,94.238,78.125,84.473,20.020,0
1490439038.788,-30.762,40.527,13.184,8.301,37.109,0
1490439038.792,-40.527,27.832,43.945,5.371,-2.930,0
1490439038.796,-6.348,54.199,69.824,50.293,35.156,0
1490439038.800,44.434,64.453,74.707,84.961,70.312,0
1490439038.804,65.918,104.980,92.773,115.723,29.785,0
1490439038.808,-8.301,94.727,47.363,63.965,9.277,0
1490439038.812,-22.949,85.449,32.227,42.969,17.578,0
1490439038.816,0.488,35.156,18.555,50.293,42.969,0
1490439038.820,38.086,60.059,30.762,70.801,34.180,0
1490439038.824,20.508,69.336,13.184,44.434,18.555,0
1490439038.828,42.969,64.941,69.336,61.035,34.180,0
1490439038.831,101.074,128.906,131.348,133.789,31.250,0
1490439038.835,38.086,95.703,72.266,74.219,15.625,0
1490439038.839,-4.883,74.219,24.902,40.527,26.855,0
1490439038.843,28.320,65.918,26.367,92.285,40.527,0
1490439038.847,61.523,83.008,99.609,114.258,49.805,0
1490439038.851,13.672,81.543,39.062,55.664,6.348,0
1490439038.855,28.320,61.523,38.086,70.312,-20.508,0
1490439038.859,52.734,74.219,93.262,94.238,27.344,0
1490439038.863,11.230,75.195,47.852,69.824,32.227,0
1490439038.867,1.953,72.754,11.230,45.410,-5.371,0
1490439038.870,35.156,68.848,53.711,66.406,-10.254,0
1490439038.874,57.617,96.191,73.730,94.238,12.207,0
1490439038.878,53.223,104.492,39.551,83.008,16.602,0
1490439038.882,33.691,71.289,16.113,67.383,0.977,0
1490439038.886,8.789,57.617,2.930,38.086,9.277,0
1490439038.890,50.781,67.871,70.312,83.984,30.762,0
1490439038.894,76.172,94.238,126.465,125.488,27.344,0
1490439038.898,45.898,98.633,77.637,101.562,27.344,0
1490439038.902,38.086,60.547,62.988,79.102,41.016,0
1490439038.906,20.508,45.898,64.941,51.758,60.547,0
1490439038.910,-1.953,44.434,37.598,39.062,37.109,0
1490439038.913,27.344,90.332,28.809,73.730,15.137,0
1490439038.917,101.562,113.281,96.680,155.273,26.855,0
1490439038.921,92.773,52.734,111.816,143.066,20.508,0
1490439038.925,52.246,27.832,61.523,89.355,24.902,0
1490439038.929,76.660,75.684,95.703,111.328,20.020,0
1490439038.933,45.898,44.922,55.664,77.148,47.852,0
1490439038.937,-17.578,37.598,-15.137,10.254,60.547,0
1490439038.941,14.648,130.859,17.090,50.781,45.410,0
1490439038.945,49.805,109.863,71.777,97.656,48.828,0
1490439038.949,53.223,90.332,104.980,109.863,21.484,0
1490439038.953,83.984,103.027,102.051,132.324,25.391,0
1490439038.956,45.898,51.758,30.762,83.496,33.203,0
1490439038.960,-2.441,25.879,0.000,49.316,19.531,0
1490439038.964,18.066,46.387,40.527,69.824,41.504,0
1490439038.968,47.363,71.777,69.824,91.309,34.180,0
1490439038.972,51.758,103.027,59.082,97.168,-17.578,0
1490439038.976,18.066,105.469,41.992,55.176,-10.254,0
1490439038.980,33.203,83.496,42.480,63.477,48.828,0
1490439038.984,62.012,66.406,57.617,102.051,49.316,0
1490439038.988,39.551,32.227,58.594,80.078,36.133,0
1490439038.992,34.668,59.570,51.270,81.543,58.105,0
1490439038.995,36.621,91.309,43.457,74.707,45.898,0
1490439038.999,7.812,59.082,26.367,35.156,28.320,0
1490439039.003,51.758,87.402,64.453,72.754,23.926,0
1490439039.007,54.199,72.754,69.336,80.078,25.879,0
1490439039.011,-1.465,52.246,-7.812,34.668,43.945,0
1490439039.015,25.391,74.219,41.992,61.523,7.812,0
1490439039.019,26.367,74.219,94.727,74.707,-3.906,0
1490439039.023,19.043,65.430,62.012,76.172,41.016,0
1490439039.027,68.848,60.059,76.660,107.422,49.805,0
1490439039.031,72.266,100.098,101.074,107.422,32.227,0
1490439039.035,23.926,69.336,45.410,70.801,23.926,0
1490439039.038,-6.836,46.875,29.785,67.871,42.480,0
1490439039.042,-15.137,43.945,7.324,61.035,2.441,0
1490439039.046,-13.184,38.086,-30.273,22.949,-6.348,0
1490439039.050,22.949,51.270,58.105,55.664,34.668,0
1490439039.054,42.969,58.105,94.727,103.027,36.133,0
1490439039.058,37.598,32.227,73.242,100.586,33.203,0
1490439039.062,66.895,97.168,81.055,106.934,18.555,0
1490439039.066,26.367,109.863,59.570,70.312,8.789,0
1490439039.070,-45.410,-0.977,0.000,15.137,32.715,0
1490439039.074,-12.695,6.836,12.695,45.898,-5.371,0
1490439039.078,37.109,60.547,43.457,78.613,-31.250,0
1490439039.081,29.297,67.871,51.270,63.477,26.855,0
1490439039.085,6.348,42.480,48.828,60.059,41.016,0
1490439039.089,46.875,64.941,80.078,105.469,11.719,0
1490439039.093,52.734,77.637,94.238,87.891,-1.953,0
1490439039.097,-9.766,25.391,14.648,18.555,30.273,0
1490439039.101,65.918,52.734,20.508,108.398,49.805,0
1490439039.105,104.492,102.051,87.891,142.090,17.090,0
1490439039.109,32.715,70.801,57.129,64.941,-14.648,0
1490439039.113,-5.859,34.668,26.855,45.410,12.207,0
1490439039.117,-13.184,34.180,41.016,42.969,33.203,0
1490439039.120,-21.484,34.180,34.180,35.156,7.812,0
1490439039.124,-41.504,25.391,14.160,5.371,-18.066,0
1490439039.128,19.531,90.820,83.984,64.941,3.906,0
1490439039.132,61.035,105.957,103.516,113.770,36.621,0
1490439039.136,44.922,41.992,70.312,91.309,15.625,0
1490439039.140,36.133,37.598,87.402,93.262,18.066,0
1490439039.144,-6.836,37.109,10.742,34.668,34.668,0
1490439039.148,-41.016,38.086,-17.578,-13.672,20.996,0
1490439039.152,-33.691,52.734,9.766,8.789,-0.488,0
1490439039.156,-7.812,60.059,53.223,42.969,-4.883,0
1490439039.160,6.836,77.637,60.547,38.086,13.184,0
1490439039.163,39.062,89.355,76.660,53.711,30.762,0
1490439039.167,65.918,92.285,109.375,99.609,3.418,0
1490439039.171,12.207,57.129,22.461,56.641,-2.441,0
1490439039.175,-60.547,17.090,-31.738,-15.625,32.227,0
1490439039.179,-47.363,37.598,41.992,-6.836,44.434,0
1490439039.183,7.324,41.504,87.891,36.621,47.852,0
1490439039.187,-26.855,38.574,46.875,20.020,49.805,0
1490439039.191,-34.180,56.152,6.836,10.254,60.059,0
1490439039.195,75.684,125.488,61.523,112.305,46.875,0
1490439039.199,59.570,94.238,83.984,104.980,35.645,0
1490439039.203,16.113,15.137,33.203,36.621,25.879,0
1490439039.206,12.695,31.738,22.949,33.691,5.859,0
1490439039.210,-9.766,52.246,20.508,48.340,-12.207,0
1490439039.214,26.855,83.984,71.777,90.820,-21.973,0
1490439039.218,18.066,54.688,44.922,53.223,13.672,0
1490439039.222,-28.320,31.250,-19.043,2.930,41.992,0
1490439039.226,30.762,81.055,66.406,64.941,21.973,0
1490439039.230,6.348,21.973,30.273,45.410,7.324,5
1490439039.234,-86.914,-17.090,-41.016,-28.809,36.133,0
1490439039.238,14.648,113.770,71.777,56.152,42.480,0
1490439039.242,83.984,138.184,142.090,107.422,27.832,0
1490439039.245,18.066,57.129,69.824,51.270,22.461,0
1490439039.249,-9.766,19.531,14.160,24.414,18.555,0
1490439039.253,9.277,54.199,40.039,48.828,19.531,0
1490439039.257,22.949,91.797,51.758,73.730,5.371,0
1490439039.261,-32.715,50.293,-13.672,16.113,29.785,0
1490439039.265,-53.223,15.137,-33.203,-21.973,74.707,0
1490439039.269,-54.199,0.488,-48.340,-26.855,61.035,0
1490439039.273,4.883,32.227,14.160,26.855,17.578,0
1490439039.277,63.477,96.680,114.746,92.773,23.926,0
1490439039.281,35.645,84.473,107.422,70.312,61.523,0
1490439039.285,48.340,117.676,108.887,80.078,27.344,0
1490439039.288,-4.395,44.434,41.504,38.086,14.160,0
1490439039.292,-68.848,-18.555,-37.598,-30.762,33.691,0
1490439039.296,-9.766,65.918,25.879,22.949,3.906,0
1490439039.300,71.289,102.539,78.125,105.469,-15.137,0
1490439039.304,-7.324,41.992,0.977,34.668,-16.113,0
1490439039.308,-10.254,60.547,40.527,27.832,15.625,0
1490439039.312,78.125,107.422,94.238,112.793,15.137,0
1490439039.316,-4.883,32.227,1.953,24.414,14.160,0
1490439039.320,5.859,82.520,21.484,20.996,43.945,0
1490439039.324,119.629,92.285,143.555,149.414,63.477,0
1490439039.328,83.984,51.758,131.836,113.281,48.828,0
1490439039.331,-29.297,42.480,-3.418,-5.371,7.324,0
1490439039.335,-21.484,85.449,-18.555,12.207,18.066,0
1490439039.339,50.293,108.887,79.590,88.379,43.457,0
1490439039.343,10.742,37.598,69.336,58.594,10.254,0
1490439039.347,-10.254,28.809,18.555,32.227,12.695,0
1490439039.351,-4.395,40.527,7.324,37.598,39.551,0
1490439039.355,15.137,70.312,64.453,65.430,35.645,0
1490439039.359,44.922,109.863,80.566,89.355,18.555,0
1490439039.363,49.316,100.098,78.125,95.703,-3.906,0
1490439039.367,12.695,34.668,35.156,57.129,32.715,0
1490439039.370,-2.930,66.895,27.832,37.598,77.148,0
1490439039.374,-7.812,61.523,30.273,22.461,33.691,0
1490439039.378,-20.996,57.129,-3.418,12.207,20.020,0
1490439039.382,15.625,76.172,37.598,56.152,35.645,0
1490439039.386,18.066,60.547,65.430,67.871,30.762,0
1490439039.390,-11.230,50.293,55.664,41.016,14.648,0
1490439039.394,19.531,70.801,50.781,58.594,0.000,0
1490439039.398,54.688,123.047,50.293,86.426,25.879,0
1490439039.402,-2.930,54.688,26.367,42.969,43.457,0
1490439039.406,5.859,35.156,59.570,52.246,-0.488,0
1490439039.410,65.430,72.754,73.730,95.215,-18.066,0
1490439039.413,28.809,75.195,41.504,68.359,31.738,0
1490439039.417,-20.020,84.473,49.316,30.762,39.062,0
1490439039.421,3.906,94.238,40.039,47.363,25.391,0
1490439039.425,-2.441,24.902,35.645,30.273,24.414,0
1490439039.429,-32.715,-42.480,33.203,0.000,38.086,0
1490439039.433,34.668,88.867,112.305,70.801,28.809,0
1490439039.437,31.738,123.047,78.125,70.801,11.230,0
1490439039.441,-22.949,68.848,-23.438,11.719,50.293,0
1490439039.445,-22.461,72.754,29.785,29.785,59.082,0
1490439039.449,-2.441,65.918,87.891,57.129,37.109,0
1490439039.453,67.871,73.242,122.559,96.191,17.090,0
1490439039.456,70.312,77.148,96.680,91.797,28.809,0
1490439039.460,-0.488,12.207,-16.113,29.297,31.250,0
1490439039.464,-49.316,-2.441,-61.523,-17.578,5.859,0
1490439039.468,1.953,99.609,52.734,46.875,11.719,0
1490439039.472,14.648,81.055,77.148,64.453,42.480,0
1490439039.476,-36.621,18.066,2.441,10.742,39.062,0
1490439039.480,-36.133,62.988,-7.324,13.184,28.320,0
1490439039.484,38.574,81.543,74.707,69.336,19.531,0
1490439039.488,125.977,94.727,162.109,149.902,22.461,0
1490439039.492,43.945,44.434,92.773,90.820,33.691,0
1490439039.495,-31.738,0.977,-7.324,22.949,-6.348,0
1490439039.499,27.344,49.316,36.133,75.684,-28.320,0
1490439039.503,29.297,111.328,45.410,74.219,15.137,0
1490439039.507,28.809,98.145,39.062,70.801,24.414,0
1490439039.511,0.000,23.926,33.203,44.434,26.855,0
1490439039.515,11.719,50.781,20.020,58.105,57.129,0
1490439039.519,22.461,28.320,36.621,56.152,55.176,0
1490439039.523,-16.113,4.395,10.254,7.324,29.785,0
1490439039.527,36.621,72.266,57.617,67.871,19.531,0
1490439039.531,47.363,59.570,88.379,90.820,22.461,0
1490439039.535,41.504,63.477,65.430,91.309,11.230,0
1490439039.538,77.148,69.336,97.168,96.191,24.902,0
1490439039.542,30.762,68.848,45.410,43.457,25.879,0
1490439039.546,-24.902,62.988,-0.488,0.000,3.906,0
1490439039.550,26.367,62.988,41.016,42.480,44.922,0
1490439039.554,63.477,50.781,26.855,74.219,10.742,0
1490439039.558,96.191,80.078,69.336,96.680,-3.906,0
1490439039.562,58.594,103.516,95.703,62.012,53.711,0
1490439039.566,-45.410,16.602,-20.508,-34.180,29.785,0
1490439039.570,-40.527,30.273,-17.578,-12.695,7.324,0
1490439039.574,28.809,96.191,97.656,65.918,20.020,0
1490439039.578,8.789,32.227,39.062,36.133,20.020,0
1490439039.581,21.484,26.855,0.488,45.410,35.156,0
1490439039.585,61.523,90.820,73.242,91.797,20.996,0
1490439039.589,-1.953,69.336,43.945,39.062,21.484,0
1490439039.593,-6.836,73.242,24.902,38.574,30.762,0
1490439039.597,66.895,96.191,105.469,97.656,8.789,0
1490439039.601,33.203,26.367,62.012,56.152,-18.066,0
1490439039.605,9.277,12.695,31.250,47.363,-1.953,0
1490439039.609,2.930,16.602,6.348,42.969,33.203,0
1490439039.613,-81.543,-18.066,-73.730,-65.918,16.113,0
1490439039.617,-62.988,40.527,1.465,-32.715,34.668,0
1490439039.620,41.016,111.816,89.844,84.473,68.848,0
1490439039.624,61.523,123.047,108.398,92.773,47.852,0
1490439039.628,-35.645,43.457,26.367,-2.441,3.906,0
1490439039.632,-63.965,-3.418,-3.418,-28.320,-4.883,0
1490439039.636,-46.387,30.762,1.465,-20.996,26.855,0
1490439039.640,-51.270,20.020,-20.508,-24.902,30.273,0
1490439039.644,-52.734,-23.438,-3.906,-18.066,15.137,0
1490439039.648,-49.805,50.293,-0.977,-40.527,38.086,0
1490439039.652,-69.336,47.363,-10.254,-58.105,62.500,0
1490439039.656,-38.574,-1.465,37.109,-17.578,38.574,0
1490439039.660,3.418,29.297,47.852,27.832,20.508,0
1490439039.663,-32.227,41.504,7.812,-8.301,35.156,0
1490439039.667,-34.180,71.777,23.438,-22.949,50.293,0
1490439039.671,-71.289,58.105,28.809,-43.945,59.082,0
1490439039.675,-84.961,12.695,4.883,-48.340,17.578,0
1490439039.679,-21.484,2.441,28.320,9.766,-10.742,0
1490439039.683,-46.387,15.137,32.715,-18.066,18.066,0
1490439039.687,-118.652,-18.555,-11.719,-95.215,26.855,0
1490439039.691,-67.383,4.395,2.441,-55.176,38.574,0
1490439039.695,-3.418,68.359,30.273,3.418,46.875,0
1490439039.699,-19.043,99.121,28.320,-8.301,37.109,0
1490439039.703,-68.848,9.277,2.441,-55.664,34.180,0
1490439039.706,-101.562,-20.508,-19.043,-80.078,40.039,0
1490439039.710,-55.176,57.617,13.184,-28.320,30.762,0
1490439039.714,-40.527,28.320,49.805,-28.320,39.062,0
1490439039.718,-20.508,39.062,73.242,-8.301,35.156,0
1490439039.722,-58.105,43.945,-4.395,-28.320,14.160,0
1490439039.726,-59.570,51.758,-30.273,-45.898,20.020,0
1490439039.730,114.258,151.855,125.488,115.723,37.598,0
1490439039.734,83.496,79.102,89.355,100.586,59.082,0
1490439039.738,-89.844,-4.883,-63.477,-49.805,-1.465,0
1490439039.742,-5.859,69.824,6.348,24.414,-5.371,0
1490439039.745,34.668,23.926,47.852,48.828,57.129,0
1490439039.749,22.949,76.172,46.875,39.551,66.406,0
1490439039.753,53.223,98.633,69.824,67.383,45.410,0
1490439039.757,92.773,85.449,102.539,92.773,38.574,0
1490439039.761,90.332,104.980,83.496,101.562,44.434,0
1490439039.765,0.977,-5.859,-26.367,25.879,31.250,0
1490439039.769,5.859,47.852,-3.418,26.855,22.461,0
1490439039.773,42.480,83.008,45.898,62.012,33.203,0
1490439039.777,51.758,55.176,47.852,67.871,14.648,0
1490439039.781,22.461,58.594,29.785,41.992,0.488,0
1490439039.785,2.930,50.293,18.555,21.973,28.320,0
1490439039.788,24.414,59.082,37.598,42.969,22.949,0
1490439039.792,33.203,64.453,11.230,44.434,-5.371,0
1490439039.796,80.566,78.613,36.133,77.637,39.062,0
1490439039.800,75.684,44.922,61.523,69.824,41.504,0
1490439039.804,63.477,46.387,55.176,53.223,22.461,0
1490439039.808,59.082,63.477,70.801,60.059,10.742,0
1490439039.812,45.410,78.125,26.367,56.152,-14.648,0
1490439039.816,104.980,108.398,67.871,86.914,23.438,0
1490439039.820,111.816,83.984,86.426,106.934,58.105,0
1490439039.824,44.922,69.336,48.828,79.590,54.199,0
1490439039.828,22.949,48.828,22.461,46.875,27.832,0
1490439039.831,101.562,57.617,71.777,94.238,9.277,0
1490439039.835,125.000,77.637,100.098,135.742,31.250,0
1490439039.839,33.203,8.301,7.324,59.570,20.020,0
1490439039.843,5.371,-10.742,0.977,26.367,-10.254,0
1490439039.847,110.352,74.219,66.895,145.020,18.066,0
1490439039.851,128.418,99.609,68.359,166.992,55.664,0
1490439039.855,114.746,129.883,114.746,134.766,39.062,0
1490439039.859,123.535,99.121,119.629,126.465,12.695,0
1490439039.863,33.203,18.555,10.254,27.832,36.621,0
1490439039.867,-27.832,42.969,-53.711,-24.902,58.594,0
1490439039.870,60.059,95.215,42.969,80.566,7.812,0
1490439039.874,138.184,80.078,115.723,164.551,-22.949,0
1490439039.878,143.066,66.895,91.797,164.062,22.461,0
1490439039.882,95.703,41.992,54.199,104.980,24.414,0
1490439039.886,111.816,88.867,96.680,115.723,12.207,0
1490439039.890,70.312,64.941,34.180,69.336,14.160,0
1490439039.894,-15.137,-24.414,-53.711,-21.973,38.086,0
1490439039.898,60.547,58.105,43.945,59.570,35.156,0
1490439039.902,127.930,109.863,106.934,130.371,-13.672,0
1490439039.906,125.488,90.332,102.051,120.605,-3.418,0
1490439039.910,126.953,102.051,90.820,120.117,-10.742,0
1490439039.913,99.609,85.449,67.383,92.773,-9.277,0
1490439039.917,58.105,64.941,26.855,55.176,3.418,0
1490439039.921,55.176,99.121,20.508,55.664,-4.883,0
1490439039.925,5.859,25.391,-18.066,0.977,52.246,0
1490439039.929,31.738,19.531,-11.719,30.762,53.711,0
1490439039.933,115.723,69.824,92.773,131.836,36.133,0
1490439039.937,130.859,64.453,119.629,140.137,49.805,0
1490439039.941,92.285,96.191,85.938,104.004,28.320,0
1490439039.945,80.566,99.121,65.430,94.727,39.062,0
1490439039.949,42.480,57.129,-14.648,44.922,40.527,0
1490439039.953,1.953,20.508,-23.926,6.348,30.762,0
1490439039.956,43.457,61.523,70.801,50.781,17.090,0
1490439039.960,99.121,105.957,103.027,114.746,-10.254,0
1490439039.964,104.980,78.613,79.590,120.117,1.953,0
1490439039.968,69.824,60.059,41.504,96.191,20.508,0
1490439039.972,85.449,92.285,68.848,120.117,21.484,0
1490439039.976,74.219,98.633,63.477,79.590,14.160,0
1490439039.980,50.781,93.750,28.809,34.668,32.715,0
1490439039.984,10.742,52.246,-6.348,12.695,61.035,0
1490439039.988,-11.719,21.973,-31.738,11.230,71.289,0
1490439039.992,55.176,66.895,36.133,66.406,42.969,0
1490439039.995,87.891,82.520,81.055,89.844,27.832,0
1490439039.999,74.707,65.918,109.375,86.914,35.156,0
1490439040.003,66.895,74.219,105.957,73.242,28.809,0
1490439040.007,25.391,35.156,37.598,17.578,10.254,0
1490439040.011,0.000,26.367,-24.414,-7.324,32.227,0
1490439040.015,58.594,115.234,15.137,60.059,57.617,0
1490439040.019,66.895,96.191,14.160,69.336,24.902,0
1490439040.023,74.707,71.777,58.105,80.566,4.395,0
1490439040.027,80.566,96.680,105.957,88.867,33.203,0
1490439040.031,57.129,40.039,46.875,48.828,50.293,0
1490439040.035,59.570,53.711,33.203,58.594,50.781,0
1490439040.038,19.531,40.039,18.066,21.973,39.062,0
1490439040.042,34.180,33.691,22.949,26.367,38.086,0
1490439040.046,83.496,110.840,81.543,77.148,83.984,0
1490439040.050,62.500,104.004,102.539,64.941,31.250,0
1490439040.054,2.441,29.297,19.043,-0.488,-15.137,0
1490439040.058,0.977,31.738,-10.254,0.000,26.855,0
1490439040.062,54.199,49.316,55.176,48.828,19.043,0
1490439040.066,69.824,86.914,77.148,63.965,11.719,0
1490439040.070,41.504,83.496,24.414,47.363,3.906,0
1490439040.074,45.898,40.527,25.391,56.152,-4.395,0
1490439040.078,64.453,68.848,67.871,78.613,8.789,0
1490439040.081,73.242,92.773,49.316,100.098,9.277,0
1490439040.085,52.734,76.172,27.832,62.500,16.113,0
1490439040.089,43.945,112.793,33.203,31.738,11.230,0
1490439040.093,81.055,115.723,71.289,86.914,-2.930,0
1490439040.097,57.129,53.711,51.270,87.402,15.625,0
1490439040.101,30.762,49.805,24.902,56.641,30.762,0
1490439040.105,55.176,105.957,56.152,54.688,28.320,0
1490439040.109,57.129,106.445,64.941,63.965,18.555,0
1490439040.113,22.461,65.430,11.719,37.109,31.250,0
1490439040.117,-13.672,38.574,-26.855,-14.160,37.598,0
1490439040.120,38.574,78.613,36.621,40.527,42.480,0
1490439040.124,71.777,61.523,56.641,62.012,39.062,0
1490439040.128,18.066,18.555,4.883,10.254,22.949,0
1490439040.132,42.969,73.242,-1.953,45.898,39.551,0
1490439040.136,149.902,128.906,118.164,157.715,51.758,0
1490439040.140,89.844,92.773,109.375,103.027,20.020,0
1490439040.144,-12.695,30.762,10.254,-3.418,-1.465,0
1490439040.148,-0.977,36.621,20.996,9.766,30.762,0
1490439040.152,52.246,69.336,57.129,65.430,51.270,0
1490439040.156,70.801,52.734,44.922,79.590,50.293,0
1490439040.160,66.406,86.914,39.062,57.617,55.176,0
1490439040.163,36.621,101.074,25.391,16.113,73.730,0
1490439040.167,12.207,83.984,-4.395,11.230,36.133,0
1490439040.171,55.664,51.758,44.434,61.035,18.555,0
1490439040.175,89.355,23.926,109.863,91.797,61.035,0
1490439040.179,39.062,52.246,36.621,43.457,55.176,0
1490439040.183,30.762,98.633,14.160,34.668,37.598,0
1490439040.187,89.355,133.789,106.934,109.375,3.418,0
1490439040.191,16.602,58.594,51.270,42.969,-2.441,0
1490439040.195,-13.672,40.039,23.926,10.742,37.109,0
1490439040.199,46.387,77.148,55.664,55.176,47.363,0
1490439040.203,82.031,62.012,56.152,73.730,15.137,0
1490439040.206,46.875,51.270,22.949,47.852,14.648,0
1490439040.210,19.043,59.082,45.898,40.039,19.531,0
1490439040.214,90.332,115.234,143.555,116.211,-0.488,0
1490439040.218,49.316,90.820,79.102,61.523,13.672,0
1490439040.222,-24.414,22.461,-18.066,-13.672,31.250,0
1490439040.226,71.289,88.867,53.223,81.055,40.039,0
1490439040.230,50.293,71.289,33.691,61.035,43.457,0
1490439040.234,4.883,10.254,-8.789,2.441,23.926,0
1490439040.238,17.578,3.906,-14.160,-1.465,5.371,0
1490439040.242,-26.367,0.000,-59.570,-42.969,15.625,0
1490439040.245,72.266,81.543,35.156,49.805,41.992,0
1490439040.249,133.301,145.020,128.418,120.605,23.926,0
1490439040.253,83.496,108.887,95.215,71.777,12.207,0
1490439040.257,75.684,56.152,62.988,72.754,26.367,0
1490439040.261,62.988,64.453,68.359,64.941,16.113,0
1490439040.265,13.672,46.387,24.902,-4.395,40.039,0
1490439040.269,-31.738,11.719,-37.109,-53.223,74.219,0
1490439040.273,17.090,36.621,-4.883,-20.996,45.410,0
1490439040.277,39.551,4.395,19.043,4.883,33.203,0
1490439040.281,46.387,37.109,4.395,31.738,58.105,0
1490439040.285,102.051,124.512,63.965,79.590,35.156,0
1490439040.288,76.660,114.258,89.844,47.363,2.930,0
1490439040.292,40.527,44.434,38.086,28.809,-0.977,0
1490439040.296,48.340,38.086,31.250,49.316,18.066,0
1490439040.300,105.469,76.172,78.613,98.145,51.758,0
1490439040.304,108.887,58.594,77.148,103.516,61.035,0
1490439040.308,-3.418,8.789,-10.742,7.324,55.176,0
1490439040.312,-17.090,29.785,-3.906,8.789,50.781,0
1490439040.316,88.867,100.586,109.863,97.656,30.762,0
1490439040.320,84.961,98.633,78.613,70.801,1.953,0
1490439040.324,58.105,48.828,44.434,53.223,14.648,0
1490439040.328,49.805,19.531,57.129,58.594,32.227,0
1490439040.331,43.457,40.527,36.133,63.965,44.434,0
1490439040.335,59.570,75.684,37.598,81.543,10.742,0
1490439040.339,74.707,59.570,52.246,71.777,-21.973,0
1490439040.343,51.270,46.875,15.625,49.805,30.762,0
1490439040.347,46.875,78.613,28.809,61.523,43.945,0
1490439040.351,49.316,77.148,42.480,63.965,42.969,0
1490439040.355,32.227,51.270,14.648,51.758,38.574,0
1490439040.359,23.926,47.852,28.320,50.293,31.250,0
1490439040.363,85.938,96.191,79.102,89.355,42.480,0
1490439040.367,80.566,64.941,61.035,69.336,53.711,0
1490439040.370,42.969,23.926,55.176,45.410,30.273,0
1490439040.374,61.035,59.082,69.336,73.242,19.531,0
1490439040.378,27.832,46.875,20.508,32.715,39.062,0
1490439040.382,-10.742,57.617,-28.320,-22.949,19.043,0
1490439040.386,53.223,103.516,46.387,42.969,6.348,0
1490439040.390,79.102,96.191,89.355,96.680,24.414,0
1490439040.394,66.406,25.879,66.406,68.848,28.320,0
1490439040.398,57.617,3.418,34.668,32.715,24.414,0
1490439040.402,-2.441,26.855,2.930,-22.461,10.742,0
1490439040.406,-1.953,50.781,2.441,0.000,30.273,0
1490439040.410,35.156,68.848,29.785,54.199,28.320,0
1490439040.413,-8.789,25.391,31.738,0.488,1.465,0
1490439040.417,102.539,81.055,118.164,88.867,42.480,0
1490439040.421,164.551,83.496,147.461,144.531,43.945,0
1490439040.425,47.852,66.895,43.945,50.293,15.137,0
1490439040.429,15.137,58.594,9.277,28.809,4.395,0
1490439040.433,-22.949,17.578,-17.578,-5.859,25.879,0
1490439040.437,-47.852,35.645,-24.414,-29.297,57.617,0
1490439040.441,31.250,29.297,57.617,37.598,42.969,0
1490439040.445,35.645,-2.930,46.875,41.504,26.367,0
1490439040.449,17.090,22.461,-4.395,27.344,53.711,0
1490439040.453,103.027,79.102,73.242,118.164,75.684,0
1490439040.456,124.512,92.285,118.652,138.184,20.508,0
1490439040.460,73.242,85.938,73.730,78.613,11.230,0
1490439040.464,73.242,72.754,49.316,76.172,40.527,0
1490439040.468,56.152,40.039,49.316,74.707,8.789,0
1490439040.472,41.504,41.992,46.387,62.500,-5.371,0
1490439040.476,15.625,28.809,12.695,15.137,33.691,0
1490439040.480,-10.254,14.648,-8.301,-24.414,71.777,0
1490439040.484,46.875,45.410,50.781,33.691,38.574,0
1490439040.488,75.684,71.777,69.824,63.477,23.438,0
1490439040.492,87.402,93.750,58.105,79.590,30.273,0
1490439040.495,101.074,66.406,46.387,112.793,43.945,0
1490439040.499,74.219,41.504,57.617,95.703,42.969,0
1490439040.503,45.410,66.895,48.828,52.246,11.230,0
1490439040.507,58.594,67.871,41.504,58.105,19.043,0
1490439040.511,77.148,70.312,76.172,80.566,17.578,0
1490439040.515,55.664,43.457,33.691,39.062,28.809,0
1490439040.519,75.195,66.895,27.344,47.363,41.992,0
1490439040.523,81.055,91.797,53.711,62.500,27.344,0
1490439040.527,28.320,55.664,-11.719,5.371,18.066,0
1490439040.531,40.527,46.387,-5.859,-1.953,-2.930,0
1490439040.535,89.844,51.270,64.941,54.199,9.766,0
1490439040.538,105.469,54.199,63.965,104.980,34.668,0
1490439040.542,108.398,83.496,83.008,131.348,18.066,0
1490439040.546,83.496,44.434,94.238,100.098,28.320,0
1490439040.550,11.719,23.438,-8.301,14.648,38.574,0
1490439040.554,33.691,108.887,-8.789,35.156,20.508,0
1490439040.558,61.035,92.773,38.574,64.453,9.766,0
1490439040.562,41.016,39.551,36.621,52.246,20.996,0
1490439040.566,28.809,33.203,23.926,44.922,42.480,0
1490439040.570,17.090,9.277,27.832,28.320,21.484,0
1490439040.574,54.688,36.621,88.379,71.777,-0.977,0
1490439040.578,91.797,59.082,75.195,104.004,-1.465,0
1490439040.581,75.684,48.828,12.695,67.383,35.645,0
1490439040.585,56.152,78.613,40.039,50.293,28.809,0
1490439040.589,72.754,85.938,62.012,76.660,-6.836,0
1490439040.593,81.543,44.434,59.570,74.707,20.996,0
1490439040.597,50.293,1.465,18.555,35.156,49.805,0
1490439040.601,49.805,20.020,26.367,39.551,41.992,0
1490439040.605,100.586,69.336,65.430,110.352,23.926,0
1490439040.609,66.895,55.176,29.297,87.891,-5.859,0
1490439040.613,54.199,31.738,53.711,70.801,-10.254,0
1490439040.617,57.129,47.363,65.918,64.453,27.832,0
1490439040.620,99.609,113.281,93.262,95.215,43.457,0
1490439040.624,80.566,85.449,52.246,89.355,39.551,0
1490439040.628,-23.438,3.418,-60.547,-21.973,62.500,0
1490439040.632,11.230,39.551,-16.113,7.812,51.270,0
1490439040.636,100.098,74.707,73.730,95.215,21.484,0
1490439040.640,126.953,49.805,112.793,105.469,24.414,0
1490439040.644,84.473,22.949,79.102,57.617,53.223,0
1490439040.648,52.734,35.156,40.039,47.363,53.711,0
1490439040.652,43.457,51.270,38.574,63.477,13.184,0
1490439040.656,62.988,62.012,15.625,61.523,21.973,0
1490439040.660,118.652,137.695,14.160,96.191,35.645,0
1490439040.663,67.383,55.176,11.719,38.574,6.348,0
1490439040.667,32.227,-9.277,33.691,21.484,-0.488,0
1490439040.671,62.500,56.641,62.500,72.266,27.344,0
1490439040.675,67.383,39.551,57.129,61.035,49.805,0
1490439040.679,75.684,32.227,57.617,55.176,19.531,0
1490439040.683,59.570,13.672,23.438,33.203,4.395,0
1490439040.687,87.891,5.371,56.152,62.012,33.691,0
1490439040.691,133.301,80.566,107.910,121.582,47.852,0
1490439040.695,46.387,55.664,13.184,34.668,38.574,0
1490439040.699,37.598,61.523,32.227,20.996,47.852,0
1490439040.703,77.637,84.473,82.520,63.965,24.902,0
1490439040.706,39.062,25.879,37.598,43.457,15.137,0
1490439040.710,37.598,39.062,18.555,40.527,15.137,0
1490439040.714,37.109,19.043,19.043,37.598,4.883,0
1490439040.718,55.176,23.438,34.180,59.570,10.742,0
1490439040.722,82.031,31.250,26.855,77.637,15.625,0
1490439040.726,115.723,3.418,75.684,104.004,20.508,0
1490439040.730,86.914,17.090,61.523,75.684,33.203,0
1490439040.734,46.875,49.316,16.602,49.805,37.109,0
1490439040.738,175.781,136.719,138.672,169.922,16.113,0
1490439040.742,179.688,139.648,149.414,164.551,40.527,0
1490439040.745,63.965,30.762,64.941,56.641,51.270,0
1490439040.749,26.367,6.348,1.953,22.949,36.133,0
1490439040.753,9.766,-7.324,-18.555,8.301,39.062,0
1490439040.757,40.527,-18.555,39.551,26.855,39.551,0
1490439040.761,94.727,55.664,73.242,67.871,28.809,0
1490439040.765,104.980,60.547,63.477,83.008,21.973,0
1490439040.769,71.777,60.547,16.113,58.594,20.996,0
1490439040.773,117.676,104.004,75.684,84.473,30.762,0
1490439040.777,129.883,100.586,109.375,89.844,28.320,0
1490439040.781,39.062,55.664,22.461,24.414,37.109,0
1490439040.785,21.973,4.395,5.859,18.066,26.367,0
1490439040.788,75.684,7.324,46.387,55.176,43.945,0
1490439040.792,111.816,38.574,90.820,70.312,62.012,0
1490439040.796,86.426,66.895,31.250,44.922,31.250,0
1490439040.800,54.688,61.523,-21.973,28.809,15.625,0
1490439040.804,99.121,96.680,76.172,95.215,3.906,0
1490439040.808,141.113,100.586,163.086,132.324,23.926,0
1490439040.812,82.031,16.113,68.848,57.129,42.480,0
1490439040.816,36.621,28.320,7.812,4.395,10.742,0
1490439040.820,103.027,97.168,66.895,84.961,-3.418,0
1490439040.824,114.746,46.387,35.645,102.051,15.137,0
1490439040.828,52.246,-7.812,-3.418,15.625,23.438,0
1490439040.831,86.914,64.453,39.551,46.875,17.578,0
1490439040.835,142.090,103.027,88.379,111.328,18.066,0
1490439040.839,140.137,49.316,107.422,107.910,10.742,0
1490439040.843,91.797,26.855,62.988,58.594,-0.488,0
1490439040.847,33.203,-3.418,-1.465,3.906,-3.906,0
1490439040.851,30.273,0.488,-16.113,-0.977,6.836,0
1490439040.855,64.941,26.855,16.113,41.504,43.457,0
1490439040.859,121.094,74.707,54.199,98.633,40.527,0
1490439040.863,130.371,41.504,40.527,100.098,8.301,0
1490439040.867,60.547,13.184,5.371,33.691,20.508,0
1490439040.870,44.922,44.922,25.391,24.902,21.484,0
1490439040.874,62.012,62.012,36.133,39.551,1.953,0
1490439040.878,52.734,33.203,6.348,35.156,36.621,0
1490439040.882,111.328,38.574,45.898,92.285,56.641,0
1490439040.886,105.957,45.410,74.707,97.656,38.086,0
1490439040.890,34.668,13.672,17.578,18.555,35.645,0
1490439040.894,45.898,11.230,15.137,17.578,16.113,0
1490439040.898,59.570,13.672,20.020,38.574,22.461,0
1490439040.902,75.684,32.227,19.531,76.660,39.551,0
1490439040.906,65.918,68.359,18.555,81.543,9.766,0
1490439040.910,59.082,74.219,17.090,46.875,10.742,0
1490439040.913,105.469,62.012,62.012,76.660,77.148,0
1490439040.917,62.012,19.531,39.062,33.691,64.941,0
1490439040.921,64.941,27.344,26.367,25.879,25.391,0
1490439040.925,140.137,69.824,74.707,106.934,36.133,0
1490439040.929,111.328,52.246,50.293,86.914,31.250,0
1490439040.933,50.293,-13.184,3.418,26.855,46.875,0
1490439040.937,104.492,73.730,54.688,81.543,47.363,0
1490439040.941,100.098,88.379,47.363,84.961,27.344,0
1490439040.945,95.703,12.695,63.965,76.660,38.086,0
1490439040.949,170.898,104.004,106.445,138.184,48.828,0
1490439040.953,164.551,102.051,83.984,142.578,22.461,0
1490439040.956,102.539,71.777,67.383,94.238,12.695,0
1490439040.960,29.785,6.348,3.906,23.926,37.598,0
1490439040.964,36.621,-9.277,-2.930,5.859,22.461,0
1490439040.968,72.754,101.074,43.457,38.086,9.277,0
1490439040.972,78.613,121.094,58.594,61.523,46.875,0
1490439040.976,134.766,126.465,114.746,118.652,23.926,0
1490439040.980,126.465,97.656,102.051,123.535,13.184,0
1490439040.984,75.684,25.879,40.039,80.078,22.461,0
1490439040.988,148.926,65.918,72.754,124.512,-3.906,0
1490439040.992,106.445,61.523,34.668,69.336,27.344,0
1490439040.995,3.418,27.832,7.324,-15.625,56.641,0
1490439040.999,47.852,83.984,51.270,44.922,39.551,0
1490439041.003,103.516,117.188,66.406,99.609,42.480,0
1490439041.007,107.422,91.309,62.500,78.125,43.457,0
1490439041.011,52.734,-5.859,50.293,40.039,20.996,0
1490439041.015,79.102,35.645,80.566,78.613,6.836,0
1490439041.019,86.914,98.145,63.965,83.496,35.645,0
1490439041.023,72.266,70.312,45.898,64.941,46.875,0
1490439041.027,127.441,109.863,93.750,113.281,1.953,0
1490439041.031,117.676,94.727,90.820,108.887,10.742,0
1490439041.035,109.375,73.730,61.035,90.820,40.527,0
1490439041.038,62.988,65.918,8.789,47.363,16.602,0
1490439041.042,14.160,18.555,-14.160,5.859,-13.184,0
1490439041.046,89.844,25.879,62.500,74.219,-11.719,0
1490439041.050,135.742,67.383,105.957,117.676,12.695,0
1490439041.054,113.281,86.426,74.707,90.332,7.324,0
1490439041.058,100.098,64.941,44.434,86.426,7.324,0
1490439041.062,39.062,46.875,-6.836,37.109,8.301,0
1490439041.066,100.586,117.676,45.898,75.195,25.391,0
1490439041.070,165.039,138.672,121.094,143.066,34.668,0
1490439041.074,83.984,49.316,74.707,79.590,10.254,0
1490439041.078,44.434,24.414,28.809,25.391,10.254,0
1490439041.081,41.992,19.531,16.602,20.996,25.391,0
1490439041.085,78.613,88.379,40.039,59.082,9.766,0
1490439041.089,71.289,86.914,69.336,58.594,-11.719,0
1490439041.093,69.824,62.988,96.680,52.246,34.180,0
1490439041.097,116.699,90.332,90.820,100.098,58.105,0
1490439041.101,58.594,47.852,30.273,64.941,9.766,0
1490439041.105,-4.395,27.344,5.859,7.812,18.555,0
1490439041.109,15.625,77.637,22.949,11.230,59.570,0
1490439041.113,66.895,64.453,60.547,41.504,56.641,0
1490439041.117,52.246,6.348,48.340,36.133,41.016,0
1490439041.120,51.758,62.500,73.242,54.688,45.898,0
1490439041.124,79.590,88.379,83.008,63.477,82.520,0
1490439041.128,59.570,56.152,36.621,30.273,88.379,0
1490439041.132,34.668,56.152,8.301,7.324,35.156,0
1490439041.136,40.039,48.340,10.742,25.879,18.555,0
1490439041.140,46.875,63.965,60.059,42.480,58.594,0
1490439041.144,78.613,72.266,84.473,60.059,63.477,0
1490439041.148,55.176,21.973,49.316,29.297,50.293,0
1490439041.152,14.648,39.062,3.906,2.930,50.781,0
1490439041.156,63.965,77.637,54.688,62.500,57.129,0
1490439041.160,108.398,55.664,74.219,107.422,42.480,0
1490439041.163,119.629,38.574,60.547,109.375,18.066,0
1490439041.167,154.785,108.398,116.211,125.000,76.660,0
1490439041.171,127.441,86.426,107.910,107.910,86.426,0
1490439041.175,-21.484,3.418,-51.758,-41.504,2.930,0
1490439041.179,-6.348,32.715,-70.312,-36.133,1.465,0
1490439041.183,113.770,82.520,74.219,83.008,55.664,0
1490439041.187,145.508,79.590,139.648,117.676,50.293,0
1490439041.191,137.207,73.242,126.953,120.117,17.090,0
1490439041.195,90.332,80.566,65.430,76.172,11.719,0
1490439041.199,43.945,72.266,19.043,12.695,20.508,0
1490439041.203,-5.859,60.059,-25.391,-35.645,-2.441,0
1490439041.206,26.855,87.891,-21.484,14.160,-8.301,0
1490439041.210,148.438,81.543,75.195,138.184,6.836,0
1490439041.214,135.742,-25.391,77.148,114.258,31.250,0
1490439041.218,42.480,10.742,21.484,6.348,45.898,0
1490439041.222,68.359,54.688,54.199,23.926,-12.207,0
1490439041.226,80.566,23.438,5.371,43.945,1.465,0
1490439041.230,62.500,70.312,8.789,27.344,50.293,0
1490439041.234,54.688,86.914,42.480,20.020,30.273,0
1490439041.238,54.199,73.730,27.344,41.504,19.531,0
1490439041.242,63.965,83.984,56.152,68.359,16.602,0
1490439041.245,62.012,17.090,44.922,43.457,30.762,0
1490439041.249,65.918,2.930,57.617,26.855,13.672,0
1490439041.253,59.082,72.266,64.941,12.207,8.789,0
1490439041.257,27.832,78.125,27.344,-11.230,26.855,0
1490439041.261,3.418,41.992,9.277,-9.766,27.344,0
1490439041.265,81.543,63.477,86.914,69.336,13.184,0
1490439041.269,91.797,93.750,71.777,75.684,17.090,0
1490439041.273,-0.977,60.059,-8.789,-19.043,29.785,0
1490439041.277,-36.133,20.996,-5.371,-53.711,29.297,0
1490439041.281,-13.672,11.230,-27.344,-35.156,10.254,0
1490439041.285,35.645,17.578,31.738,16.113,-22.949,0
1490439041.288,43.457,45.410,82.520,36.621,2.930,0
1490439041.292,-62.988,14.160,-56.641,-72.754,22.461,0
1490439041.296,-71.777,57.617,-23.926,-86.426,41.504,0
1490439041.300,42.480,123.535,143.555,35.645,88.867,0
1490439041.304,10.742,40.039,66.406,-15.625,63.965,0
1490439041.308,-17.578,2.441,45.898,-43.457,15.625,0
1490439041.312,-17.578,-11.230,55.664,-30.273,6.348,0
1490439041.316,-65.430,-3.418,-20.020,-74.219,13.184,0
1490439041.320,-75.684,33.691,-64.941,-93.262,10.254,0
1490439041.324,-67.871,20.508,-53.223,-97.656,17.090,0
1490439041.328,-73.242,-0.488,-4.883,-112.793,27.344,0
1490439041.331,-19.531,33.203,84.961,-64.941,29.297,0
1490439041.335,22.949,75.195,118.652,-27.832,34.668,0
1490439041.339,-53.711,32.227,15.625,-96.680,2.441,0
1490439041.343,-77.637,15.137,-21.484,-115.234,-14.160,0
1490439041.347,-54.199,4.395,3.906,-85.449,31.250,0
1490439041.351,-54.688,5.371,-1.953,-80.078,49.805,0
1490439041.355,-12.695,45.410,34.668,-33.203,39.062,0
1490439041.359,29.785,68.359,49.805,1.953,18.555,0
1490439041.363,38.574,55.176,57.129,8.301,0.977,0
1490439041.367,14.648,41.504,43.945,-6.836,21.484,0
1490439041.370,-57.617,38.574,-23.926,-88.867,19.531,0
1490439041.374,-44.434,68.359,-19.531,-84.473,13.184,0
1490439041.378,37.109,91.797,28.809,-2.930,48.340,0
1490439041.382,26.367,68.359,29.297,0.977,62.988,0
1490439041.386,8.789,64.941,40.527,-17.578,25.879,0
1490439041.390,20.996,52.246,25.879,-37.109,-12.695,0
1490439041.394,63.477,53.711,29.785,-11.230,29.297,0
1490439041.398,63.477,59.570,50.781,19.043,42.969,0
1490439041.402,-9.766,44.922,-28.809,-22.461,20.508,0
1490439041.406,-14.160,30.762,-26.855,-42.969,12.695,0
1490439041.410,52.734,104.492,42.969,2.930,17.578,0
1490439041.413,144.043,141.602,116.211,116.699,20.996,0
1490439041.417,104.004,89.355,103.027,90.820,1.953,0
1490439041.421,-21.484,27.344,-28.320,-47.363,8.789,0
1490439041.425,25.879,82.031,2.441,3.418,38.086,0
1490439041.429,98.145,111.328,61.523,74.219,41.504,0
1490439041.433,137.695,79.590,98.633,105.469,41.992,0
1490439041.437,141.113,137.207,87.402,120.117,56.152,0
1490439041.441,89.844,86.914,36.621,71.289,67.383,0
1490439041.445,56.152,48.340,-22.949,20.996,35.156,0
1490439041.449,61.523,96.191,-29.785,27.832,9.277,0
1490439041.453,104.492,104.004,59.082,82.031,12.695,0
1490439041.456,163.086,77.148,114.258,138.672,50.293,0
1490439041.460,104.492,116.699,60.547,76.660,53.711,0
1490439041.464,35.645,119.141,-21.484,19.043,37.109,0
1490439041.468,60.547,84.473,4.883,47.852,51.270,0
1490439041.472,133.301,120.605,93.262,107.910,43.457,0
1490439041.476,156.738,111.328,100.586,129.883,17.090,0
1490439041.480,93.750,47.363,24.414,79.102,8.789,0
1490439041.484,40.039,29.297,-4.883,39.062,66.895,0
1490439041.488,128.418,112.305,83.984,119.141,39.551,0
1490439041.492,166.016,106.934,67.871,150.879,-18.066,0
1490439041.495,109.375,104.004,21.973,95.215,-3.418,0
1490439041.499,115.723,110.352,82.520,99.609,41.992,0
1490439041.503,100.098,103.516,37.598,70.312,46.387,0
1490439041.507,132.812,144.043,46.875,85.449,-3.906,0
1490439041.511,187.988,91.797,111.328,134.277,22.461,0
1490439041.515,162.109,68.848,54.199,119.141,59.082,0
1490439041.519,153.320,120.605,51.270,118.652,14.160,0
1490439041.523,139.160,84.473,78.613,97.168,16.113,0
1490439041.527,90.332,83.984,63.965,64.941,39.551,0
1490439041.531,77.148,89.844,17.090,65.918,56.641,0
1490439041.535,116.699,98.633,12.207,89.355,31.738,0
1490439041.538,92.285,87.891,51.758,72.266,0.488,0
1490439041.542,103.027,76.172,76.660,90.820,16.602,0
1490439041.546,142.090,101.074,83.984,140.625,21.973,0
1490439041.550,123.047,92.285,70.312,128.906,3.418,0
1490439041.554,63.965,68.359,2.441,69.336,14.160,0
1490439041.558,48.340,74.707,7.812,54.688,31.738,0
1490439041.562,164.551,144.531,139.648,161.621,54.688,0
1490439041.566,90.820,78.125,68.359,95.703,20.996,0
1490439041.570,79.590,85.938,43.945,71.777,-1.465,0
1490439041.574,145.508,112.305,77.637,137.207,38.086,0
1490439041.578,91.797,52.246,33.203,114.746,37.109,0
1490439041.581,63.965,67.871,14.160,82.520,10.742,0
1490439041.585,10.742,26.367,-8.789,22.949,15.137,0
1490439041.589,-18.555,13.672,-22.949,-15.625,25.391,0
1490439041.593,82.520,125.000,39.062,84.473,10.742,0
1490439041.597,174.805,146.484,134.766,188.965,29.785,0
1490439041.601,161.133,79.102,154.785,160.156,43.945,0
1490439041.605,161.621,86.914,140.137,162.109,17.090,0
1490439041.609,67.871,29.785,25.391,72.754,-5.371,0
1490439041.613,0.977,22.949,-46.875,-1.953,26.855,0
1490439041.617,24.902,89.844,-36.621,14.160,21.484,0
1490439041.620,73.730,70.801,47.852,49.805,6.836,0
1490439041.624,57.617,62.500,62.012,54.199,24.902,0
1490439041.628,47.852,74.707,33.203,71.777,30.762,0
1490439041.632,124.023,74.219,101.562,122.070,34.668,0
1490439041.636,159.180,78.613,110.352,136.719,6.348,0
1490439041.640,137.207,77.148,94.727,118.652,2.441,0
1490439041.644,58.105,83.984,42.480,37.109,16.602,0
1490439041.648,4.395,69.824,-22.949,-12.207,30.273,0
1490439041.652,35.645,43.945,-18.066,15.137,31.738,0
1490439041.656,122.070,83.008,78.125,93.750,7.812,0
1490439041.660,91.797,112.793,43.945,79.102,6.836,0
1490439041.663,92.773,98.633,26.367,63.477,27.344,0
1490439041.667,88.379,62.012,53.711,38.086,32.227,0
1490439041.671,88.379,99.121,49.316,62.988,7.324,0
1490439041.675,169.434,120.117,110.840,153.809,4.883,0
1490439041.679,115.723,53.711,84.961,103.516,46.387,0
1490439041.683,28.809,21.484,6.836,24.414,45.410,0
1490439041.687,25.879,47.852,-20.020,19.531,13.184,0
1490439041.691,75.195,98.145,27.832,74.219,11.719,0
1490439041.695,47.852,50.293,37.109,59.082,33.203,0
1490439041.699,57.129,55.176,57.129,66.406,43.457,0
1490439041.703,162.598,115.723,128.418,163.574,-7.324,0
1490439041.706,140.625,92.773,97.656,133.301,-2.930,0
1490439041.710,47.363,53.223,29.297,31.738,2.441,0
1490439041.714,4.883,53.711,-6.348,-0.488,5.371,0
1490439041.718,32.227,79.590,20.020,43.457,40.527,0
1490439041.722,67.871,32.715,33.691,86.426,24.902,0
1490439041.726,60.547,15.137,7.812,65.918,31.738,0
1490439041.730,78.613,76.660,45.898,79.102,11.230,0
1490439041.734,98.145,64.453,100.586,111.328,0.977,0
1490439041.738,45.410,67.871,57.617,56.641,27.832,0
1490439041.742,20.996,118.164,25.391,15.625,10.742,0
1490439041.745,-4.883,117.188,-20.996,-13.672,11.719,0
1490439041.749,6.836,156.250,3.906,16.113,27.344,0
1490439041.753,131.836,222.168,127.441,136.230,44.434,0
1490439041.757,81.543,158.203,66.406,85.449,69.336,0
1490439041.761,54.199,144.043,44.922,66.895,54.199,0
1490439041.765,62.988,162.109,70.312,65.918,62.988,0
1490439041.769,21.973,174.316,53.711,24.414,70.801,0
1490439041.773,64.941,186.035,89.355,64.941,27.344,0
1490439041.777,35.645,125.488,29.785,36.133,16.113,0
1490439041.781,17.090,132.812,-3.418,28.320,35.645,0
1490439041.785,42.969,128.418,44.922,48.828,52.246,0
1490439041.788,89.844,160.645,82.520,92.285,38.574,0
1490439041.792,77.148,155.273,50.293,90.332,0.977,0
1490439041.796,35.156,104.980,34.180,49.316,14.160,0
1490439041.800,20.508,136.719,23.438,25.879,52.734,0
1490439041.804,-0.488,120.117,-2.930,-0.977,45.898,0
1490439041.808,32.227,73.730,48.340,51.270,13.672,0
1490439041.812,95.703,138.672,91.797,95.215,37.109,0
1490439041.816,114.746,148.926,91.309,105.469,54.688,0
1490439041.820,46.387,94.238,54.199,53.223,28.809,0
1490439041.824,27.344,97.656,20.508,38.574,37.598,0
1490439041.828,42.969,103.027,16.602,61.523,16.602,0
1490439041.831,26.367,72.266,-0.977,25.879,24.902,0
1490439041.835,37.598,44.434,7.324,35.156,17.578,0
1490439041.839,41.016,113.770,28.809,51.270,5.371,0
1490439041.843,-33.203,70.801,-10.254,-38.574,64.941,0
1490439041.847,1.953,69.824,4.395,-14.648,73.730,0
1490439041.851,90.820,114.258,82.031,85.938,44.922,0
1490439041.855,110.352,83.984,83.496,112.305,33.203,0
1490439041.859,68.848,70.312,28.320,79.590,65.430,0
1490439041.863,36.133,69.824,37.598,37.598,63.477,0
1490439041.867,8.301,71.289,7.324,-24.414,51.758,0
1490439041.870,11.230,55.176,-11.719,-15.137,50.781,0
1490439041.874,31.250,46.875,0.977,30.273,19.531,0
1490439041.878,36.621,49.316,8.301,32.227,-1.465,0
1490439041.882,24.414,82.031,29.785,16.602,-7.324,0
1490439041.886,36.133,76.172,51.758,26.367,16.113,0
1490439041.890,88.867,65.918,61.035,85.938,38.086,0
1490439041.894,51.270,91.309,18.066,66.895,41.016,0
1490439041.898,-15.137,60.547,-4.883,5.859,32.227,0
1490439041.902,0.488,25.879,22.949,2.441,20.508,0
1490439041.906,68.359,62.500,71.777,57.617,50.781,0
1490439041.910,76.172,70.312,59.570,70.312,32.715,0
1490439041.913,39.551,50.293,15.137,40.527,-39.062,0
1490439041.917,61.035,53.223,45.898,73.730,-6.836,0
1490439041.921,73.242,46.875,61.035,111.328,26.855,0
1490439041.925,67.383,74.707,66.406,97.656,-31.250,0
1490439041.929,48.828,49.316,53.223,43.945,-34.180,0
1490439041.933,9.766,14.160,2.930,15.137,20.508,0
1490439041.937,24.902,47.363,42.480,60.547,22.461,0
1490439041.941,-0.977,53.223,33.691,41.504,-28.809,0
1490439041.945,4.883,50.293,2.441,23.926,-6.836,0
1490439041.949,59.570,62.500,65.918,54.199,49.805,0
1490439041.953,72.266,77.637,69.336,67.383,38.086,0
1490439041.956,10.254,47.363,-6.348,20.020,33.691,0
1490439041.960,-18.555,50.293,29.785,0.000,29.297,0
1490439041.964,37.109,75.195,58.105,44.434,22.461,0
1490439041.968,71.777,96.680,49.316,74.219,37.598,0
1490439041.972,17.090,26.367,35.645,31.250,-3.906,0
1490439041.976,70.801,-1.953,75.195,89.355,9.277,0
1490439041.980,107.910,54.688,77.148,108.887,59.082,0
1490439041.984,15.625,58.594,1.465,9.766,48.828,0
1490439041.988,-53.711,59.082,-47.363,-55.664,40.527,0
1490439041.992,3.418,51.270,-4.395,-1.953,38.574,0
1490439041.995,107.910,69.336,110.840,106.934,59.082,0
1490439041.999,131.348,86.914,148.438,133.301,42.969,0
1490439042.003,73.730,30.273,66.895,72.754,13.184,0
1490439042.007,33.691,52.246,26.367,46.387,5.859,0
1490439042.011,-0.977,50.293,9.766,16.602,19.043,0
1490439042.015,-60.059,47.363,-83.008,-59.570,-0.977,0
1490439042.019,28.320,92.773,2.930,21.484,-25.391,0
1490439042.023,68.848,59.082,77.148,58.594,5.859,0
1490439042.027,26.367,-3.418,28.320,19.043,33.203,0
1490439042.031,45.898,20.508,51.270,61.523,33.203,0
1490439042.035,94.727,105.469,110.840,123.047,19.043,0
1490439042.038,41.016,59.082,53.223,62.500,39.062,0
1490439042.042,-19.043,0.488,-16.113,-4.883,20.508,0
1490439042.046,25.391,13.672,28.809,35.156,29.785,0
1490439042.050,125.977,90.820,96.680,123.535,47.852,0
1490439042.054,115.723,106.445,102.539,122.070,46.875,0
1490439042.058,32.227,21.973,71.289,47.363,21.973,0
1490439042.062,-2.441,4.883,36.621,17.090,32.227,0
1490439042.066,-57.129,45.410,-28.809,-39.551,45.898,0
1490439042.070,27.832,62.500,31.250,62.012,22.949,0
1490439042.074,116.211,58.594,92.285,158.691,10.742,0
1490439042.078,60.059,45.410,63.965,78.125,-25.879,0
1490439042.081,49.805,18.555,57.617,65.430,18.555,0
1490439042.085,69.824,49.805,94.727,103.516,79.102,0
1490439042.089,45.898,53.223,90.820,74.707,54.688,0
1490439042.093,39.551,36.133,34.668,50.293,51.270,0
1490439042.097,46.875,20.020,32.227,60.547,54.688,0
1490439042.101,-19.531,17.578,-27.832,5.371,55.176,0
1490439042.105,-41.016,25.879,-20.996,3.418,29.297,0
1490439042.109,95.215,85.449,128.906,136.230,-7.812,0
1490439042.113,155.273,105.957,161.621,179.688,7.324,0
1490439042.117,63.965,33.203,86.426,97.168,48.340,0
1490439042.120,15.137,24.902,52.246,45.898,10.742,0
1490439042.124,17.090,41.504,55.176,40.039,-16.602,0
1490439042.128,-50.781,-17.578,-26.367,-24.902,23.438,0
1490439042.132,1.465,0.000,-5.859,17.090,43.945,0
1490439042.136,62.988,75.195,43.457,88.867,43.457,0
1490439042.140,39.062,98.633,48.340,80.566,29.785,0
1490439042.144,16.602,57.129,97.656,62.988,30.273,0
1490439042.148,-8.301,29.297,39.062,53.223,53.223,0
1490439042.152,-2.441,12.207,6.836,32.715,56.152,0
1490439042.156,38.574,33.691,82.520,69.336,26.367,0
1490439042.160,31.250,49.805,77.637,73.242,17.578,0
1490439042.163,60.059,74.707,79.102,99.121,37.598,0
1490439042.167,18.066,29.297,34.668,62.988,30.762,0
1490439042.171,-3.418,-3.906,23.438,35.645,30.273,0
1490439042.175,55.664,61.035,60.547,82.520,50.293,0
1490439042.179,105.469,58.105,104.492,138.184,25.391,0
1490439042.183,88.867,9.766,88.867,136.230,13.672,0
1490439042.187,32.715,45.898,41.504,72.266,43.945,0
1490439042.191,-49.805,-3.906,-39.062,-16.602,31.738,0
1490439042.195,8.789,-5.371,18.555,42.480,12.695,0
1490439042.199,76.172,63.965,80.566,113.770,32.715,0
1490439042.203,38.574,50.781,44.922,85.938,33.203,0
1490439042.206,25.391,21.973,53.223,61.035,49.316,0
1490439042.210,15.625,40.527,32.227,45.410,34.180,0
1490439042.214,89.355,66.406,91.797,110.352,18.066,0
1490439042.218,54.199,30.273,53.711,76.172,50.781,0
1490439042.222,6.348,15.137,1.465,31.250,53.223,0
1490439042.226,100.098,115.723,76.660,113.281,17.578,0
1490439042.230,33.691,86.914,49.805,70.312,20.508,0
1490439042.234,-10.254,11.719,47.852,36.621,35.156,0
1490439042.238,51.270,12.207,68.848,66.895,20.996,0
1490439042.242,51.270,30.273,55.664,70.312,31.738,0
1490439042.245,41.504,46.387,64.453,66.895,23.926,0
1490439042.249,18.555,41.016,45.898,37.109,15.625,0
1490439042.253,-4.395,-34.668,22.461,28.320,22.461,0
1490439042.257,66.406,23.926,90.332,111.816,-2.441,0
1490439042.261,58.594,87.891,91.797,99.609,3.418,0
1490439042.265,16.602,59.570,47.363,63.965,50.293,0
1490439042.269,-0.977,62.500,9.277,39.062,49.805,0
1490439042.273,-26.855,8.301,24.414,9.766,21.973,0
1490439042.277,-15.137,-8.301,60.059,27.344,28.809,0
1490439042.281,23.926,22.461,61.035,53.711,47.852,0
1490439042.285,24.902,19.043,70.312,62.988,12.207,0
1490439042.288,-23.438,-12.207,8.789,24.414,22.949,0
1490439042.292,6.348,-4.395,24.414,53.223,32.227,0
1490439042.296,62.012,57.617,83.496,107.910,14.648,0
1490439042.300,93.750,139.160,140.137,144.043,43.945,0
1490439042.304,39.551,104.492,79.102,80.566,22.461,0
1490439042.308,-13.184,27.832,-6.836,14.648,6.348,0
1490439042.312,-12.207,-20.020,-7.324,-2.930,34.180,0
1490439042.316,-0.488,-25.879,15.137,-6.348,27.832,0
1490439042.320,-28.320,-53.223,-9.277,-23.438,37.109,0
1490439042.324,20.996,39.062,60.547,29.785,46.387,0
1490439042.328,60.059,58.594,82.520,64.941,25.879,0
1490439042.331,63.477,62.500,49.805,72.754,34.668,0
1490439042.335,125.977,148.438,141.602,145.996,29.297,0
1490439042.339,48.340,59.570,84.473,93.750,16.602,0
1490439042.343,-29.785,18.066,8.789,6.836,7.812,0
1490439042.347,-75.684,-12.695,-26.367,-51.270,-27.832,0
1490439042.351,-45.898,-9.277,-5.371,-4.395,-4.395,0
1490439042.355,41.992,23.926,79.102,76.172,47.852,0
1490439042.359,45.898,12.207,77.637,74.219,44.922,0
1490439042.363,72.266,55.176,101.074,110.840,38.574,0
1490439042.367,81.055,83.496,96.191,125.000,46.387,0
1490439042.370,43.945,46.875,45.898,69.824,61.523,0
1490439042.374,34.180,29.785,45.898,61.523,51.758,0
1490439042.378,-0.488,4.883,17.090,33.691,41.016,0
1490439042.382,-84.961,-32.715,-76.660,-64.941,48.828,0
1490439042.386,-20.508,29.785,-9.766,2.930,32.227,0
1490439042.390,75.195,19.043,89.844,94.727,8.301,0
1490439042.394,45.898,8.301,90.332,73.242,-7.812,0
1490439042.398,47.852,88.867,119.141,100.098,12.207,0
1490439042.402,65.918,75.684,108.887,102.051,35.156,0
1490439042.406,-16.602,-5.371,-5.859,-8.789,19.043,0
1490439042.410,-11.230,19.531,-11.230,-16.113,6.836,0
1490439042.413,34.180,36.621,47.363,41.992,41.016,0
1490439042.417,19.043,-7.324,20.996,52.734,40.039,0
1490439042.421,43.945,57.129,74.707,80.078,-12.695,0
1490439042.425,72.266,126.465,131.836,109.375,5.859,0
1490439042.429,51.758,83.008,67.871,89.844,67.871,0
1490439042.433,-14.160,-48.828,2.441,26.367,49.316,0
1490439042.437,1.465,-22.461,24.902,41.992,25.391,0
1490439042.441,38.574,63.477,70.312,70.312,56.152,0
1490439042.445,-2.930,42.969,81.055,39.062,32.227,0
1490439042.449,-46.387,2.441,24.414,-1.465,14.160,0
1490439042.453,-99.121,-17.090,-64.453,-56.152,4.883,0
1490439042.456,-109.375,5.859,-60.059,-69.824,6.836,0
1490439042.460,-9.766,19.531,73.730,22.949,47.363,0
1490439042.464,10.742,7.324,90.332,38.086,52.246,0
1490439042.468,-24.414,2.930,4.883,-10.742,65.918,0
1490439042.472,-18.555,17.578,39.062,-0.488,82.031,0
1490439042.476,-29.297,57.617,91.797,8.789,51.270,0
1490439042.480,-66.895,41.016,32.227,-39.551,38.574,0
1490439042.484,-89.844,-53.223,-42.480,-73.730,26.855,0
1490439042.488,-70.801,-40.527,-14.648,-58.105,8.301,0
1490439042.492,-48.340,73.730,10.254,-18.066,7.324,0
1490439042.495,-16.113,69.824,47.852,25.879,-3.906,0
1490439042.499,-33.203,19.043,85.449,-4.883,1.953,0
1490439042.503,-66.406,29.785,46.387,-47.363,46.875,0
1490439042.507,-52.246,-4.883,19.043,-24.902,57.617,0
1490439042.511,-15.137,8.301,62.500,35.645,12.207,0
1490439042.515,-58.594,24.414,29.785,-19.043,6.836,0
1490439042.519,-104.492,-29.785,-34.180,-84.473,24.902,0
1490439042.523,-46.875,-15.137,11.230,-19.043,18.066,0
1490439042.527,28.809,21.484,97.656,59.570,43.457,0
1490439042.531,6.836,40.527,89.844,37.109,28.809,0
1490439042.535,-55.664,53.223,15.137,-9.766,13.672,0
1490439042.538,-60.547,22.461,-11.230,-0.488,33.203,0
1490439042.542,-26.367,22.461,38.574,28.809,24.902,0
1490439042.546,6.836,35.156,75.684,41.016,55.176,0
1490439042.550,32.227,52.734,98.633,67.383,76.172,0
1490439042.554,-13.184,35.156,51.270,28.320,23.438,0
1490439042.558,-87.402,-51.270,-37.109,-68.359,-2.441,0
1490439042.562,16.113,33.203,45.898,15.137,18.555,0
1490439042.566,89.355,101.562,108.887,97.168,30.273,0
1490439042.570,24.414,40.039,39.551,47.363,25.879,0
1490439042.574,-7.324,15.625,20.020,28.320,19.531,0
1490439042.578,36.133,51.270,87.402,65.918,39.551,0
1490439042.581,12.695,-1.465,23.438,42.969,30.273,0
1490439042.585,-19.531,19.043,-11.719,6.348,-10.254,0
1490439042.589,-12.695,92.285,14.648,6.348,-24.414,0
1490439042.593,72.754,101.074,68.848,98.633,16.113,0
1490439042.597,98.145,59.082,112.793,130.859,41.992,0
1490439042.601,31.250,40.039,74.219,68.848,29.297,0
1490439042.605,76.660,19.043,92.773,98.633,14.160,0
1490439042.609,83.984,29.785,84.473,93.750,50.781,0
1490439042.613,9.766,36.621,-6.348,26.367,59.082,0
1490439042.617,5.859,22.461,-49.316,29.297,5.859,0
1490439042.620,69.336,87.891,59.082,113.770,5.371,0
1490439042.624,68.848,13.184,110.352,117.188,45.410,0
1490439042.628,63.965,-11.719,60.547,104.004,36.621,0
1490439042.632,90.820,76.660,65.918,113.770,10.254,0
1490439042.636,95.703,73.242,99.609,120.605,24.902,0
1490439042.640,83.984,107.910,99.121,130.859,38.086,0
1490439042.644,103.027,98.145,92.773,129.883,19.043,0
1490439042.648,12.695,6.836,-13.184,22.949,24.414,0
1490439042.652,16.602,8.789,1.465,32.715,52.246,0
1490439042.656,71.289,39.062,64.453,73.242,33.691,0
1490439042.660,51.758,67.871,32.227,64.941,28.809,0
1490439042.663,56.641,62.500,60.059,89.355,46.387,0
1490439042.667,76.172,57.617,76.660,90.332,47.852,0
1490439042.671,122.559,100.098,109.863,128.418,21.484,0
1490439042.675,109.375,80.078,75.195,128.418,-24.902,0
1490439042.679,29.297,42.480,-19.531,49.316,-35.645,0
1490439042.683,7.324,25.879,-31.738,34.180,8.301,0
1490439042.687,79.102,38.574,54.688,110.840,40.527,0
1490439042.691,109.863,83.008,131.348,129.395,21.973,0
1490439042.695,104.004,119.629,117.188,113.770,38.086,0
1490439042.699,52.734,27.344,33.691,60.059,42.480,0
1490439042.703,43.945,1.465,-5.859,61.035,20.020,0
1490439042.706,66.406,82.031,16.602,93.750,26.855,0
1490439042.710,112.793,58.105,80.078,140.137,10.254,0
1490439042.714,91.797,-6.348,60.059,101.562,20.996,0
1490439042.718,22.949,38.086,-11.230,12.695,16.113,0
1490439042.722,85.449,128.418,33.691,79.590,-20.020,0
1490439042.726,103.516,101.562,83.008,126.465,5.371,0
1490439042.730,91.797,55.176,96.191,126.953,35.156,0
1490439042.734,64.453,44.434,62.012,87.402,24.902,0
1490439042.738,53.223,24.414,36.133,58.105,11.230,0
1490439042.742,53.711,-13.672,29.785,64.941,14.648,0
1490439042.745,58.594,64.453,20.996,81.543,18.555,0
1490439042.749,89.844,140.137,73.730,84.961,33.203,0
1490439042.753,83.984,64.453,99.609,66.406,43.457,0
1490439042.757,92.285,44.922,80.566,92.285,39.551,0
1490439042.761,59.570,22.461,20.020,68.848,30.762,0
1490439042.765,-12.207,-19.531,-41.992,-3.906,26.855,0
1490439042.769,-28.809,-38.574,-46.387,-9.277,18.555,0
1490439042.773,19.043,11.719,15.137,29.785,34.668,0
1490439042.777,47.852,121.582,72.266,59.570,49.805,0
1490439042.781,5.859,40.039,20.020,34.668,30.762,0
1490439042.785,-51.758,-105.957,-68.848,-26.367,30.273,0
1490439042.788,6.836,-3.418,-20.508,40.527,33.203,0
1490439042.792,35.645,36.133,38.574,60.547,21.484,0
1490439042.796,-17.578,-18.555,-6.836,-12.695,6.348,0
1490439042.800,-1.465,12.695,2.441,17.578,26.367,0
1490439042.804,6.836,-4.395,14.648,42.480,59.570,0
1490439042.808,-43.457,-16.113,-35.645,-16.113,56.152,0
1490439042.812,-75.195,-55.176,-79.102,-49.805,16.113,0
1490439042.816,-41.016,-80.078,-50.293,-12.207,-5.371,0
1490439042.820,-29.297,-40.527,-20.020,7.324,32.715,0
1490439042.824,-29.297,7.812,-21.973,11.230,47.852,0
1490439042.828,-73.730,-48.828,-94.727,-44.922,-20.996,0
1490439042.831,-72.266,-59.082,-79.590,-67.871,6.836,0
1490439042.835,52.246,24.902,80.078,59.570,52.734,0
1490439042.839,93.750,43.945,123.047,117.188,11.230,0
1490439042.843,28.809,24.414,20.996,67.871,26.855,0
1490439042.847,-54.688,-8.789,-48.828,-20.996,27.344,0
1490439042.851,-40.039,-22.461,-28.320,-33.203,29.785,0
1490439042.855,-43.945,-29.297,-69.336,-32.715,29.297,0
1490439042.859,-63.965,-27.832,-80.566,-43.457,-1.465,0
1490439042.863,8.301,27.832,37.598,13.184,38.086,0
1490439042.867,18.066,32.715,28.320,31.738,64.453,0
1490439042.870,52.734,65.430,17.090,69.824,29.297,0
1490439042.874,50.781,46.387,67.383,48.340,12.207,0
1490439042.878,18.066,15.137,47.852,5.859,44.434,0
1490439042.882,-18.066,2.930,-41.992,-26.855,60.059,0
1490439042.886,-74.707,-43.457,-92.773,-74.707,41.504,0
1490439042.890,30.273,29.297,38.086,37.598,31.738,0
1490439042.894,46.875,45.898,83.984,81.055,43.945,0
1490439042.898,67.871,44.922,92.285,103.027,36.621,0
1490439042.902,27.344,44.922,24.902,56.152,22.461,0
1490439042.906,-98.633,-27.832,-83.496,-65.918,-16.602,0
1490439042.910,-61.035,-0.488,-42.969,-41.504,-12.695,0
1490439042.913,-20.020,16.602,11.719,-0.488,22.949,0
1490439042.917,7.812,18.066,41.016,20.020,-19.043,0
1490439042.921,35.645,16.602,46.875,53.711,-27.832,0
1490439042.925,51.270,11.719,59.082,70.801,17.578,0
1490439042.929,26.367,56.641,5.371,27.344,15.625,0
1490439042.933,31.250,39.062,13.184,50.293,1.465,0
1490439042.937,123.047,77.637,115.723,159.180,41.992,0
1490439042.941,41.016,22.949,51.758,80.566,57.129,0
1490439042.945,-83.008,11.719,-41.016,-43.945,34.668,0
1490439042.949,-35.645,63.965,-15.625,-2.930,21.973,0
1490439042.953,37.109,23.438,45.410,79.102,47.363,0
1490439042.956,37.598,36.133,59.570,70.312,35.156,0
1490439042.960,32.715,20.020,43.457,31.738,15.625,0
1490439042.964,20.508,20.020,0.977,20.508,3.418,0
1490439042.968,12.695,27.832,0.977,29.297,10.254,0
1490439042.972,71.777,55.664,67.383,88.379,39.062,0
1490439042.976,56.641,35.156,23.926,71.777,7.324,0
1490439042.980,13.672,14.160,-7.324,36.621,15.137,0
1490439042.984,56.641,40.527,51.270,71.777,25.879,0
1490439042.988,65.918,47.363,45.898,64.453,17.578,0
1490439042.992,-39.062,15.625,-45.410,-33.203,39.551,0
1490439042.995,-54.199,10.742,-11.719,-37.109,40.527,0
1490439042.999,70.801,57.617,91.309,83.984,44.922,0
1490439043.003,37.109,4.883,56.152,54.688,36.133,0
1490439043.007,-33.203,-15.625,-34.668,-25.391,-23.438,0
1490439043.011,34.180,20.020,11.230,25.391,18.066,0
1490439043.015,63.477,44.922,90.820,80.566,67.871,0
1490439043.019,20.508,37.109,22.949,48.340,31.738,0
1490439043.023,-41.016,-46.387,-51.758,-37.109,33.691,0
1490439043.027,5.859,14.648,1.465,7.324,63.477,0
1490439043.031,2.441,33.203,-1.465,16.113,59.082,0
1490439043.035,-55.664,-2.930,-52.246,-33.203,28.320,0
1490439043.038,14.648,46.875,10.254,42.480,1.953,0
1490439043.042,37.109,75.684,61.035,69.336,47.363,0
1490439043.046,36.133,52.734,61.523,74.707,80.566,0
1490439043.050,67.871,58.105,86.914,94.238,45.410,0
1490439043.054,11.719,18.555,39.551,31.250,22.949,0
1490439043.058,-72.754,-48.828,-41.504,-50.293,30.273,0
1490439043.062,-14.648,-12.695,-5.371,6.836,55.664,0
1490439043.066,36.621,52.734,45.898,63.965,35.156,0
1490439043.070,25.879,40.527,34.668,63.477,20.020,0
1490439043.074,68.359,34.668,46.875,92.773,41.992,0
1490439043.078,-29.785,-13.672,-9.277,5.859,41.504,0
1490439043.081,-86.914,-15.625,-45.898,-28.809,40.039,0
1490439043.085,-22.461,48.340,-5.859,21.973,32.227,0
1490439043.089,9.277,40.527,34.668,28.320,36.133,0
1490439043.093,31.738,16.113,40.527,44.434,34.180,0
1490439043.097,77.637,49.316,75.195,85.449,37.598,0
1490439043.101,29.785,24.414,28.809,35.645,53.223,0
1490439043.105,-18.066,-28.809,-35.156,13.184,39.062,0
1490439043.109,14.160,11.230,53.711,60.059,41.992,0
1490439043.113,13.672,68.848,48.340,41.992,8.301,0
1490439043.117,-21.484,43.457,-20.996,-21.973,16.113,0
1490439043.120,-27.344,-24.902,-26.367,-24.902,32.715,0
1490439043.124,14.648,21.973,25.391,37.109,32.715,0
1490439043.128,32.715,56.152,48.340,40.527,30.762,0
1490439043.132,16.602,25.391,13.184,18.066,42.480,0
1490439043.136,34.180,29.785,19.531,52.734,59.570,0
1490439043.140,13.672,-10.742,-24.414,28.809,6.348,0
1490439043.144,2.930,17.090,-38.086,4.395,-5.859,0
1490439043.148,38.086,97.656,50.293,45.898,52.734,0
1490439043.152,28.320,52.734,37.109,35.156,45.898,0
1490439043.156,20.996,30.762,20.508,20.996,11.230,0
1490439043.160,30.762,59.570,19.043,33.203,46.387,0
1490439043.163,43.457,30.762,15.137,47.852,56.152,0
1490439043.167,7.324,-9.277,-27.832,11.719,48.828,0
1490439043.171,-0.977,0.000,-44.922,11.230,44.922,0
1490439043.175,74.707,60.059,47.363,102.051,26.367,0
1490439043.179,70.801,38.086,76.660,105.957,42.480,0
1490439043.183,33.691,-0.977,19.043,70.312,41.504,0
1490439043.187,17.090,64.453,-23.438,38.574,12.207,0
1490439043.191,40.527,75.684,49.805,54.199,9.766,0
1490439043.195,24.902,23.926,52.246,43.945,34.668,0
1490439043.199,-29.785,20.996,-21.973,0.000,42.480,0
1490439043.203,-58.105,-5.371,-53.223,-31.250,-9.766,0
1490439043.206,56.641,81.543,42.969,64.453,-6.836,0
1490439043.210,91.309,105.957,66.406,99.609,0.977,0
1490439043.214,-28.809,-16.113,-46.387,-19.531,-14.160,0
1490439043.218,-7.324,6.348,-18.555,6.348,32.227,0
1490439043.222,51.270,79.102,22.949,73.730,59.570,0
1490439043.226,26.855,87.891,-1.953,49.316,34.180,0
1490439043.230,-31.250,7.812,-21.973,5.371,18.555,0
1490439043.234,-35.156,-47.363,-11.230,-8.789,3.418,0
1490439043.238,-42.969,-26.855,-35.645,-36.621,-7.324,0
1490439043.242,-41.504,12.695,-59.082,-31.738,8.789,0
1490439043.245,-16.602,44.434,-4.395,7.812,-15.137,0
1490439043.249,0.000,-38.086,25.391,24.902,-24.414,0
1490439043.253,-1.465,-27.832,23.438,8.789,20.996,0
1490439043.257,-62.500,15.137,-36.621,-46.875,46.387,0
1490439043.261,-77.148,-13.672,-82.520,-60.059,57.129,0
1490439043.265,19.043,65.430,21.973,37.598,37.109,0
1490439043.269,77.148,119.141,78.125,105.957,14.648,0
1490439043.273,-11.230,49.316,4.883,13.184,19.043,0
1490439043.277,-10.254,7.324,26.855,13.184,26.855,0
1490439043.281,46.875,23.438,50.781,82.520,3.418,0
1490439043.285,-30.762,-33.691,-9.766,12.207,21.484,0
1490439043.288,-12.207,71.777,33.691,15.137,30.273,0
1490439043.292,56.641,107.910,94.727,72.754,6.348,0
1490439043.296,-10.742,2.930,14.648,-6.348,21.484,0
1490439043.300,-3.418,31.738,12.695,11.719,39.551,0
1490439043.304,66.895,98.145,78.613,108.887,38.574,0
1490439043.308,34.668,67.871,45.410,61.523,24.414,0
1490439043.312,-16.113,27.832,13.184,12.207,48.828,0
1490439043.316,22.949,24.902,26.367,57.617,78.125,0
1490439043.320,39.551,4.883,40.039,64.941,45.898,0
1490439043.324,-1.465,-0.977,21.484,22.461,8.789,0
1490439043.328,13.184,21.484,4.395,24.902,14.160,0
1490439043.331,18.066,51.758,14.648,27.832,38.086,0
1490439043.335,26.367,59.082,35.156,33.203,27.832,0
1490439043.339,42.480,44.922,35.645,33.691,-13.672,0
1490439043.343,21.484,13.672,1.953,1.465,10.742,0
1490439043.347,14.160,-5.859,-13.184,-4.883,60.547,0
1490439043.351,19.043,41.992,0.977,12.695,28.809,0
1490439043.355,40.039,0.000,23.438,41.016,15.625,0
1490439043.359,72.754,-47.852,21.484,69.824,41.504,0
1490439043.363,-25.391,42.480,-55.176,-14.160,45.898,0
1490439043.367,2.441,93.262,20.996,23.438,52.246,0
1490439043.370,71.777,95.703,95.215,78.125,43.457,0
1490439043.374,30.762,21.973,49.316,21.973,41.992,0
1490439043.378,19.531,-19.043,22.461,30.273,16.602,0
1490439043.382,7.812,-29.297,-5.371,35.156,-9.277,0
1490439043.386,-9.766,-16.602,-44.434,-0.488,-12.695,0
1490439043.390,20.508,43.457,-8.301,32.227,19.531,0
1490439043.394,101.562,109.863,138.184,139.160,59.570,0
1490439043.398,91.797,108.887,135.742,132.324,37.109,0
1490439043.402,0.000,32.715,-12.207,14.648,16.602,0
1490439043.406,19.043,31.250,17.578,18.066,20.508,0
1490439043.410,68.848,17.578,95.215,70.312,21.484,0
1490439043.413,0.977,-17.578,27.344,15.137,30.273,0
1490439043.417,-68.359,-23.438,-43.457,-62.988,38.086,0
1490439043.421,-19.043,28.320,0.000,-23.926,37.598,0
1490439043.425,-2.930,18.555,-7.812,1.953,21.973,0
1490439043.429,-10.742,-30.762,-23.926,9.766,-4.395,0
1490439043.433,50.293,83.496,44.922,78.125,33.691,0
1490439043.437,88.867,116.699,78.613,95.215,27.344,0
1490439043.441,85.938,37.109,92.285,78.613,9.277,0
1490439043.445,27.832,1.465,51.270,35.156,18.555,0
1490439043.449,-3.906,28.320,21.973,17.090,33.203,0
1490439043.453,-19.531,32.227,-4.395,11.719,43.457,0
1490439043.456,-0.977,9.766,12.207,20.020,23.926,0
1490439043.460,-10.254,-22.461,-10.742,6.836,12.695,0
1490439043.464,20.996,31.250,13.184,49.805,23.926,0
1490439043.468,111.328,114.258,108.887,134.766,26.855,0
1490439043.472,15.137,43.457,58.594,43.945,25.391,0
1490439043.476,-28.320,-4.883,13.184,-1.953,28.320,0
1490439043.480,37.109,-20.020,32.227,50.293,30.762,0
1490439043.484,-7.812,-43.945,-1.953,-1.465,41.016,0
1490439043.488,-45.410,-0.977,-49.805,-43.945,37.598,0
1490439043.492,-17.090,37.109,-15.625,-7.812,24.902,0
1490439043.495,-24.902,1.953,32.715,3.906,41.016,0
1490439043.499,-21.973,5.859,34.180,11.719,41.992,0
1490439043.503,-48.340,-30.273,-20.020,-23.926,27.344,0
1490439043.507,-115.234,-67.383,-64.941,-99.609,42.969,0
1490439043.511,-51.758,24.902,11.230,-55.664,21.484,0
1490439043.515,-37.598,-10.742,32.227,-35.156,11.230,0
1490439043.519,-62.500,-36.133,14.648,-35.645,29.785,0
1490439043.523,-52.734,18.066,15.137,-36.133,58.594,0
1490439043.527,-17.090,73.730,45.898,-14.648,75.684,0
1490439043.531,0.977,80.078,65.430,15.625,38.086,0
1490439043.535,-74.707,-24.902,12.207,-48.340,50.293,0
1490439043.538,-80.078,-8.301,5.859,-58.594,48.828,0
1490439043.542,-1.953,39.062,81.055,9.766,23.438,0
1490439043.546,-57.129,-7.812,30.273,-47.363,38.574,0
1490439043.550,-134.766,-30.273,-38.574,-118.164,24.414,0
1490439043.554,-103.027,3.906,4.883,-80.566,30.273,0
1490439043.558,-42.969,33.203,48.828,-34.180,23.926,0
1490439043.562,-17.090,-11.719,51.270,0.488,-2.441,0
1490439043.566,-29.297,9.766,20.020,-8.301,16.113,0
1490439043.570,-70.312,20.996,11.719,-63.965,33.691,0
1490439043.574,-123.047,6.348,-4.883,-116.699,29.785,0
1490439043.578,-148.926,-65.430,-26.367,-133.301,3.906,0
1490439043.581,-46.875,-3.906,51.270,-22.949,3.418,0
1490439043.585,-14.648,99.121,49.316,6.348,26.367,0
1490439043.589,-52.246,30.762,-12.207,-38.086,34.180,0
1490439043.593,-18.066,23.926,35.156,0.000,37.598,0
1490439043.597,-33.691,45.410,61.035,-20.020,25.391,0
1490439043.601,24.414,25.391,68.848,33.691,20.996,0
1490439043.605,98.145,72.266,164.551,127.441,25.879,0
1490439043.609,-63.965,34.180,42.969,-20.508,10.254,0
1490439043.613,-156.250,-20.020,-75.195,-119.141,2.930,0
1490439043.617,-35.645,28.809,44.434,4.883,25.879,0
1490439043.620,4.883,47.852,81.543,40.527,-4.883,0
1490439043.624,-9.766,39.062,48.828,33.203,-20.020,0
1490439043.628,3.418,46.875,29.297,50.293,23.438,0
1490439043.632,112.793,101.074,94.238,128.418,32.227,0
1490439043.636,77.148,78.125,62.012,88.867,22.949,0
1490439043.640,-75.684,19.531,-34.180,-67.383,-15.137,0
1490439043.644,-33.691,10.742,28.809,-38.574,-3.906,0
1490439043.648,41.016,-31.738,83.008,58.594,27.344,0
1490439043.652,35.156,-0.488,83.008,77.637,7.324,0
1490439043.656,-1.465,75.684,35.156,26.855,16.113,0
1490439043.660,-60.059,-35.156,-70.312,-51.270,41.016,0
1490439043.663,-37.598,-54.688,-40.039,-34.180,25.879,0
1490439043.667,-64.453,-8.789,-44.922,-51.758,10.742,0
1490439043.671,-97.168,-49.316,-90.332,-80.078,6.348,0
1490439043.675,-60.547,-85.938,-104.492,-61.035,11.719,0
1490439043.679,-53.223,-69.336,-93.262,-64.453,5.371,0
1490439043.683,-12.695,-23.438,-25.391,-7.812,6.836,0
1490439043.687,21.973,-17.578,-24.902,30.273,27.344,0
1490439043.691,0.000,-61.523,-65.918,-18.066,33.691,0
1490439043.695,10.254,-26.855,-41.992,-0.488,46.875,0
1490439043.699,28.320,35.156,7.812,36.621,41.504,0
1490439043.703,46.875,60.547,58.105,52.246,31.738,0
1490439043.706,66.406,81.543,81.543,79.102,55.176,0
1490439043.710,184.570,151.855,151.367,193.359,31.250,0
1490439043.714,208.984,121.094,150.879,222.168,13.184,0
1490439043.718,58.105,-16.602,19.531,64.941,38.086,0
1490439043.722,33.203,36.133,-10.742,20.996,32.227,0
1490439043.726,97.656,132.324,46.875,112.305,2.930,0
1490439043.730,145.996,114.258,84.473,180.176,-9.766,0
1490439043.734,100.586,48.828,79.102,141.113,32.715,0
1490439043.738,82.520,84.961,82.031,113.281,39.551,0
1490439043.742,61.035,64.453,30.273,77.148,10.254,0
1490439043.745,39.062,7.324,-12.207,44.434,7.812,0
1490439043.749,156.738,69.824,112.793,158.203,32.227,0
1490439043.753,132.812,83.984,86.426,141.113,36.621,0
1490439043.757,61.035,64.453,17.578,70.312,10.254,0
1490439043.761,89.844,76.172,76.172,97.168,32.227,0
1490439043.765,111.328,88.379,103.027,117.676,65.430,0
1490439043.769,96.191,71.777,62.012,105.469,42.969,0
1490439043.773,11.230,28.320,-48.828,11.230,24.902,0
1490439043.777,63.477,60.547,27.832,59.570,29.785,0
1490439043.781,76.660,16.113,62.012,81.055,21.484,0
1490439043.785,1.465,-1.465,-22.461,24.414,38.574,0
1490439043.788,24.902,62.988,-27.832,14.160,40.039,0
1490439043.792,56.641,58.594,-12.207,17.090,4.395,0
1490439043.796,56.641,27.344,-5.371,44.922,6.348,0
1490439043.800,56.641,11.719,10.742,46.875,11.230,0
1490439043.804,56.641,6.836,-1.465,42.969,12.695,0
1490439043.808,20.508,11.230,-34.180,22.461,18.555,0
1490439043.812,18.555,24.902,-1.953,22.949,39.062,0
1490439043.816,-15.137,27.344,-34.668,-19.043,19.531,0
1490439043.820,-15.625,41.016,-62.988,-29.785,6.348,0
1490439043.824,81.543,62.500,33.691,81.543,25.879,0
1490439043.828,71.777,39.062,60.059,84.961,33.203,0
1490439043.831,51.758,25.391,13.672,41.504,27.832,0
1490439043.835,75.684,20.508,1.953,59.082,15.625,0
1490439043.839,104.004,72.754,48.340,92.285,41.992,0
1490439043.843,77.637,50.781,19.043,62.012,27.344,0
1490439043.847,-33.691,-9.277,-79.102,-37.109,6.348,0
1490439043.851,-10.742,0.977,-55.176,-17.090,29.297,0
1490439043.855,64.941,63.477,16.602,51.270,32.715,0
1490439043.859,53.711,34.668,30.273,40.039,1.465,0
1490439043.863,77.148,28.809,76.660,79.590,-5.859,0
1490439043.867,103.027,78.125,90.820,106.934,41.504,0
1490439043.870,-4.395,-1.465,-69.336,-22.461,47.852,0
1490439043.874,19.043,33.203,-34.668,2.441,21.484,0
1490439043.878,76.172,51.270,43.457,73.242,49.805,0
1490439043.882,48.828,15.137,-18.066,33.203,58.594,0
1490439043.886,31.738,33.691,-19.043,19.043,20.996,0
1490439043.890,27.832,40.039,14.648,41.504,1.953,0
1490439043.894,30.273,30.273,-4.395,36.133,-2.930,0
1490439043.898,18.555,34.180,-37.109,10.254,22.461,0
1490439043.902,165.039,123.535,122.070,148.438,36.621,0
1490439043.906,185.059,95.215,165.527,177.734,4.883,0
1490439043.910,48.340,1.465,32.715,49.316,-1.953,0
1490439043.913,29.297,86.914,-0.488,29.785,22.461,0
1490439043.917,3.906,-3.418,-41.016,-6.348,41.504,0
1490439043.921,-8.301,-23.926,-76.660,-17.090,42.480,0
1490439043.925,43.945,60.059,12.207,34.180,26.855,0
1490439043.929,-9.766,-29.297,-17.090,-36.621,36.621,0
1490439043.933,-69.336,-94.727,-98.145,-88.867,55.664,0
1490439043.937,-47.852,-87.891,-67.871,-48.340,41.504,0
1490439043.941,-43.945,-35.156,-63.477,-43.945,34.180,0
1490439043.945,-13.672,-14.160,-42.480,-39.062,62.988,0
1490439043.949,-37.598,-29.297,-65.430,-43.945,59.570,0
1490439043.953,-90.332,-62.988,-125.000,-87.891,51.270,0
1490439043.956,16.602,16.113,-26.367,15.625,57.617,0
1490439043.960,66.406,58.105,54.688,83.496,27.832,0
1490439043.964,50.781,26.855,60.059,66.895,24.902,0
1490439043.968,42.969,2.930,27.344,58.594,35.156,0
1490439043.972,-63.477,-77.148,-67.383,-68.359,29.785,0
1490439043.976,-83.496,-43.945,-86.426,-76.172,47.852,0
1490439043.980,-46.875,-46.387,-43.457,-14.648,38.574,0
1490439043.984,-59.570,-58.105,-36.621,-51.270,4.395,0
1490439043.988,-33.203,6.836,-33.691,-22.949,12.695,0
1490439043.992,-6.836,26.855,-26.855,14.160,47.363,0
1490439043.995,21.973,17.578,12.207,26.855,19.531,0
1490439043.999,30.273,33.691,49.316,28.320,-20.508,0
1490439044.003,85.938,69.336,76.660,79.102,42.969,0
1490439044.007,131.348,106.934,90.332,118.164,59.082,0
1490439044.011,77.637,79.590,62.012,84.961,36.621,0
1490439044.015,79.590,42.969,44.434,96.191,41.504,0
1490439044.019,67.871,31.250,44.434,85.938,48.828,0
1490439044.023,49.805,79.590,68.359,68.848,52.734,0
1490439044.027,55.176,107.910,77.637,73.242,50.781,0
1490439044.031,75.684,81.543,102.539,98.145,28.320,0
1490439044.035,98.145,86.914,107.422,118.652,25.391,0
1490439044.038,114.746,85.449,117.188,119.629,35.645,0
1490439044.042,152.344,66.406,146.484,163.086,2.930,0
1490439044.046,27.832,8.789,-1.953,51.758,7.324,0
1490439044.050,-77.637,-26.855,-85.449,-62.500,33.203,0
1490439044.054,82.031,90.332,82.520,87.891,15.137,0
1490439044.058,162.109,130.371,118.652,166.504,1.953,0
1490439044.062,140.625,126.465,116.699,168.457,21.973,0
1490439044.066,44.434,68.848,72.754,65.430,65.430,0
1490439044.070,1.465,-8.301,-33.691,5.371,41.504,0
1490439044.074,61.035,64.453,3.906,66.406,-0.977,0
1490439044.078,46.875,76.660,61.523,58.594,22.949,0
1490439044.081,77.148,90.820,109.375,99.609,22.949,0
1490439044.085,106.445,97.656,121.094,129.395,25.879,0
1490439044.089,33.203,26.855,33.203,53.223,29.297,0
1490439044.093,31.738,24.902,32.715,36.133,19.043,0
1490439044.097,82.520,41.992,88.379,96.191,20.996,0
1490439044.101,80.078,-8.789,75.684,98.145,15.137,0
1490439044.105,122.559,37.598,95.215,118.652,6.836,0
1490439044.109,102.539,72.266,57.129,89.355,27.832,0
1490439044.113,0.488,56.641,-23.926,-3.418,4.883,0
1490439044.117,-6.348,35.156,-23.926,-0.977,15.137,0
1490439044.120,19.531,-5.859,7.812,39.551,21.484,0
1490439044.124,70.801,36.621,63.477,93.750,13.184,0
1490439044.128,53.711,19.531,59.570,62.988,29.297,0
1490439044.132,13.672,-14.648,37.598,28.320,-7.812,0
1490439044.136,35.645,7.324,23.438,38.574,18.555,0
1490439044.140,-8.301,-4.395,-40.039,-19.531,37.598,0
1490439044.144,47.363,37.598,27.832,20.508,23.438,0
1490439044.148,125.977,55.664,105.469,105.957,45.898,0
1490439044.152,110.352,30.762,76.660,118.652,64.941,0
1490439044.156,112.793,49.316,73.730,124.512,48.340,0
1490439044.160,56.152,33.691,34.180,63.477,15.625,0
1490439044.163,-2.441,-5.859,-37.109,-7.324,0.977,0
1490439044.167,-20.020,-32.715,-61.035,-32.715,26.855,0
1490439044.171,-55.176,-82.031,-102.051,-64.941,25.391,0
1490439044.175,-70.801,-86.914,-104.980,-84.473,4.883,0
1490439044.179,-38.574,-42.969,-50.293,-51.758,30.762,0
1490439044.183,-33.691,-97.656,-40.527,-41.016,32.227,0
1490439044.187,-60.547,-115.723,-57.617,-68.848,33.691,0
1490439044.191,-95.215,-112.305,-111.328,-119.629,50.293,0
1490439044.195,-328.613,-416.016,-382.324,-359.863,13.184,0
1490439044.199,-602.051,-657.227,-663.574,-634.277,28.320,0
1490439044.203,-696.289,-727.539,-764.648,-739.746,39.062,0
1490439044.206,-763.184,-836.914,-849.609,-808.594,29.297,0
1490439044.210,-793.457,-874.512,-869.629,-835.449,20.996,0
1490439044.214,-790.527,-849.609,-859.375,-828.613,34.668,0
1490439044.218,-760.254,-793.457,-802.246,-796.875,44.922,0
1490439044.222,-666.504,-710.938,-733.887,-701.660,-2.930,0
1490439044.226,-641.113,-696.777,-701.172,-668.945,-11.230,0
1490439044.230,-614.746,-736.816,-645.996,-646.484,28.320,0
1490439044.234,-559.082,-696.289,-608.398,-585.938,37.598,0
1490439044.238,-574.219,-624.512,-605.469,-592.285,11.719,0
1490439044.242,-590.820,-600.586,-608.887,-612.305,23.438,0
1490439044.245,-590.332,-635.254,-618.164,-615.234,27.344,0
1490439044.249,-527.832,-588.867,-560.547,-552.246,2.930,0
1490439044.253,-502.930,-590.332,-537.109,-527.344,0.977,0
1490439044.257,-535.645,-597.168,-585.938,-566.895,36.621,0
1490439044.261,-398.438,-483.887,-496.094,-437.012,35.645,0
1490439044.265,-331.055,-461.914,-397.949,-367.676,13.672,0
1490439044.269,-458.984,-506.348,-454.102,-480.957,25.879,0
1490439044.273,-451.172,-436.035,-454.590,-469.727,35.156,0
1490439044.277,-372.070,-408.203,-412.109,-393.555,45.410,0
1490439044.281,-346.191,-397.949,-375.977,-360.840,26.855,0
1490439044.285,-291.016,-348.633,-291.016,-312.500,-2.930,0
1490439044.288,-291.992,-359.375,-287.598,-316.406,7.812,0
1490439044.292,-323.730,-349.609,-338.379,-340.820,-9.277,0
1490439044.296,-275.391,-280.273,-322.754,-312.012,-18.555,0
1490439044.300,-206.543,-261.230,-250.977,-252.441,39.551,0
1490439044.304,-179.199,-270.508,-220.215,-214.355,70.801,0
1490439044.308,-181.641,-233.887,-218.262,-201.660,52.246,0
1490439044.312,-167.480,-205.078,-189.941,-174.316,13.672,0
1490439044.316,-196.777,-179.199,-213.867,-196.777,6.836,0
1490439044.320,-192.383,-223.145,-221.191,-193.359,41.016,0
1490439044.324,-68.359,-207.520,-72.266,-84.473,66.406,0
1490439044.328,-97.168,-176.270,-105.469,-109.375,26.367,0
1490439044.331,-194.824,-198.242,-227.539,-194.824,20.996,0
1490439044.335,-122.070,-180.664,-157.227,-134.277,52.246,0
1490439044.339,-93.750,-141.113,-108.398,-110.840,51.758,0
1490439044.343,-131.348,-110.840,-120.605,-146.484,-12.207,0
1490439044.347,-100.586,-95.215,-88.379,-111.328,14.160,0
1490439044.351,-122.070,-148.438,-117.188,-125.977,59.570,0
1490439044.355,-106.445,-142.090,-126.465,-116.211,13.672,0
1490439044.359,-45.410,-99.121,-54.199,-50.293,1.953,0
1490439044.363,-32.715,-91.797,-59.082,-35.156,42.480,0
1490439044.367,-79.102,-141.602,-143.066,-109.863,54.688,0
1490439044.370,-101.562,-181.641,-119.141,-139.160,8.301,0
1490439044.374,-36.621,-56.152,-34.180,-66.895,6.836,0
1490439044.378,6.836,-34.180,-9.766,-29.297,16.113,0
1490439044.382,-9.277,-86.914,-49.805,-41.016,36.133,0
1490439044.386,-49.805,-43.457,-80.078,-72.754,61.523,0
1490439044.390,-27.832,-10.254,-39.551,-38.574,62.988,0
1490439044.394,-8.789,-43.945,-26.855,2.441,67.871,0
1490439044.398,-40.527,-86.914,-52.734,-41.504,33.691,0
1490439044.402,-20.508,-74.219,-38.086,-50.781,12.207,0
1490439044.406,26.855,-0.488,36.133,15.625,25.391,0
1490439044.410,-25.879,-64.941,-34.668,-34.180,24.414,0
1490439044.413,-29.785,-91.309,-82.520,-44.922,16.602,0
1490439044.417,62.988,34.180,3.906,49.316,16.113,0
1490439044.421,29.785,37.109,5.859,26.367,35.645,0
1490439044.425,17.090,0.488,12.207,18.066,40.527,0
1490439044.429,-20.996,-30.762,-22.949,-17.578,24.414,0
1490439044.433,-13.672,-25.391,-11.719,-20.508,23.926,0
1490439044.437,58.105,-15.625,62.012,46.875,24.414,0
1490439044.441,-8.789,-17.578,4.883,2.930,33.203,0
1490439044.445,-27.344,4.883,-31.250,-29.785,38.086,0
1490439044.449,37.109,43.457,32.227,30.273,19.531,0
1490439044.453,13.672,43.945,40.527,34.668,25.391,0
1490439044.456,-0.488,30.273,23.926,19.043,59.570,0
1490439044.460,-2.930,3.906,12.695,16.113,47.363,0
1490439044.464,-10.742,-38.574,-9.766,2.930,14.160,0
1490439044.468,29.297,-34.668,33.691,39.551,30.273,0
1490439044.472,31.738,26.367,51.270,27.832,62.012,0
1490439044.476,-23.438,37.109,-15.625,-31.738,47.852,0
1490439044.480,-14.160,35.156,-19.531,-9.766,44.922,0
1490439044.484,49.805,73.242,44.922,53.711,52.734,0
1490439044.488,1.465,11.230,28.809,9.766,33.203,0
1490439044.492,-16.602,-68.359,-7.324,-23.438,38.574,0
1490439044.495,53.711,12.207,65.430,45.898,32.715,0
1490439044.499,62.988,100.098,82.031,67.383,6.836,0
1490439044.503,72.754,51.758,82.031,78.125,20.508,0
1490439044.507,10.742,-6.348,43.945,31.250,16.113,0
1490439044.511,-37.598,-16.602,1.465,-7.324,11.719,0
1490439044.515,15.625,44.434,53.223,36.621,43.457,0
1490439044.519,3.418,31.738,2.441,10.254,29.297,0
1490439044.523,-30.273,-19.531,-56.152,-36.133,23.926,0
1490439044.527,17.578,15.137,48.828,14.160,28.809,0
1490439044.531,46.875,50.781,50.293,42.969,25.391,0
1490439044.535,50.293,46.387,19.531,44.434,16.602,0
1490439044.538,50.293,73.242,63.477,51.270,16.113,0
1490439044.542,40.527,74.707,61.035,42.969,28.320,0
1490439044.546,38.086,35.156,65.918,48.828,46.875,0
1490439044.550,15.625,19.531,16.602,36.621,25.391,0
1490439044.554,34.668,45.410,40.527,54.199,-4.395,0
1490439044.558,22.461,45.410,48.340,39.551,9.766,0
1490439044.562,31.250,51.270,22.461,25.879,36.621,0
1490439044.566,67.383,38.086,66.406,55.664,43.945,0
1490439044.570,14.648,4.395,23.438,21.484,32.715,0
1490439044.574,21.973,15.137,43.945,37.598,36.621,0
1490439044.578,20.996,4.395,22.461,30.273,42.480,0
1490439044.581,58.105,60.547,22.949,54.199,31.250,0
1490439044.585,104.980,77.637,102.539,104.004,6.836,0
1490439044.589,60.059,54.688,33.691,53.711,33.203,0
1490439044.593,0.977,-1.465,-17.090,2.930,69.336,0
1490439044.597,40.527,41.504,68.359,61.035,25.391,0
1490439044.601,101.562,125.977,111.816,126.953,15.137,0
1490439044.605,76.172,42.969,87.402,87.402,28.320,0
1490439044.609,17.090,1.953,19.531,2.441,10.742,0
1490439044.613,-11.719,24.414,-22.949,-35.156,-0.977,0
1490439044.617,41.016,66.406,28.320,24.414,23.438,0
1490439044.620,75.684,46.875,46.387,74.219,14.648,0
1490439044.624,38.086,62.012,18.555,33.203,0.000,0
1490439044.628,49.805,90.820,57.617,35.645,31.738,0
1490439044.632,41.016,80.078,82.520,45.898,63.477,0
