timestamps,TP9,AF7,AF8,TP10,Right AUX,Marker0
1490430778.091,10.254,-34.180,28.320,106.934,-126.465,0
1490430778.094,71.289,-54.199,23.438,99.121,-97.168,0
1490430778.098,-31.738,-17.578,-69.336,-41.992,-111.328,0
1490430778.102,-70.801,6.348,-33.691,-6.348,-115.723,0
1490430778.106,-62.012,-57.129,-6.348,19.531,-124.023,0
1490430778.110,-57.617,-29.297,14.648,15.625,-157.715,0
1490430778.114,-48.340,49.316,57.617,45.898,-166.992,0
1490430778.118,-68.359,48.340,-55.664,13.672,-189.453,0
1490430778.122,-47.852,-13.184,-98.145,-2.930,-186.523,0
1490430778.126,-15.625,-72.266,0.488,-5.859,-131.348,0
1490430778.130,16.113,-104.492,12.695,21.484,-122.070,0
1490430778.133,71.289,-73.730,44.434,98.633,-173.828,0
1490430778.137,9.766,-65.430,27.832,70.801,-178.223,0
1490430778.141,-14.648,-12.207,26.855,17.578,-179.688,0
1490430778.145,0.488,61.523,-27.832,-4.395,-201.660,0
1490430778.149,-48.340,12.695,-104.980,-3.906,-205.566,0
1490430778.153,-14.160,-75.684,-37.109,36.621,-202.637,0
1490430778.157,9.766,-26.367,73.242,31.738,-212.402,0
1490430778.161,63.477,75.195,108.887,89.355,-241.699,0
1490430778.165,42.480,-26.367,-4.883,80.078,-253.906,0
1490430778.169,-53.711,-89.355,-75.684,5.371,-218.262,0
1490430778.173,-43.945,25.879,-3.418,23.438,-240.234,0
1490430778.176,-4.883,15.137,85.938,62.500,-280.273,0
1490430778.180,4.883,-4.395,58.105,19.043,-257.324,0
1490430778.184,32.227,47.852,-8.789,39.551,-246.094,0
1490430778.188,90.820,11.719,20.508,130.859,-249.023,0
1490430778.192,32.227,21.973,65.918,60.059,-238.281,0
1490430778.196,-79.590,65.430,7.812,-18.066,-248.535,0
1490430778.200,-71.289,36.133,-93.262,-25.391,-252.441,0
1490430778.204,18.555,-31.738,-59.082,35.645,-221.680,0
1490430778.208,90.820,-57.129,66.406,117.188,-245.605,0
1490430778.212,80.078,-6.348,43.457,63.477,-272.461,0
1490430778.216,4.883,34.180,26.367,3.418,-243.164,0
1490430778.219,-43.457,-5.859,24.414,-15.625,-241.699,0
1490430778.223,-43.945,-5.371,4.883,-24.414,-273.438,0
1490430778.227,-11.719,2.930,48.828,48.340,-271.973,0
1490430778.231,-25.391,-26.367,20.996,72.754,-273.926,0
1490430778.235,67.383,57.129,42.480,150.879,-306.152,0
1490430778.239,115.723,11.230,96.191,162.109,-334.473,0
1490430778.243,-10.742,-37.109,-10.742,-33.691,-385.742,0
1490430778.247,-44.922,60.547,-39.551,-59.082,-408.203,0
1490430778.251,-22.949,59.082,-47.852,26.855,-441.895,0
1490430778.255,7.812,46.875,-28.320,10.254,-508.789,0
1490430778.258,51.270,71.289,49.316,17.578,-490.234,0
1490430778.262,47.852,-33.203,59.082,52.246,-487.793,0
1490430778.266,-10.254,-99.609,50.293,27.832,-583.496,0
1490430778.270,-7.324,39.551,31.250,37.598,-655.762,0
1490430778.274,36.621,55.664,71.289,79.102,-674.805,0
1490430778.278,-26.855,40.527,2.930,-23.438,-678.223,0
1490430778.282,-18.555,62.500,-70.801,-76.660,-680.664,0
1490430778.286,39.551,101.562,-26.855,-46.875,-686.523,0
1490430778.290,13.672,146.973,19.043,-24.414,-720.215,0
1490430778.294,68.848,82.520,94.238,69.336,-754.883,0
1490430778.298,70.801,11.230,27.832,75.195,-746.582,0
1490430778.301,1.465,38.574,3.418,34.180,-746.094,0
1490430778.305,-13.672,14.160,32.227,-0.977,-747.070,0
1490430778.309,-5.371,-37.598,7.324,-11.719,-746.094,0
1490430778.313,21.484,13.184,-26.855,60.547,-749.512,0
1490430778.317,72.266,-0.488,-8.301,120.605,-738.281,0
1490430778.321,102.051,-32.227,53.223,89.844,-691.895,0
1490430778.325,105.957,128.906,74.219,68.848,-676.270,0
1490430778.329,60.547,199.219,67.383,31.250,-690.918,0
1490430778.333,21.484,46.387,44.434,1.465,-690.430,0
1490430778.337,45.898,-41.016,34.180,31.738,-694.824,0
1490430778.341,82.031,60.547,57.129,75.195,-699.219,0
1490430778.344,49.805,61.035,29.785,87.402,-709.473,0
1490430778.348,12.207,20.020,-47.363,34.180,-695.801,0
1490430778.352,42.969,73.730,-64.941,63.477,-688.477,0
1490430778.356,47.852,8.789,4.395,117.676,-709.961,0
1490430778.360,59.082,-10.254,29.297,80.566,-741.211,0
1490430778.364,88.379,41.992,9.766,42.480,-741.211,0
1490430778.368,65.918,-16.113,76.172,70.312,-745.117,0
1490430778.372,28.809,18.555,69.336,61.523,-756.836,0
1490430778.376,54.199,73.242,17.578,40.527,-781.738,0
1490430778.380,70.801,77.148,45.410,84.961,-787.598,0
1490430778.383,83.008,44.434,43.457,97.168,-796.875,0
1490430778.387,86.914,-31.738,70.312,89.355,-828.125,0
1490430778.391,41.992,15.137,32.715,66.406,-839.844,0
1490430778.395,34.180,7.812,-51.270,36.621,-846.680,0
1490430778.399,26.855,-48.828,-10.742,40.039,-868.652,0
1490430778.403,46.387,83.496,62.012,84.473,-930.664,0
1490430778.407,26.855,37.109,11.719,66.406,-962.402,0
1490430778.411,8.301,-48.828,-11.230,20.996,-926.270,0
1490430778.415,59.082,55.176,45.410,51.758,-937.012,0
1490430778.419,65.918,69.336,46.875,83.008,-937.500,0
1490430778.423,44.434,-11.230,-36.133,55.664,-926.270,0
1490430778.426,62.988,-40.039,-12.207,63.965,-940.430,0
1490430778.430,53.711,-6.348,69.824,59.570,-932.617,0
1490430778.434,0.488,27.344,39.062,28.320,-931.641,0
1490430778.438,42.480,80.078,9.277,81.543,-947.266,0
1490430778.442,78.125,12.695,19.531,95.215,-967.773,0
1490430778.446,75.684,-35.156,44.922,65.918,-965.820,0
1490430778.450,91.797,70.312,61.523,79.102,-968.262,0
1490430778.454,80.078,154.785,42.969,83.984,-961.426,0
1490430778.458,95.215,64.453,32.227,108.887,-929.199,0
1490430778.462,70.312,-43.457,43.945,97.168,-930.664,0
1490430778.466,17.578,-8.301,4.883,19.043,-934.570,0
1490430778.469,9.766,62.988,-19.043,34.668,-905.762,0
1490430778.473,7.324,46.875,40.527,130.859,-913.086,0
1490430778.477,48.340,22.949,43.457,121.094,-931.152,0
1490430778.481,82.520,30.273,59.082,26.367,-921.387,0
1490430778.485,56.152,34.668,68.359,12.207,-843.750,0
1490430778.489,21.484,1.953,-11.719,31.250,-728.516,0
1490430778.493,27.832,54.688,20.996,66.406,-807.129,0
1490430778.497,128.418,129.883,102.051,173.828,-849.121,0
1490430778.501,131.836,52.246,33.203,166.016,-867.676,0
1490430778.505,80.078,0.488,1.953,127.930,-967.285,0
1490430778.508,43.945,8.301,43.945,131.836,-967.773,0
1490430778.512,25.879,-5.371,50.293,43.945,-964.844,0
1490430778.516,53.711,5.859,55.176,-11.719,-967.773,0
1490430778.520,46.875,104.004,55.176,60.547,-966.797,0
1490430778.524,40.527,75.195,29.297,114.258,-966.797,0
1490430778.528,27.832,-81.543,-11.719,52.246,-967.285,0
1490430778.532,55.664,-81.055,31.738,38.574,-967.285,0
1490430778.536,104.492,52.246,20.508,93.262,-967.285,0
1490430778.540,85.449,155.273,-8.301,115.234,-967.285,0
1490430778.544,84.961,115.723,57.129,164.551,-967.285,0
1490430778.548,24.414,20.508,46.875,108.398,-966.797,0
1490430778.551,-16.602,26.367,47.363,44.434,-967.285,0
1490430778.555,27.344,10.742,20.508,58.105,-967.285,0
1490430778.559,62.012,16.602,19.043,112.793,-967.285,0
1490430778.563,79.590,97.168,106.934,136.719,-966.797,0
1490430778.567,57.617,81.055,36.621,80.078,-966.797,0
1490430778.571,23.926,38.574,-10.254,66.895,-966.797,0
1490430778.575,93.262,48.828,29.785,88.379,-967.285,0
1490430778.579,151.367,-58.594,62.012,92.773,-966.797,0
1490430778.583,115.723,-124.023,88.867,114.258,-966.797,0
1490430778.587,81.055,34.668,68.848,159.668,-966.797,0
1490430778.591,63.965,90.820,23.438,143.555,-966.797,0
1490430778.594,47.852,62.988,27.832,72.266,-966.797,0
1490430778.598,23.438,46.875,-16.602,60.547,-966.797,0
1490430778.602,40.039,-2.930,-52.734,100.586,-967.285,0
1490430778.606,94.727,-7.812,62.988,125.000,-966.797,0
1490430778.610,74.707,14.160,85.449,101.562,-966.797,0
1490430778.614,114.258,27.344,80.078,138.184,-966.797,0
1490430778.618,137.695,-58.105,86.426,166.992,-966.797,0
1490430778.622,94.238,-10.254,36.133,138.672,-966.797,0
1490430778.626,41.992,132.324,-20.996,109.375,-967.285,0
1490430778.630,43.457,128.418,2.930,85.938,-967.285,0
1490430778.633,88.379,46.875,53.711,122.559,-966.797,0
1490430778.637,73.730,-18.066,25.879,125.977,-966.797,0
1490430778.641,35.156,-33.203,-11.719,104.980,-967.285,0
1490430778.645,89.844,-20.508,45.898,139.160,-966.797,0
1490430778.649,137.695,-94.238,103.027,161.621,-966.797,0
1490430778.653,123.047,17.090,96.680,174.805,-967.285,0
1490430778.657,120.605,157.715,75.195,199.707,-966.797,0
1490430778.661,64.453,43.945,3.418,133.789,-967.285,0
1490430778.665,23.926,39.551,-73.730,48.828,-967.285,0
1490430778.669,80.566,39.551,2.930,75.684,-966.797,0
1490430778.673,106.934,4.883,88.379,134.277,-966.797,0
1490430778.676,79.590,43.457,56.641,169.434,-967.285,0
1490430778.680,77.637,53.223,57.129,180.664,-967.285,0
1490430778.684,83.496,-11.719,63.477,146.484,-967.285,0
1490430778.688,73.730,-19.531,82.520,109.375,-967.285,0
1490430778.692,152.344,20.996,162.598,226.074,-966.797,0
1490430778.696,118.164,37.598,68.848,224.609,-967.285,0
1490430778.700,21.484,99.609,-36.621,92.773,-967.285,0
1490430778.704,41.504,115.723,7.324,94.238,-967.285,0
1490430778.708,36.621,79.102,26.367,119.141,-966.797,0
1490430778.712,13.184,48.340,31.738,137.695,-967.285,0
1490430778.716,36.621,44.434,34.668,144.531,-967.285,0
1490430778.719,102.051,24.414,72.266,147.949,-967.285,0
1490430778.723,96.680,-29.297,66.406,140.137,-967.285,0
1490430778.727,34.180,0.488,39.062,137.695,-966.797,0
1490430778.731,-17.578,4.883,-8.301,134.277,-966.797,0
1490430778.735,21.484,46.875,28.809,151.367,-966.797,0
1490430778.739,91.309,-2.930,57.617,166.992,-966.797,0
1490430778.743,97.168,-76.660,16.113,196.777,-967.285,0
1490430778.747,56.641,31.738,39.062,172.852,-967.285,0
1490430778.751,34.180,70.801,77.148,107.422,-966.797,0
1490430778.755,38.574,53.711,52.734,89.355,-966.797,0
1490430778.758,42.480,19.531,41.016,128.906,-967.285,0
1490430778.762,-1.465,-41.504,12.695,160.156,-967.285,0
1490430778.766,17.578,28.320,-37.109,168.457,-966.797,0
1490430778.770,108.398,70.801,20.020,203.613,-967.285,0
1490430778.774,125.000,22.949,110.352,247.559,-966.797,0
1490430778.778,77.637,-36.133,82.520,203.125,-967.285,0
1490430778.782,33.691,-62.988,51.758,134.766,-967.285,0
1490430778.786,7.812,27.344,31.250,129.395,-967.285,0
1490430778.790,-11.230,94.238,-31.738,139.160,-966.797,0
1490430778.794,35.156,40.527,21.973,182.617,-967.285,0
1490430778.798,37.109,-49.316,24.902,157.715,-967.285,0
1490430778.801,-0.977,-64.453,-8.301,116.211,-967.285,0
1490430778.805,33.691,-19.531,52.734,152.832,-967.285,0
1490430778.809,48.340,54.688,11.719,191.895,-967.285,0
1490430778.813,8.789,115.234,-34.180,169.434,-966.309,0
1490430778.817,31.250,96.191,44.434,148.438,-968.262,0
1490430778.821,93.262,19.531,79.590,189.453,-961.914,0
1490430778.825,90.332,-58.105,14.160,201.172,-961.426,0
1490430778.829,96.680,-32.715,16.602,203.125,-904.297,0
1490430778.833,92.773,-26.367,58.594,232.910,-815.918,0
1490430778.837,18.066,-35.156,29.297,156.738,-803.223,0
1490430778.841,26.367,75.684,53.223,144.043,-740.234,0
1490430778.844,61.523,124.023,83.496,206.055,-737.305,0
1490430778.848,30.273,81.543,-2.441,197.266,-743.652,0
1490430778.852,8.301,12.207,-48.828,155.273,-663.086,0
1490430778.856,41.504,-3.418,12.207,155.273,-615.234,0
1490430778.860,83.984,-6.836,61.523,191.406,-569.336,0
1490430778.864,65.918,-34.668,82.031,236.816,-504.883,0
1490430778.868,82.520,-47.852,105.469,270.996,-435.547,0
1490430778.872,84.961,78.613,42.480,238.770,-437.012,0
1490430778.876,22.461,145.020,-41.992,156.250,-422.363,0
1490430778.880,-1.953,53.223,-32.715,99.609,-411.133,0
1490430778.883,7.324,14.160,81.543,131.836,-428.711,0
1490430778.887,42.969,45.898,135.254,178.711,-392.578,0
1490430778.891,56.641,28.320,61.035,196.777,-356.445,0
1490430778.895,45.898,-10.742,4.883,239.746,-335.938,0
1490430778.899,14.648,-48.828,-64.453,221.680,-288.086,0
1490430778.903,33.203,-10.742,-24.902,192.383,-297.363,0
1490430778.907,76.660,52.246,104.980,211.426,-351.562,0
1490430778.911,70.312,49.805,80.078,209.473,-300.781,0
1490430778.915,59.570,1.953,25.391,244.141,-245.605,0
1490430778.919,62.500,1.953,31.738,281.250,-223.633,0
1490430778.923,47.852,39.551,-18.555,211.914,-231.445,0
1490430778.926,24.414,62.500,-30.273,134.766,-253.418,0
1490430778.930,61.035,62.500,57.129,169.922,-220.215,0
1490430778.934,56.152,-25.391,82.031,179.199,-217.773,0
1490430778.938,68.848,-53.223,89.844,208.008,-255.371,0
1490430778.942,23.438,-65.430,5.859,209.473,-258.301,0
1490430778.946,-24.414,-67.383,-39.062,192.383,-228.027,0
1490430778.950,41.504,15.137,51.270,234.863,-229.492,0
1490430778.954,51.758,20.996,13.184,191.895,-208.496,0
1490430778.958,8.789,-0.977,-34.180,130.859,-156.738,0
1490430778.962,-29.297,22.461,-7.324,136.230,-128.418,0
1490430778.966,-18.066,17.090,33.691,147.461,-126.953,0
1490430778.969,-31.250,-0.977,59.082,159.180,-128.418,0
1490430778.973,-54.199,-9.277,71.289,173.828,-133.301,0
1490430778.977,-27.344,-29.785,82.031,180.664,-142.090,0
1490430778.981,-35.156,-68.848,9.766,138.184,-146.973,0
1490430778.985,-30.762,-5.859,39.551,122.559,-106.934,0
1490430778.989,-79.102,22.461,25.391,64.941,-76.172,0
1490430778.993,-142.578,-42.969,3.906,41.016,-95.215,0
1490430778.997,-106.934,-47.852,63.477,93.750,-90.332,0
1490430779.001,-88.867,-31.250,35.645,82.520,-82.031,0
1490430779.005,-119.629,-23.438,16.602,76.172,-55.176,0
1490430779.008,-127.441,-5.859,-10.254,105.957,-117.188,0
1490430779.012,-102.051,-14.648,9.766,106.445,-139.160,0
1490430779.016,-94.238,-51.270,44.434,79.102,-55.664,0
1490430779.020,-98.633,-60.547,27.344,112.305,-70.801,0
1490430779.024,-116.699,-27.832,48.828,141.113,-147.949,0
1490430779.028,-43.457,-73.242,96.680,170.898,-109.863,0
1490430779.032,29.297,-171.387,109.863,186.035,-78.125,0
1490430779.036,-44.434,-158.203,61.035,149.414,-104.492,0
1490430779.040,-128.418,-42.480,12.207,115.234,-106.445,0
1490430779.044,-104.004,19.043,17.090,136.230,-90.820,0
1490430779.048,-104.980,37.598,31.738,146.484,-84.961,0
1490430779.051,-117.676,44.922,80.078,139.160,-101.074,0
1490430779.055,-74.707,-10.254,71.777,185.547,-116.211,0
1490430779.059,-86.914,-89.355,-14.648,189.941,-125.977,0
1490430779.063,-88.379,-101.562,3.418,174.316,-71.289,0
1490430779.067,-85.938,-72.754,42.969,207.031,-52.246,0
1490430779.071,-74.219,-42.480,134.766,235.352,-86.426,0
1490430779.075,-57.617,1.953,98.145,215.332,-49.316,0
1490430779.079,-66.895,-14.160,39.551,198.730,-41.504,0
1490430779.083,-54.688,-37.109,56.152,221.680,-93.750,0
1490430779.087,-51.270,-18.066,19.531,258.789,-124.023,0
1490430779.091,-46.387,23.926,22.949,279.785,-48.340,0
1490430779.094,-42.480,-4.883,45.410,241.699,-13.672,0
1490430779.098,-10.742,-40.039,132.324,263.184,16.113,0
1490430779.102,-40.039,-28.809,109.375,268.066,20.508,0
1490430779.106,-71.289,-59.082,17.578,201.660,-42.969,0
1490430779.110,4.883,-46.387,25.391,207.520,-41.992,0
1490430779.114,64.453,3.906,60.547,252.441,-10.742,0
1490430779.118,-0.488,-42.969,81.543,283.691,28.320,0
1490430779.122,-66.895,-130.371,60.547,285.645,3.906,0
1490430779.126,-70.312,-114.258,7.812,246.582,-20.020,0
1490430779.130,-47.852,-2.441,17.090,227.539,-7.324,0
1490430779.133,-3.418,81.055,75.195,283.203,33.691,0
1490430779.137,4.883,70.312,89.844,309.082,61.523,0
1490430779.141,-28.809,10.254,61.523,270.508,44.434,0
1490430779.145,-44.922,-27.832,-27.832,243.652,26.855,0
1490430779.149,-5.371,-2.930,-2.930,255.371,42.480,0
1490430779.153,7.324,-66.895,56.641,291.504,45.898,0
1490430779.157,2.441,-116.211,65.430,318.848,36.133,0
1490430779.161,16.602,-31.738,89.355,308.594,67.383,0
1490430779.165,20.996,4.395,31.738,273.438,84.473,0
1490430779.169,30.762,-10.254,24.414,297.852,124.023,0
1490430779.173,48.828,-26.367,56.152,339.355,102.539,0
1490430779.176,45.410,-1.465,66.895,315.918,57.617,0
1490430779.180,26.855,-4.883,27.344,267.578,70.312,0
1490430779.184,33.203,-16.113,18.066,282.715,104.004,0
1490430779.188,21.484,-52.246,54.199,280.273,52.246,0
1490430779.192,35.645,-36.621,62.012,286.621,-24.414,0
1490430779.196,51.758,15.137,70.801,300.781,12.695,0
1490430779.200,24.902,-14.160,17.578,246.582,86.426,0
1490430779.204,37.109,32.227,-9.766,238.281,95.215,0
1490430779.208,36.621,38.086,50.781,252.930,64.941,0
1490430779.212,13.184,-14.648,64.941,249.512,49.316,0
1490430779.216,32.227,-57.129,52.246,232.422,88.379,0
1490430779.219,56.641,-62.012,37.598,231.445,100.586,0
1490430779.223,53.711,14.648,10.254,237.305,133.301,0
1490430779.227,7.324,23.926,24.414,217.285,112.305,0
1490430779.231,-33.691,9.277,7.812,179.688,83.496,0
1490430779.235,16.113,33.691,41.992,194.824,65.430,0
1490430779.239,23.926,-12.695,51.758,193.848,107.422,0
1490430779.243,-19.043,-81.055,-7.324,181.641,130.371,0
1490430779.247,-6.836,-52.734,4.883,174.316,66.406,0
1490430779.251,-21.484,-26.855,-8.301,123.535,90.820,0
1490430779.255,-32.715,-42.480,-6.836,114.258,105.957,0
1490430779.258,-12.695,-29.297,16.113,163.086,81.543,0
1490430779.262,10.254,-37.598,26.855,179.199,127.441,0
1490430779.266,25.391,-53.223,69.824,180.176,153.320,0
1490430779.270,12.207,10.254,11.719,165.039,120.117,0
1490430779.274,5.859,48.828,-21.973,169.434,127.441,0
1490430779.278,8.789,1.465,30.762,174.316,139.648,0
1490430779.282,18.066,33.203,36.133,142.090,181.641,0
1490430779.286,4.883,59.570,14.160,128.418,176.758,0
1490430779.290,-4.883,34.180,5.859,122.559,201.660,0
1490430779.294,-5.859,14.648,-2.441,110.840,221.680,0
1490430779.298,5.859,-8.301,10.254,114.258,201.660,0
1490430779.301,34.668,0.488,12.695,141.602,170.898,0
1490430779.305,41.016,37.598,33.691,146.973,143.066,0
1490430779.309,11.719,26.367,22.461,114.746,131.836,0
1490430779.313,37.109,101.562,-17.090,143.066,119.141,0
1490430779.317,44.434,176.758,-0.977,169.922,144.531,0
1490430779.321,-5.859,108.398,-6.348,106.445,158.691,0
1490430779.325,-7.324,21.973,29.785,70.801,138.672,0
1490430779.329,-3.906,-21.484,-17.578,79.102,99.609,0
1490430779.333,4.883,-57.129,-49.805,94.727,126.465,0
1490430779.337,12.207,-75.684,-30.273,104.980,110.840,0
1490430779.341,18.066,-11.230,-22.461,100.586,135.254,0
1490430779.344,10.742,101.562,10.742,77.148,168.457,0
1490430779.348,-5.371,162.598,-7.324,54.199,120.117,0
1490430779.352,20.020,127.930,-30.273,69.824,95.215,0
1490430779.356,25.879,40.039,-6.836,94.727,108.887,0
1490430779.360,-18.066,-26.367,-1.465,69.824,102.051,0
1490430779.364,-15.137,39.062,-7.324,53.223,68.848,0
1490430779.368,44.434,95.703,24.902,78.125,31.250,0
1490430779.372,58.105,55.664,33.691,99.121,39.551,0
1490430779.376,21.973,-3.418,30.273,86.426,-6.836,0
1490430779.380,9.766,-33.691,9.277,69.336,-3.418,0
1490430779.383,-24.414,2.441,-56.641,27.832,28.809,0
1490430779.387,6.836,92.285,-6.836,50.781,-4.883,0
1490430779.391,6.348,51.270,11.719,66.895,10.254,0
1490430779.395,6.836,11.230,28.809,79.102,2.441,0
1490430779.399,40.039,1.953,22.949,93.750,-21.973,0
1490430779.403,-5.859,-8.301,-49.316,39.062,-64.941,0
1490430779.407,-32.227,34.180,-38.574,20.508,-55.664,0
1490430779.411,-32.715,32.227,-9.766,30.762,-21.484,0
1490430779.415,-9.277,97.168,7.324,45.898,-32.715,0
1490430779.419,-1.465,68.848,30.762,79.102,-33.691,0
1490430779.423,2.930,-5.371,47.363,68.848,-1.465,0
1490430779.426,-4.395,-17.090,20.996,23.926,-17.090,0
1490430779.430,8.301,26.367,-20.996,50.293,-10.742,0
1490430779.434,-13.672,10.254,-59.570,36.621,-30.273,0
1490430779.438,-26.367,-21.973,-56.152,10.254,-36.133,0
1490430779.442,-13.672,-1.465,-20.996,19.531,-15.625,0
1490430779.446,-28.320,34.668,-50.781,-12.207,-46.387,0
1490430779.450,20.508,69.336,2.441,28.320,-77.148,0
1490430779.454,31.738,-12.695,20.508,50.781,-69.336,0
1490430779.458,-7.324,-57.617,7.324,-7.324,-5.371,0
1490430779.462,-3.906,16.113,12.695,-12.207,-23.926,0
1490430779.466,27.344,29.785,-64.453,30.762,-75.195,0
1490430779.469,66.895,-59.570,-11.719,81.055,-67.871,0
1490430779.473,36.133,-78.125,19.043,58.594,-56.152,0
1490430779.477,1.953,32.227,-11.230,20.996,-20.996,0
1490430779.481,-13.184,42.969,-13.184,6.348,-20.020,0
1490430779.485,-22.949,-13.184,12.207,10.254,-26.855,0
1490430779.489,10.742,10.254,9.766,26.855,1.465,0
1490430779.493,-25.879,23.926,-20.508,-16.602,-29.297,0
1490430779.497,-30.762,27.344,-26.367,-20.020,-32.227,0
1490430779.501,29.297,2.441,0.977,39.551,22.461,0
1490430779.505,-15.625,-96.680,-77.148,17.578,-51.758,0
1490430779.508,-23.926,-33.691,-62.988,-8.301,-131.348,0
1490430779.512,13.184,99.609,33.203,20.996,-80.078,0
1490430779.516,-13.184,36.621,2.930,0.000,-44.922,0
1490430779.520,32.227,-19.043,33.203,30.273,-69.824,0
1490430779.524,58.105,-84.961,32.715,67.383,-86.914,0
1490430779.528,37.598,-53.711,15.625,69.336,-52.734,0
1490430779.532,9.766,74.219,-40.527,39.551,-28.320,0
1490430779.536,-20.020,54.688,-92.285,11.230,-39.551,0
1490430779.540,13.672,4.883,-4.395,60.547,-93.262,0
1490430779.544,34.180,19.043,72.266,76.172,-124.512,0
1490430779.548,5.371,-17.578,25.391,31.738,-90.332,0
1490430779.551,-16.113,-54.688,-43.457,2.930,-46.387,0
1490430779.555,3.418,-51.270,-34.180,18.066,-67.383,0
1490430779.559,31.738,11.230,-43.457,34.180,-38.574,0
1490430779.563,36.621,64.941,-11.230,30.762,-34.668,0
1490430779.567,62.500,-5.371,51.758,44.922,-61.035,0
1490430779.571,48.340,-54.688,-5.859,30.273,-42.969,0
1490430779.575,27.832,-20.508,-13.184,21.484,-96.191,0
1490430779.579,64.941,24.902,65.430,73.242,-90.820,0
1490430779.583,62.988,66.895,-18.066,58.594,-52.734,0
1490430779.587,48.828,13.184,-62.500,27.832,-84.473,0
1490430779.591,96.680,-113.770,9.766,76.660,-53.711,0
1490430779.594,125.488,-39.062,9.766,100.098,-9.766,0
1490430779.598,90.820,125.977,-32.715,51.758,-49.805,0
1490430779.602,82.520,132.324,7.324,64.453,-62.500,0
1490430779.606,72.266,44.922,16.113,75.684,-72.754,0
1490430779.610,50.293,-2.930,-48.340,28.320,-83.984,0
1490430779.614,67.871,-35.645,-30.762,39.551,-119.141,0
1490430779.618,82.031,-56.641,-15.625,49.316,-134.277,0
1490430779.622,93.750,47.852,-17.578,73.242,-59.082,0
1490430779.626,88.867,92.285,21.484,81.055,-44.922,0
1490430779.630,55.176,47.363,20.508,59.082,-27.344,0
1490430779.633,41.016,23.438,-7.812,37.109,-17.578,0
1490430779.637,52.734,61.035,80.078,57.129,-59.082,0
1490430779.641,48.340,29.785,6.836,65.918,-54.688,0
1490430779.645,78.125,-52.734,-41.504,89.355,-67.871,0
1490430779.649,68.359,-76.172,-5.859,75.684,-81.543,0
1490430779.653,25.391,-41.504,-22.949,24.414,-59.570,0
1490430779.657,56.641,24.414,0.488,57.617,-42.969,0
1490430779.661,53.223,11.719,50.781,76.172,-46.875,0
1490430779.665,14.160,-26.367,34.180,45.410,-28.320,0
1490430779.669,48.828,8.789,15.137,57.129,26.855,0
1490430779.673,47.363,34.668,-29.297,39.062,44.922,0
1490430779.676,27.832,24.902,-18.066,33.203,28.809,0
1490430779.680,55.176,50.781,35.645,59.082,37.598,0
1490430779.684,38.086,19.043,-9.766,39.062,-0.977,0
1490430779.688,39.551,-34.180,-9.766,42.480,-7.812,0
1490430779.692,65.430,-26.855,3.906,66.895,7.812,0
1490430779.696,83.496,54.688,61.035,72.754,-16.113,0
1490430779.700,55.176,0.000,68.848,37.109,-3.906,0
1490430779.704,-34.180,-76.172,-18.066,-43.945,22.461,0
1490430779.708,-25.391,70.801,-74.219,-43.945,66.406,0
1490430779.712,9.766,114.258,-50.781,2.441,36.133,0
1490430779.716,-18.555,41.992,-45.410,1.465,-21.973,0
1490430779.719,-19.043,44.922,7.812,4.395,24.902,0
1490430779.723,21.973,15.137,83.008,53.711,11.230,0
1490430779.727,0.488,-95.215,-59.570,24.902,15.625,0
1490430779.731,-18.555,-4.883,-84.961,-8.301,32.715,0
1490430779.735,15.137,68.359,12.207,54.199,62.500,0
1490430779.739,1.953,-20.020,39.551,44.922,44.922,0
1490430779.743,-66.406,1.953,-15.625,-38.574,31.250,0
1490430779.747,-84.961,12.695,-100.098,-59.570,26.367,0
1490430779.751,-71.289,-27.832,-121.094,-55.664,-2.441,0
1490430779.755,-77.637,-10.742,-74.707,-42.969,101.074,0
1490430779.758,-47.363,-96.680,-32.227,1.465,80.566,0
1490430779.762,-64.941,-94.727,-85.449,-15.137,23.438,0
1490430779.766,-108.398,-15.625,-50.293,-52.734,25.879,0
1490430779.770,-94.238,-4.395,-1.465,-67.383,3.906,0
1490430779.774,-77.637,61.523,-55.664,-64.941,60.059,0
1490430779.778,-114.746,51.270,-154.297,-84.473,66.895,0
1490430779.782,-128.906,-49.805,-167.969,-89.844,46.875,0
1490430779.786,-92.285,-125.000,-66.406,-56.152,41.016,0
1490430779.790,-110.352,-103.027,-64.941,-85.938,62.012,0
1490430779.794,-125.000,-48.828,-108.887,-109.863,124.023,0
1490430779.798,-75.684,-139.160,-97.656,-59.082,87.402,0
1490430779.801,-113.770,-144.531,-164.551,-90.820,28.809,0
1490430779.805,-99.609,-3.906,-121.582,-108.887,53.711,0
1490430779.809,-55.664,-18.555,-76.172,-60.547,64.453,0
1490430779.813,-105.957,-84.961,-145.508,-72.754,28.809,0
1490430779.817,-125.977,-9.277,-145.996,-105.469,33.691,0
1490430779.821,-111.328,-29.297,-119.141,-104.980,30.273,0
1490430779.825,-104.004,-98.633,-57.617,-95.703,21.484,0
1490430779.829,-101.074,-84.473,-81.055,-97.168,65.430,0
1490430779.833,-87.402,-44.922,-139.160,-90.332,57.617,0
1490430779.837,-113.770,-25.391,-146.973,-96.191,62.012,0
1490430779.841,-123.047,-87.402,-96.191,-110.352,84.961,0
1490430779.844,-117.676,-110.840,-148.926,-111.328,6.836,0
1490430779.848,-148.926,-91.797,-150.879,-130.371,0.488,0
1490430779.852,-142.090,-82.031,-49.316,-125.977,42.969,0
1490430779.856,-111.816,-95.703,-82.520,-75.195,62.988,0
1490430779.860,-102.051,-116.699,-179.199,-71.289,97.168,0
1490430779.864,-131.836,-101.074,-167.480,-116.699,118.164,0
1490430779.868,-110.352,-52.246,-75.195,-77.637,96.680,0
1490430779.872,-152.832,-125.488,-134.277,-98.633,109.863,0
1490430779.876,-203.613,-116.699,-197.754,-161.133,86.914,0
1490430779.880,-178.223,-65.918,-112.793,-145.020,30.762,0
1490430779.883,-199.219,-165.039,0.000,-149.414,33.203,0
1490430779.887,-178.223,-187.012,-39.551,-115.723,18.555,0
1490430779.891,-204.590,-149.414,-231.934,-141.602,-22.949,0
1490430779.895,-204.590,-105.469,-189.941,-146.484,14.160,0
1490430779.899,-109.375,-160.156,0.488,-32.715,63.477,0
1490430779.903,-143.555,-193.359,-71.289,-62.012,60.059,0
1490430779.907,-176.758,-118.164,-129.395,-132.324,11.230,0
1490430779.911,-189.941,-166.016,-134.766,-131.836,-18.555,0
1490430779.915,-233.398,-119.141,-176.270,-168.457,2.930,0
1490430779.919,-205.566,32.715,-138.672,-165.527,41.992,0
1490430779.923,-147.461,45.898,-90.332,-101.562,71.289,0
1490430779.926,-136.719,-83.008,-61.523,-91.797,26.367,0
1490430779.930,-122.559,-173.340,-135.254,-80.566,3.906,0
1490430779.934,-116.211,-133.789,-141.602,-65.918,27.832,0
1490430779.938,-114.746,-99.609,-91.309,-64.941,3.418,0
1490430779.942,-89.844,-106.445,-118.164,-35.645,-20.508,0
1490430779.946,-94.727,-77.148,-110.840,-43.945,12.695,0
1490430779.950,-114.746,-61.035,-10.742,-60.547,0.488,0
1490430779.954,-140.137,-94.727,-45.410,-83.496,-17.090,0
1490430779.958,-124.512,-76.660,-93.262,-83.008,41.504,0
1490430779.962,-95.215,-57.617,-62.500,-44.922,43.945,0
1490430779.966,-102.051,-87.891,-120.117,-37.109,27.832,0
1490430779.969,-71.777,-114.258,-41.016,-14.648,25.879,0
1490430779.973,-86.914,-60.547,-17.578,-32.227,44.922,0
1490430779.977,-114.258,-5.371,-109.375,-61.523,51.270,0
1490430779.981,-70.312,-0.488,-53.223,-15.625,31.738,0
1490430779.985,0.488,35.156,19.531,34.668,30.273,0
1490430779.989,13.184,-60.059,17.090,37.598,36.133,0
1490430779.993,-49.805,-105.957,-66.895,-3.906,72.266,0
1490430779.997,-57.129,8.789,-85.938,-4.395,16.602,0
1490430780.001,-29.297,-60.547,-8.301,19.043,-4.883,0
1490430780.005,-28.809,-114.258,5.859,20.020,23.926,0
1490430780.008,-33.691,10.254,-50.293,31.250,22.461,0
1490430780.012,-46.387,43.457,-102.051,11.230,65.430,0
1490430780.016,-42.969,-20.996,-68.848,5.859,41.504,0
1490430780.020,-26.855,-44.922,-38.086,39.062,-33.691,0
1490430780.024,-19.531,-23.926,-52.246,40.039,-36.133,0
1490430780.028,-8.301,-15.625,40.527,36.133,5.859,0
1490430780.032,64.453,-51.758,113.770,112.793,26.367,0
1490430780.036,66.895,-28.320,-14.160,114.746,73.730,0
1490430780.040,-7.324,0.000,-94.727,37.598,30.762,0
1490430780.044,-13.672,-5.371,-35.156,29.785,-6.348,0
1490430780.048,1.953,29.297,18.066,41.992,63.965,0
1490430780.051,-0.977,44.922,14.160,30.762,34.668,0
1490430780.055,41.016,65.430,-18.066,92.285,-28.320,1
1490430780.059,74.707,-40.039,-0.488,126.953,-20.508,0
1490430780.063,72.754,-141.113,29.297,118.652,-16.602,0
1490430780.067,58.594,-62.988,52.734,113.770,-46.875,0
1490430780.071,23.438,2.441,33.691,58.594,-33.691,0
1490430780.075,5.371,38.086,-24.902,22.949,-62.988,0
1490430780.079,-16.602,50.293,-63.477,9.277,-55.176,0
1490430780.083,-24.414,52.246,-32.227,18.555,-7.324,0
1490430780.087,38.086,-6.348,28.809,89.844,-27.344,0
1490430780.091,54.688,-59.082,13.672,131.348,-37.109,0
1490430780.094,38.574,-26.855,47.363,106.445,-36.621,0
1490430780.098,2.441,21.973,16.113,47.363,-53.223,0
1490430780.102,-27.344,74.707,-9.766,12.695,-48.828,0
1490430780.106,41.504,12.695,62.500,70.801,-28.809,0
1490430780.110,94.727,-63.965,108.398,123.047,-12.695,0
1490430780.114,40.527,-1.465,56.152,70.312,-25.879,0
1490430780.118,-35.645,20.996,-107.422,20.020,-33.203,0
1490430780.122,-56.152,32.715,-115.723,1.465,-58.594,0
1490430780.126,-46.387,113.281,-35.645,-5.859,-84.961,0
1490430780.130,-20.508,151.367,0.977,33.203,-34.180,0
1490430780.133,41.992,11.719,76.660,96.191,-25.391,0
1490430780.137,69.824,-117.676,74.219,92.285,-65.430,0
1490430780.141,52.734,-116.699,37.109,79.590,-100.098,0
1490430780.145,7.812,-55.176,-33.691,66.895,-61.523,0
1490430780.149,-8.789,58.594,-99.121,46.387,-58.105,0
1490430780.153,28.320,25.391,35.156,63.477,-5.859,0
1490430780.157,11.230,19.043,71.289,24.414,60.059,0
1490430780.161,20.996,136.230,-13.184,43.457,-21.973,0
1490430780.165,20.508,80.078,1.953,77.637,-47.363,0
1490430780.169,-7.812,-15.625,-19.531,40.039,-10.742,0
1490430780.173,51.270,-87.402,30.273,82.520,-7.812,0
1490430780.176,84.961,-136.230,113.281,126.953,7.324,0
1490430780.180,34.180,-50.293,5.859,79.590,-0.488,0
1490430780.184,-4.883,55.664,-68.848,26.367,-10.254,0
1490430780.188,-3.906,86.426,-17.578,44.922,-24.414,0
1490430780.192,-16.602,26.367,43.945,62.988,-38.574,0
1490430780.196,-14.160,-14.160,38.086,47.852,-51.270,0
1490430780.200,0.488,22.461,21.484,48.828,-46.387,0
1490430780.204,33.691,18.555,47.852,96.680,-23.926,0
1490430780.208,29.297,-25.879,41.016,104.980,3.906,0
1490430780.212,-19.043,46.875,-15.625,32.227,-16.113,0
1490430780.216,-1.953,74.219,16.602,17.090,-49.805,0
1490430780.219,76.660,53.223,94.238,109.863,-45.410,0
1490430780.223,45.898,-22.949,41.504,126.953,-9.766,0
1490430780.227,-31.250,-54.688,-7.324,43.945,12.207,0
1490430780.231,10.254,54.688,-16.602,52.246,-50.293,0
1490430780.235,50.293,101.074,16.602,100.098,-23.926,0
1490430780.239,37.598,82.520,98.145,104.004,17.578,0
1490430780.243,22.949,54.688,44.434,76.172,-16.602,0
1490430780.247,25.391,-83.984,-55.176,62.012,-102.051,0
1490430780.251,1.465,-144.531,-52.246,28.809,-90.332,0
1490430780.255,9.766,39.062,35.156,32.227,-49.805,0
1490430780.258,27.832,16.113,31.250,54.199,-76.660,0
1490430780.262,23.438,-14.648,37.598,53.223,-56.152,0
1490430780.266,30.762,117.676,45.410,50.293,-17.090,0
1490430780.270,50.781,38.574,9.277,62.500,-43.457,0
1490430780.274,53.711,-11.719,35.645,87.891,-46.387,0
1490430780.278,45.410,38.086,63.965,85.449,-33.203,0
1490430780.282,44.922,5.859,56.641,86.426,-45.898,0
1490430780.286,9.277,-24.902,12.207,48.828,-15.137,0
1490430780.290,10.742,5.859,56.641,42.480,-34.668,0
1490430780.294,11.719,31.738,-47.363,40.039,-31.250,0
1490430780.298,47.852,59.082,-42.969,91.309,-0.977,0
1490430780.301,96.191,39.062,75.684,144.043,-53.223,0
1490430780.305,40.527,-4.883,46.875,79.590,-32.715,0
1490430780.309,-15.137,18.066,17.578,36.133,18.066,0
1490430780.313,19.531,16.602,20.996,69.824,14.648,0
1490430780.317,48.340,-17.578,35.156,110.352,20.508,0
1490430780.321,-40.527,24.902,0.000,19.043,15.625,0
1490430780.325,-23.438,129.395,40.039,4.395,-18.066,0
1490430780.329,47.363,73.242,17.090,65.918,-42.480,0
1490430780.333,18.066,-15.625,-23.438,60.547,-11.230,0
1490430780.337,46.387,24.902,95.215,104.492,55.176,0
1490430780.341,102.539,6.348,118.164,154.785,36.621,0
1490430780.344,20.020,-11.719,-26.855,63.965,-7.324,0
1490430780.348,-14.648,78.125,-38.086,13.184,5.371,0
1490430780.352,12.695,20.996,-2.441,46.875,34.180,0
1490430780.356,8.301,-39.551,-31.250,52.246,-4.883,0
1490430780.360,-0.488,76.660,0.977,54.199,22.949,0
1490430780.364,33.691,149.414,83.496,83.008,51.270,0
1490430780.368,74.707,32.715,114.258,104.980,-0.488,0
1490430780.372,44.434,-64.453,35.645,79.102,-39.062,0
1490430780.376,17.090,-16.113,13.184,65.430,-39.062,0
1490430780.380,7.812,78.613,-10.742,39.551,24.902,0
1490430780.383,45.898,161.133,-55.176,70.801,38.574,0
1490430780.387,53.223,83.984,18.555,87.891,29.785,0
1490430780.391,17.578,-55.176,-14.160,37.598,-32.227,0
1490430780.395,11.719,-23.438,7.324,35.645,-84.473,0
1490430780.399,38.086,98.145,60.547,57.617,-81.055,0
1490430780.403,87.891,93.750,31.738,97.656,-57.129,0
1490430780.407,88.867,-3.906,42.480,99.121,13.184,0
1490430780.411,15.137,-44.434,30.273,28.809,-23.438,0
1490430780.415,21.973,39.551,26.367,41.992,0.977,0
1490430780.419,72.266,44.434,47.363,88.379,-4.395,0
1490430780.423,48.340,1.953,55.664,68.848,-22.461,0
1490430780.426,19.043,25.391,-16.113,36.133,-2.930,0
1490430780.430,-7.324,41.992,-44.922,7.812,7.324,0
1490430780.434,33.691,49.316,44.922,46.387,-4.883,0
1490430780.438,42.969,-2.441,8.301,59.082,9.277,0
1490430780.442,-8.789,-25.879,-7.812,32.227,-10.742,0
1490430780.446,-20.996,41.016,24.414,28.320,-32.227,0
1490430780.450,8.301,99.121,40.039,45.410,-7.812,0
1490430780.454,28.320,39.551,44.434,75.684,5.371,0
1490430780.458,28.809,-74.219,22.949,103.516,-14.648,0
1490430780.462,42.969,-119.629,62.012,97.656,-37.109,0
1490430780.466,59.570,-57.617,60.547,68.848,-27.832,0
1490430780.469,13.184,27.832,-16.602,43.457,-26.367,0
1490430780.473,-3.418,68.848,8.789,33.691,9.766,0
1490430780.477,35.156,56.152,111.816,58.105,42.480,0
1490430780.481,46.875,67.871,31.738,60.059,36.133,0
1490430780.485,63.477,29.297,-68.848,86.426,37.598,0
1490430780.489,80.566,-65.430,16.602,116.699,6.348,0
1490430780.493,45.898,-22.461,37.109,82.520,30.762,0
1490430780.497,12.695,12.207,29.785,46.875,62.500,0
1490430780.501,-5.371,-6.348,-38.574,11.230,30.273,0
1490430780.505,21.973,40.039,-20.508,60.059,57.129,0
1490430780.508,65.430,18.555,119.141,100.586,46.875,0
1490430780.512,37.109,-33.691,83.008,55.176,52.734,0
1490430780.516,5.371,6.348,24.414,39.062,88.379,0
1490430780.520,43.457,27.832,80.078,82.031,104.492,0
1490430780.524,20.508,-14.648,50.781,85.449,104.492,0
1490430780.528,-4.883,-44.922,45.410,62.012,70.801,0
1490430780.532,64.941,-34.668,62.500,104.004,45.410,0
1490430780.536,-16.113,-5.371,29.785,31.738,25.391,0
1490430780.540,-77.148,-24.414,-10.742,-15.137,61.035,0
1490430780.544,-37.109,-34.668,-19.043,26.367,116.699,0
1490430780.548,-35.645,-2.930,66.406,28.320,96.191,0
1490430780.551,-5.371,2.441,68.359,44.922,8.301,0
1490430780.555,17.578,-9.277,28.809,60.547,13.184,0
1490430780.559,20.508,-42.969,54.199,73.730,73.730,0
1490430780.563,-20.508,-125.000,44.922,30.762,91.309,0
1490430780.567,-70.801,-35.156,42.480,-27.832,76.660,0
1490430780.571,-33.691,64.453,26.855,12.207,60.547,0
1490430780.575,12.695,-31.250,14.160,75.195,42.969,0
1490430780.579,12.695,-37.109,58.594,88.379,55.176,0
1490430780.583,12.207,27.832,19.043,84.473,16.602,0
1490430780.587,19.531,17.090,16.113,86.426,-5.859,0
1490430780.591,31.738,19.531,47.363,74.707,29.297,0
1490430780.594,11.719,67.383,84.473,59.082,10.254,0
1490430780.598,15.625,62.012,82.031,75.684,36.621,0
1490430780.602,42.969,-42.969,9.766,91.797,88.867,0
1490430780.606,56.152,-65.918,-36.621,110.352,52.246,0
1490430780.610,104.004,9.277,87.891,161.621,59.082,0
1490430780.614,107.422,-22.461,129.395,149.902,77.148,0
1490430780.618,24.902,-51.270,-2.930,70.312,59.570,0
1490430780.622,11.230,38.086,-6.348,56.152,76.660,0
1490430780.626,38.086,74.707,29.785,77.148,54.199,0
1490430780.630,23.926,99.121,40.527,56.152,46.875,0
1490430780.633,24.902,62.500,21.973,62.500,75.684,0
1490430780.637,111.328,-29.297,118.652,145.020,21.484,0
1490430780.641,120.605,-104.004,158.691,142.578,30.762,0
1490430780.645,10.742,-59.082,25.391,40.527,80.078,0
1490430780.649,-32.227,112.305,-34.668,26.855,91.797,0
1490430780.653,39.062,87.402,32.715,78.613,55.664,0
1490430780.657,75.684,-5.859,69.824,86.914,29.785,0
1490430780.661,76.660,-13.672,34.180,112.305,62.988,0
1490430780.665,82.520,-32.227,30.762,113.770,79.590,0
1490430780.669,-2.930,25.391,-0.488,13.672,21.484,0
1490430780.673,-26.855,90.820,26.367,-10.254,47.852,0
1490430780.676,40.527,115.234,88.867,51.270,87.891,0
1490430780.680,53.223,61.523,34.180,69.336,79.102,0
1490430780.684,43.457,-16.113,32.227,98.145,77.148,0
1490430780.688,60.059,-96.191,69.824,128.906,64.941,0
1490430780.692,41.016,-54.688,46.387,96.191,35.645,0
1490430780.696,-3.906,73.730,26.367,32.227,9.766,0
1490430780.700,-10.254,111.816,35.645,24.414,28.320,0
1490430780.704,53.223,55.664,30.273,71.777,21.484,0
1490430780.708,83.984,-149.902,38.086,102.539,53.223,0
1490430780.712,89.844,-57.617,54.199,125.000,35.645,0
1490430780.716,60.547,108.887,115.723,98.145,2.441,0
1490430780.719,21.484,131.836,65.430,62.012,17.578,0
1490430780.723,96.680,125.977,51.270,118.652,-16.113,0
1490430780.727,58.594,27.832,9.766,89.355,-13.184,0
1490430780.731,-19.531,40.527,-99.121,29.297,7.324,0
1490430780.735,20.508,52.246,-36.621,47.363,5.859,0
1490430780.739,39.551,-27.344,83.496,59.082,-13.672,0
1490430780.743,22.949,-62.012,59.570,69.336,-40.527,0
1490430780.747,23.438,-55.664,27.344,77.637,-2.930,0
1490430780.751,29.785,-36.621,102.051,84.473,15.137,0
1490430780.755,48.340,28.809,115.723,103.516,21.484,0
1490430780.758,73.730,37.109,75.195,114.258,59.570,0
1490430780.762,41.504,4.883,19.043,74.219,38.086,0
1490430780.766,25.391,-57.129,44.434,67.383,5.859,0
1490430780.770,34.180,-35.645,63.965,82.520,-20.996,0
1490430780.774,0.000,104.980,-41.992,20.996,-1.953,0
1490430780.778,14.160,120.605,-12.695,25.391,-20.508,0
1490430780.782,4.883,16.602,54.688,34.668,-58.594,0
1490430780.786,-5.859,-10.254,34.180,30.273,-83.008,0
1490430780.790,11.719,29.785,59.570,44.434,-57.129,0
1490430780.794,32.227,51.758,42.969,65.918,0.977,0
1490430780.798,83.496,30.273,109.863,126.953,-0.977,0
1490430780.801,60.059,-58.105,126.953,120.117,65.430,0
1490430780.805,10.742,-61.035,22.949,67.871,88.379,0
1490430780.809,12.207,26.367,63.477,77.148,-0.977,0
1490430780.813,17.578,65.430,4.395,65.430,8.301,0
1490430780.817,16.602,77.637,-30.762,53.711,37.598,0
1490430780.821,4.395,34.180,47.852,61.523,-1.953,0
1490430780.825,11.230,-26.367,19.531,44.434,-10.254,0
1490430780.829,26.855,-20.020,66.895,50.781,30.762,0
1490430780.833,16.602,-34.180,72.754,74.707,24.414,0
1490430780.837,39.062,20.020,22.461,101.562,-41.016,0
1490430780.841,15.625,88.867,12.207,64.453,-33.691,0
1490430780.844,30.762,102.539,18.066,76.660,26.367,0
1490430780.848,108.398,38.574,62.012,163.086,6.348,0
1490430780.852,48.828,-36.133,36.133,121.582,-12.695,0
1490430780.856,-38.086,-17.090,15.137,22.461,18.066,0
1490430780.860,-32.227,6.836,22.461,18.066,3.906,0
1490430780.864,-15.137,-23.926,49.805,41.504,-42.969,0
1490430780.868,-20.020,-44.434,59.570,48.828,-35.645,0
1490430780.872,3.418,3.906,22.461,57.617,40.039,0
1490430780.876,12.695,-16.602,28.809,71.289,35.645,0
1490430780.880,37.109,-16.602,53.223,106.934,13.184,0
1490430780.883,88.379,-4.395,32.227,138.184,-16.602,0
1490430780.887,42.480,-20.996,44.434,125.000,8.301,0
1490430780.891,-30.762,30.762,69.336,67.871,29.785,0
1490430780.895,-46.875,75.684,90.332,23.438,16.602,0
1490430780.899,-27.344,59.570,42.480,35.156,41.992,0
1490430780.903,-15.625,38.086,-23.438,38.574,17.578,0
1490430780.907,-2.930,32.227,-36.133,46.387,23.438,0
1490430780.911,37.109,53.223,13.672,75.684,40.527,0
1490430780.915,31.738,-4.883,87.402,94.727,5.859,0
1490430780.919,43.457,-26.855,91.309,91.797,6.348,0
1490430780.923,41.992,71.777,33.203,36.621,54.199,0
1490430780.926,-3.906,31.738,-2.441,7.324,42.969,0
1490430780.930,45.410,-16.113,20.020,49.805,20.996,0
1490430780.934,83.496,13.184,59.570,71.289,20.020,0
1490430780.938,59.570,-34.668,53.711,52.246,61.523,0
1490430780.942,26.855,-49.316,61.523,31.738,62.500,0
1490430780.946,26.855,40.527,25.879,46.875,64.941,0
1490430780.950,36.621,80.078,19.043,44.922,101.562,0
1490430780.954,15.625,33.203,7.324,37.109,36.621,0
1490430780.958,7.324,84.961,-34.180,30.762,-7.812,0
1490430780.962,34.668,100.098,6.836,58.105,20.996,0
1490430780.966,15.137,20.996,41.992,46.387,39.551,0
1490430780.969,-17.090,-27.344,42.969,23.926,43.945,0
1490430780.973,4.395,-32.227,12.695,38.574,4.395,0
1490430780.977,27.832,-58.594,9.277,38.086,-4.395,0
1490430780.981,48.828,-22.949,3.418,79.590,82.031,0
1490430780.985,97.168,95.703,110.352,147.949,83.008,0
1490430780.989,54.199,29.297,145.020,98.145,0.000,0
1490430780.993,-15.625,-6.348,45.410,19.531,2.930,0
1490430780.997,12.695,52.734,-27.832,31.250,31.738,0
1490430781.001,57.617,0.000,20.996,84.473,20.996,0
1490430781.005,12.207,56.641,-14.160,75.195,12.695,0
1490430781.008,4.395,93.750,-50.781,75.684,62.500,0
1490430781.012,35.156,-16.602,86.914,98.633,73.730,0
1490430781.016,15.625,-44.922,87.402,75.684,34.668,0
1490430781.020,-3.418,81.543,26.855,53.223,42.480,0
1490430781.024,-20.996,46.875,-4.395,20.996,26.367,0
1490430781.028,4.883,-67.383,8.789,32.715,-13.184,0
1490430781.032,44.434,92.773,80.078,79.102,-11.230,0
1490430781.036,45.898,125.977,89.844,100.586,31.250,0
1490430781.040,11.230,23.926,41.504,100.586,25.391,0
1490430781.044,-7.324,14.648,-1.465,66.406,26.855,0
1490430781.048,40.527,16.113,23.438,65.430,17.578,0
1490430781.051,11.719,-19.043,35.156,32.715,18.555,0
1490430781.055,-25.879,43.457,-3.906,5.371,87.891,0
1490430781.059,28.809,23.926,51.270,73.242,37.109,0
1490430781.063,12.207,-12.207,118.652,64.941,-33.691,0
1490430781.067,12.207,86.426,42.480,46.875,18.066,0
1490430781.071,28.809,17.090,11.230,73.242,18.066,0
1490430781.075,10.742,-39.062,15.625,59.570,-26.367,0
1490430781.079,21.973,62.988,-3.906,46.875,-9.277,0
1490430781.083,12.695,92.773,80.078,55.664,9.766,0
1490430781.087,13.184,14.160,52.246,65.430,36.133,0
1490430781.091,12.695,-59.082,-28.809,46.875,55.664,0
1490430781.094,13.672,-92.285,6.348,47.852,56.152,0
1490430781.098,32.715,14.648,33.691,79.102,44.434,0
1490430781.102,16.602,138.184,33.691,55.664,23.926,0
1490430781.106,20.020,93.262,53.711,41.016,50.781,0
1490430781.110,11.719,24.902,71.289,45.410,24.902,0
1490430781.114,32.227,0.000,-13.672,59.082,18.555,0
1490430781.118,24.414,0.000,-22.949,58.105,44.434,0
1490430781.122,27.344,6.348,30.762,63.965,-19.531,0
1490430781.126,54.688,30.762,45.410,75.195,-45.898,0
1490430781.130,33.203,-12.207,79.102,59.082,-5.859,0
1490430781.133,18.066,-39.551,29.297,44.434,12.207,0
1490430781.137,11.719,31.738,17.090,34.180,-0.488,0
1490430781.141,11.719,73.730,51.270,56.152,-3.418,0
1490430781.145,24.414,-54.199,93.262,90.820,46.875,0
1490430781.149,38.574,-133.789,61.035,59.082,9.766,0
1490430781.153,41.504,25.391,34.180,37.598,-24.414,0
1490430781.157,-5.859,129.395,-12.695,3.418,24.902,0
1490430781.161,-41.016,106.934,-40.039,-1.465,-12.695,0
1490430781.165,4.883,80.566,76.660,77.148,-51.758,0
1490430781.169,62.988,13.184,140.625,115.234,-16.113,0
1490430781.173,20.020,-50.293,56.152,47.363,10.742,0
1490430781.176,9.766,9.766,24.414,33.691,35.645,0
1490430781.180,-3.906,33.203,-10.742,13.672,7.324,0
1490430781.184,-52.246,37.109,-55.664,-36.621,-33.691,0
1490430781.188,5.371,65.918,10.742,4.883,-12.695,0
1490430781.192,32.715,42.480,39.551,24.902,-6.836,0
1490430781.196,23.926,45.410,3.906,10.742,58.594,0
1490430781.200,69.336,-4.395,50.293,35.645,48.340,0
1490430781.204,70.312,-70.801,79.590,46.387,-2.441,0
1490430781.208,57.129,24.414,12.695,56.152,20.508,0
1490430781.212,73.242,122.559,33.203,74.707,20.996,0
1490430781.216,68.848,69.336,50.293,62.500,57.129,0
1490430781.219,35.156,14.648,12.695,27.344,74.707,0
1490430781.223,9.277,43.457,-7.324,13.672,65.918,0
1490430781.227,8.789,52.734,13.184,22.949,-0.488,0
1490430781.231,26.367,35.645,16.602,47.852,27.344,0
1490430781.235,38.086,62.500,-4.883,73.730,31.738,0
1490430781.239,45.410,116.211,12.695,56.641,40.039,0
1490430781.243,74.219,98.633,63.477,62.988,88.867,0
1490430781.247,66.406,43.457,101.074,66.895,25.391,0
1490430781.251,90.820,25.391,95.703,104.492,31.250,0
1490430781.255,105.957,27.344,70.312,128.906,31.250,0
1490430781.258,78.613,20.020,80.078,90.820,-8.789,0
1490430781.262,79.590,44.434,63.477,76.172,-14.160,0
1490430781.266,81.543,45.410,13.672,84.473,3.418,0
1490430781.270,73.730,-1.953,2.930,84.961,18.066,0
1490430781.274,97.168,-13.672,41.504,98.145,7.324,0
1490430781.278,157.715,27.344,117.676,149.902,1.953,0
1490430781.282,126.465,75.195,87.402,136.230,8.789,0
1490430781.286,59.082,100.586,16.602,86.426,40.527,0
1490430781.290,13.184,106.934,26.367,28.320,25.391,0
1490430781.294,20.020,137.695,50.293,36.133,24.414,0
1490430781.298,100.098,110.352,80.078,119.629,34.180,0
1490430781.301,131.836,-40.039,44.434,136.230,-3.418,0
1490430781.305,114.746,-108.887,96.680,121.582,3.906,0
1490430781.309,78.613,-8.301,88.379,100.098,8.301,0
1490430781.313,68.359,101.074,-8.789,75.195,-8.789,0
1490430781.317,79.590,127.930,39.551,75.195,-8.789,2
1490430781.321,55.664,102.539,30.273,55.664,49.805,0
1490430781.325,45.898,93.262,-41.504,30.762,0.488,0
1490430781.329,61.035,36.133,14.648,60.547,-53.711,0
1490430781.333,101.562,-32.227,80.078,112.305,27.832,0
1490430781.337,66.895,-0.977,20.020,62.012,0.977,0
1490430781.341,39.062,120.117,39.062,43.457,-14.648,0
1490430781.344,61.523,76.172,41.992,68.848,-5.371,0
1490430781.348,56.152,-32.227,34.180,56.641,6.836,0
1490430781.352,72.266,26.855,64.941,62.012,-5.371,0
1490430781.356,111.328,81.543,65.918,96.680,-51.270,0
1490430781.360,86.914,22.949,97.656,64.453,-69.824,0
1490430781.364,32.227,39.062,46.875,17.090,-55.664,0
1490430781.368,55.664,49.805,56.641,52.734,0.977,0
1490430781.372,55.176,-38.086,22.461,54.688,-10.742,0
1490430781.376,26.367,45.898,-30.762,20.020,13.184,0
1490430781.380,36.133,119.629,18.555,32.227,65.430,0
1490430781.383,63.965,47.363,14.160,46.387,28.809,0
1490430781.387,59.082,27.832,-5.371,38.574,-24.902,0
1490430781.391,45.410,50.293,-20.996,29.785,-22.461,0
1490430781.395,73.242,30.273,75.684,63.965,-3.906,0
1490430781.399,84.961,-41.504,147.949,96.680,-19.043,0
1490430781.403,71.777,4.395,25.879,83.984,-69.336,0
1490430781.407,44.922,119.629,-0.488,52.734,-60.547,0
1490430781.411,15.625,91.797,41.016,25.391,-62.012,0
1490430781.415,32.715,8.301,26.855,35.645,-31.738,0
1490430781.419,62.012,-22.461,22.461,48.828,28.320,0
1490430781.423,69.824,11.230,82.031,69.336,-15.137,0
1490430781.426,64.941,33.691,56.641,64.453,1.953,0
1490430781.430,66.406,-18.555,14.160,54.199,5.859,0
1490430781.434,56.641,-38.086,45.898,51.758,12.695,0
1490430781.438,66.406,-20.996,72.754,67.871,-5.371,0
1490430781.442,34.668,-35.156,60.059,44.434,-23.926,0
1490430781.446,-2.441,-31.738,-15.625,20.020,-4.883,0
1490430781.450,23.926,64.941,6.836,34.668,-21.484,0
1490430781.454,31.250,83.008,26.855,37.109,-6.836,0
1490430781.458,24.414,44.434,34.180,33.691,19.043,0
1490430781.462,43.945,1.953,56.152,44.434,-17.090,0
1490430781.466,18.555,-66.406,68.848,28.320,-17.090,0
1490430781.469,14.648,-33.203,50.781,19.043,13.672,0
1490430781.473,32.227,-46.387,3.906,42.969,16.113,0
1490430781.477,40.527,-24.902,68.359,62.500,23.926,0
1490430781.481,48.828,49.316,97.656,68.848,36.621,0
1490430781.485,6.836,59.570,24.414,7.812,26.367,0
1490430781.489,4.883,40.039,42.969,-6.348,24.414,0
1490430781.493,36.133,8.789,83.008,39.551,50.293,0
1490430781.497,44.434,-17.090,14.160,47.363,68.848,0
1490430781.501,44.922,1.953,-2.930,35.156,61.523,0
1490430781.505,31.250,39.551,0.000,20.020,49.316,0
1490430781.508,19.043,1.465,54.688,23.926,70.801,0
1490430781.512,-3.906,-41.992,74.707,15.137,81.055,0
1490430781.516,22.949,-8.789,69.824,38.574,89.844,0
1490430781.520,62.988,25.391,77.637,74.219,70.312,0
1490430781.524,32.715,31.250,4.395,51.758,52.246,0
1490430781.528,20.996,-9.766,29.785,40.527,51.758,0
1490430781.532,31.738,0.977,21.973,46.875,60.547,0
1490430781.536,48.828,24.902,49.805,55.176,30.273,0
1490430781.540,33.691,11.230,93.262,38.574,31.250,0
1490430781.544,-13.184,-11.230,29.297,12.207,70.801,0
1490430781.548,-9.766,5.371,13.672,16.113,59.570,0
1490430781.551,44.922,65.430,12.207,48.828,26.855,0
1490430781.555,68.359,90.820,28.320,64.941,68.359,0
1490430781.559,37.109,8.789,45.898,38.574,79.590,0
1490430781.563,47.363,-17.090,72.754,37.109,22.949,0
1490430781.567,19.043,18.555,42.480,20.996,49.316,0
1490430781.571,-2.930,-16.602,49.805,7.812,79.590,0
1490430781.575,61.523,41.992,102.051,70.312,62.988,0
1490430781.579,61.523,50.781,43.945,76.172,62.988,0
1490430781.583,17.090,-0.977,-14.648,30.273,66.895,0
1490430781.587,-7.324,83.008,-4.395,7.812,92.285,0
1490430781.591,6.348,132.324,34.180,8.301,78.613,0
1490430781.594,15.137,60.547,52.734,17.578,39.062,0
1490430781.598,45.898,-15.137,100.098,54.688,64.453,0
1490430781.602,62.012,2.441,84.961,70.312,94.727,0
1490430781.606,36.621,31.250,22.949,44.922,121.582,0
1490430781.610,41.504,10.254,78.125,71.777,66.895,0
1490430781.614,39.551,41.504,58.594,89.355,40.527,0
1490430781.618,65.430,87.891,-3.418,101.074,32.227,0
1490430781.622,62.500,25.879,24.414,82.520,46.875,0
1490430781.626,23.926,23.438,42.480,39.062,63.477,0
1490430781.630,9.277,85.938,38.574,20.996,-4.395,0
1490430781.633,0.488,69.336,40.039,27.832,14.160,0
1490430781.637,-6.348,14.648,38.574,27.344,51.758,0
1490430781.641,-5.371,12.695,-4.883,30.762,11.230,0
1490430781.645,40.039,29.785,5.859,74.707,-2.441,0
1490430781.649,67.383,19.531,93.262,98.633,11.230,0
1490430781.653,44.922,-16.113,74.219,75.684,-28.320,0
1490430781.657,58.105,-13.184,99.121,100.098,-25.391,0
1490430781.661,56.641,33.203,101.562,115.234,32.715,0
1490430781.665,21.484,31.250,9.277,73.242,1.465,0
1490430781.669,52.246,80.078,66.895,69.824,18.555,0
1490430781.673,51.758,45.410,77.637,79.590,36.133,0
1490430781.676,15.137,-84.961,27.832,87.891,64.453,0
1490430781.680,-4.395,-85.449,35.645,47.363,35.156,0
1490430781.684,35.156,28.809,74.219,48.340,27.832,0
1490430781.688,52.734,81.543,63.965,78.613,83.008,0
1490430781.692,1.953,31.250,52.734,31.738,21.484,0
1490430781.696,-30.273,33.203,65.918,-11.719,0.488,0
1490430781.700,-18.066,41.504,59.570,9.766,62.012,0
1490430781.704,-7.324,-29.785,24.414,50.781,74.707,0
1490430781.708,-31.250,-79.590,-19.043,29.785,32.715,0
1490430781.712,-59.082,-27.832,-24.414,-20.020,30.762,0
1490430781.716,-73.242,19.531,-1.953,-29.785,26.367,0
1490430781.719,-59.082,53.711,48.828,-19.043,10.254,0
1490430781.723,-36.133,73.242,72.754,-19.531,53.223,0
1490430781.727,-18.555,-13.672,62.500,0.488,70.312,0
1490430781.731,-22.949,-71.289,68.359,20.020,19.531,0
1490430781.735,-22.949,-37.109,51.758,10.742,-15.137,0
1490430781.739,0.977,6.348,34.668,29.785,0.000,0
1490430781.743,-16.113,-8.301,-15.625,6.836,17.578,0
1490430781.747,-8.301,26.855,11.719,0.000,15.625,0
1490430781.751,33.691,52.246,89.355,50.781,24.414,0
1490430781.755,53.711,3.906,97.168,72.754,51.270,0
1490430781.758,28.320,-23.926,72.266,41.016,68.359,0
1490430781.762,-2.930,15.137,24.902,14.160,77.637,0
1490430781.766,-15.137,39.551,4.395,18.066,78.613,0
1490430781.770,-8.301,46.875,8.301,13.672,23.438,0
1490430781.774,3.418,83.496,49.316,22.461,-22.949,0
1490430781.778,28.809,62.012,71.289,66.895,-2.441,0
1490430781.782,75.684,-13.184,39.551,104.492,37.598,0
1490430781.786,45.898,-36.621,62.012,68.359,42.969,0
1490430781.790,31.250,3.418,47.852,70.312,12.695,0
1490430781.794,64.941,-12.207,30.273,79.590,4.395,0
1490430781.798,52.734,3.418,17.090,50.293,25.879,0
1490430781.801,74.219,80.566,37.109,90.820,28.809,0
1490430781.805,60.059,69.336,51.758,85.938,3.906,0
1490430781.809,31.250,95.215,52.246,54.199,12.695,0
1490430781.813,39.551,74.707,103.027,62.500,44.922,0
1490430781.817,33.203,34.668,42.480,61.035,40.039,3
1490430781.821,48.340,67.871,-2.930,69.824,80.566,0
1490430781.825,76.660,-6.836,44.922,86.914,68.359,0
1490430781.829,56.152,-93.750,34.668,80.078,10.254,0
1490430781.833,8.789,-29.297,23.926,54.688,0.977,0
1490430781.837,16.113,77.148,37.598,47.852,24.902,0
1490430781.841,65.430,119.629,64.453,96.191,41.016,0
1490430781.844,71.289,66.406,73.730,101.074,24.414,0
1490430781.848,46.875,44.922,70.801,65.918,23.438,0
1490430781.852,13.184,131.836,20.996,43.457,40.039,0
1490430781.856,21.484,129.883,19.043,35.645,8.789,0
1490430781.860,44.922,11.230,39.551,38.086,-11.230,0
1490430781.864,34.180,-37.598,51.270,59.082,-24.902,0
1490430781.868,52.734,11.719,87.402,89.844,-13.672,0
1490430781.872,34.668,48.828,60.059,55.176,43.457,0
1490430781.876,71.289,78.613,40.527,74.219,40.527,0
1490430781.880,116.211,14.160,59.570,128.418,61.035,0
1490430781.883,100.586,-59.082,83.984,128.906,50.781,0
1490430781.887,70.312,33.691,54.688,101.074,41.016,0
1490430781.891,39.062,171.387,9.277,74.707,47.363,0
1490430781.895,38.086,160.645,13.672,65.430,-13.672,0
1490430781.899,42.969,84.961,8.789,55.664,-24.414,0
1490430781.903,62.012,53.711,45.410,78.125,12.207,0
1490430781.907,80.078,60.059,63.477,85.938,22.949,0
1490430781.911,74.219,-2.930,53.711,84.473,2.930,0
1490430781.915,54.688,-88.867,44.434,90.820,-6.836,0
1490430781.919,61.523,-15.625,26.855,84.961,20.020,0
1490430781.923,79.590,111.816,64.941,90.820,-40.527,0
1490430781.926,50.293,89.844,44.434,65.918,-16.113,0
1490430781.930,57.617,17.578,79.102,78.613,72.266,0
1490430781.934,65.430,37.598,83.496,92.773,81.543,0
1490430781.938,36.133,75.195,6.836,72.754,116.699,0
1490430781.942,47.852,13.672,24.414,75.684,30.273,0
1490430781.946,85.449,-20.020,96.680,113.770,-44.434,0
1490430781.950,73.730,10.742,80.078,112.305,-21.484,0
1490430781.954,31.738,0.488,-6.348,59.570,-44.434,0
1490430781.958,67.383,76.172,29.785,110.352,-1.953,0
1490430781.962,66.895,113.770,85.938,119.141,53.223,0
1490430781.966,4.395,104.004,47.363,36.621,69.824,0
1490430781.969,43.945,103.027,56.152,70.801,68.359,0
1490430781.973,90.332,0.488,92.285,127.930,7.324,0
1490430781.977,54.199,-39.551,56.641,85.938,-31.250,0
1490430781.981,15.625,30.273,36.621,65.430,12.695,0
1490430781.985,0.977,95.703,25.391,65.918,30.273,0
1490430781.989,14.648,104.492,50.293,60.547,39.062,0
1490430781.993,41.016,77.148,74.219,76.172,34.180,0
1490430781.997,54.199,2.930,65.918,88.379,25.391,0
1490430782.001,55.176,-6.348,11.719,72.754,-14.648,0
1490430782.005,64.453,57.129,2.930,74.219,-62.500,0
1490430782.008,59.570,40.527,48.828,79.590,-1.953,0
1490430782.012,34.180,42.480,68.848,62.500,14.648,0
1490430782.016,40.527,73.242,57.129,55.176,0.977,0
1490430782.020,54.688,37.598,29.297,60.547,17.578,0
1490430782.024,74.219,4.883,71.289,84.961,26.855,0
1490430782.028,116.211,-28.320,99.121,128.906,70.312,0
1490430782.032,96.680,10.254,52.246,119.629,35.156,0
1490430782.036,35.156,165.527,-3.906,50.293,-43.945,0
1490430782.040,18.066,190.918,28.320,26.367,-9.766,0
1490430782.044,6.836,86.426,28.320,31.250,9.766,0
1490430782.048,44.922,57.129,47.852,59.570,-21.973,0
1490430782.051,90.332,85.449,80.078,69.824,-21.973,0
1490430782.055,44.922,-31.738,32.227,26.367,0.488,0
1490430782.059,46.875,-49.316,46.875,38.574,13.184,0
1490430782.063,78.613,41.992,27.832,75.684,3.418,0
1490430782.067,24.902,73.730,-30.273,38.086,6.348,0
1490430782.071,22.461,177.734,39.062,26.367,-5.371,0
1490430782.075,116.699,186.035,129.883,102.051,3.906,0
1490430782.079,53.223,123.047,47.852,53.223,62.012,0
1490430782.083,4.395,169.922,16.602,11.719,61.035,0
1490430782.087,-11.230,136.230,29.785,-21.484,16.602,0
1490430782.091,6.348,83.008,47.363,-4.395,-8.301,0
1490430782.094,45.410,102.539,45.898,41.992,2.930,0
1490430782.098,58.594,29.785,58.594,48.340,12.207,0
1490430782.102,82.520,16.113,73.730,75.684,4.883,0
1490430782.106,58.594,85.449,64.453,55.664,-33.691,0
1490430782.110,51.758,75.684,66.895,36.621,-75.684,0
1490430782.114,62.500,118.652,33.691,54.688,10.742,0
1490430782.118,84.961,186.035,63.965,87.402,60.059,0
1490430782.122,114.258,154.297,118.164,126.953,60.547,0
1490430782.126,117.676,77.637,69.824,126.465,11.230,0
1490430782.130,79.102,48.828,0.488,75.195,-11.230,0
1490430782.133,54.688,60.547,51.270,62.012,23.926,0
1490430782.137,74.219,43.945,114.746,89.844,-7.812,0
1490430782.141,72.266,95.215,90.332,80.078,-4.883,0
1490430782.145,58.594,159.180,30.273,71.289,17.090,0
1490430782.149,57.617,105.957,54.688,91.309,-17.578,0
1490430782.153,77.637,70.312,125.488,108.398,5.859,0
1490430782.157,89.355,68.359,98.145,118.164,26.855,0
1490430782.161,108.398,72.266,52.734,136.719,56.152,0
1490430782.165,93.262,89.844,62.500,105.469,54.199,0
1490430782.169,67.383,90.332,72.754,80.566,10.742,0
1490430782.173,97.656,66.895,103.027,117.188,1.953,0
1490430782.176,79.102,88.379,81.055,105.469,46.387,0
1490430782.180,61.523,168.945,6.836,87.402,68.848,0
1490430782.184,50.293,110.840,-3.906,71.289,36.133,0
1490430782.188,58.594,70.312,43.457,91.309,58.105,0
1490430782.192,105.957,87.891,77.637,125.000,90.332,0
1490430782.196,73.730,-0.488,69.824,82.520,37.598,0
1490430782.200,63.965,21.973,109.863,86.914,19.531,0
1490430782.204,65.430,92.285,92.773,88.379,32.227,0
1490430782.208,64.941,126.953,64.941,71.777,0.977,0
1490430782.212,67.871,97.168,64.941,84.473,25.391,0
1490430782.216,52.734,43.945,62.500,74.219,16.602,0
1490430782.219,64.453,48.828,79.590,69.824,20.020,0
1490430782.223,21.484,79.590,14.648,47.363,18.555,0
1490430782.227,-3.906,101.562,-7.812,24.414,14.160,0
1490430782.231,82.520,125.488,87.402,97.656,46.875,0
1490430782.235,128.906,80.078,122.070,154.785,63.965,0
1490430782.239,60.059,5.859,19.531,91.309,47.852,0
1490430782.243,69.824,17.578,47.852,92.773,45.898,0
1490430782.247,67.383,-9.277,90.820,102.539,37.109,0
1490430782.251,19.531,15.137,39.551,68.359,30.762,0
1490430782.255,26.855,75.195,22.949,66.406,54.688,0
1490430782.258,64.453,107.422,58.105,95.703,66.406,0
1490430782.262,86.426,61.523,120.117,133.789,18.066,0
1490430782.266,45.410,21.973,55.664,92.773,4.883,0
1490430782.270,43.457,103.516,0.977,71.289,65.918,0
1490430782.274,55.664,115.234,43.945,78.125,68.359,0
1490430782.278,62.012,31.250,89.844,68.848,56.152,0
1490430782.282,98.145,-58.594,54.199,116.211,-49.805,0
1490430782.286,62.012,-98.145,-12.695,84.961,-19.043,0
1490430782.290,20.020,56.641,23.438,34.668,88.379,0
1490430782.294,67.871,230.469,48.828,77.148,56.152,0
1490430782.298,96.191,141.113,-15.137,98.145,33.691,0
1490430782.301,69.824,8.301,43.945,89.844,16.113,0
1490430782.305,65.918,13.672,89.355,74.707,8.789,0
1490430782.309,83.984,61.523,86.914,81.055,3.418,0
1490430782.313,68.848,38.086,71.777,75.195,5.371,0
1490430782.317,46.875,51.270,40.527,48.828,43.945,4
1490430782.321,39.062,83.008,6.348,48.828,-17.578,0
1490430782.325,61.035,58.594,22.461,80.078,-45.410,0
1490430782.329,85.938,15.625,69.336,82.031,21.973,0
1490430782.333,53.223,-25.879,54.199,47.363,-9.277,0
1490430782.337,41.016,83.496,19.043,57.617,-46.875,0
1490430782.341,75.684,146.973,46.875,85.938,-1.465,0
1490430782.344,139.160,65.430,135.254,140.625,-22.461,0
1490430782.348,115.234,-33.691,89.844,126.953,-3.906,0
1490430782.352,32.715,-22.949,21.484,54.199,-8.789,0
1490430782.356,34.180,43.945,12.695,55.664,-72.754,0
1490430782.360,32.715,95.703,-0.977,59.570,-42.480,0
1490430782.364,52.246,85.938,39.551,79.102,-15.625,0
1490430782.368,69.824,39.062,65.918,93.750,28.809,0
1490430782.372,27.832,20.996,46.875,59.570,52.734,0
1490430782.376,35.156,-14.160,62.500,65.918,-21.973,0
1490430782.380,55.176,-28.320,79.590,96.191,-12.695,0
1490430782.383,45.410,16.602,42.480,92.285,-2.930,0
1490430782.387,32.715,78.613,59.082,75.195,-16.602,0
1490430782.391,16.602,90.820,87.891,59.082,29.297,0
1490430782.395,27.832,25.879,71.777,65.430,4.395,0
1490430782.399,26.367,-34.180,59.570,61.035,-10.254,0
1490430782.403,34.180,32.227,66.895,64.941,35.645,0
1490430782.407,32.715,65.430,27.832,57.129,42.969,0
1490430782.411,21.484,37.598,-0.488,34.668,-25.879,0
1490430782.415,55.176,85.938,46.387,78.613,20.996,0
1490430782.419,43.945,96.191,58.105,72.754,62.012,0
1490430782.423,60.059,38.574,63.477,74.219,23.926,0
1490430782.426,74.219,-28.809,54.199,100.586,26.855,0
1490430782.430,65.430,13.672,28.320,104.004,23.438,0
1490430782.434,85.938,101.562,45.898,120.117,9.277,0
1490430782.438,90.820,98.633,35.645,100.586,4.395,0
1490430782.442,74.219,18.555,66.895,87.402,-12.695,0
1490430782.446,51.270,-30.273,32.715,75.195,-1.465,0
1490430782.450,56.152,57.129,-31.738,60.547,38.574,0
1490430782.454,109.375,160.645,83.984,99.609,-14.648,0
1490430782.458,79.590,141.113,77.637,79.590,-2.441,0
1490430782.462,46.875,40.039,39.551,47.852,65.430,0
1490430782.466,41.992,-18.066,29.297,47.363,41.016,0
1490430782.469,33.203,10.742,12.695,40.527,15.137,0
1490430782.473,108.887,80.078,114.258,106.934,44.434,0
1490430782.477,124.512,41.504,116.211,114.746,47.852,0
1490430782.481,84.473,31.250,26.367,84.961,59.082,0
1490430782.485,75.684,101.074,-5.859,98.145,26.367,0
1490430782.489,59.570,86.914,41.992,74.219,-24.902,0
1490430782.493,36.621,40.527,54.199,39.062,1.465,0
1490430782.497,24.414,67.383,28.809,28.320,33.691,0
1490430782.501,46.387,83.496,20.996,65.430,57.617,0
1490430782.505,102.051,45.898,1.465,117.676,61.523,0
1490430782.508,104.492,13.672,34.180,112.793,52.734,0
1490430782.512,107.422,20.996,140.137,127.930,24.902,0
1490430782.516,116.211,41.992,144.043,146.973,33.203,0
1490430782.520,63.965,74.219,80.566,97.168,77.637,0
1490430782.524,29.785,101.074,3.906,49.316,46.387,0
1490430782.528,30.273,69.824,3.906,46.875,20.020,0
1490430782.532,41.504,-1.465,45.898,72.754,51.758,0
1490430782.536,47.852,-22.461,36.621,84.473,66.895,0
1490430782.540,33.691,37.109,3.418,60.059,71.777,0
1490430782.544,33.203,75.195,29.785,56.152,108.398,0
1490430782.548,60.547,45.410,75.195,83.008,42.480,0
1490430782.551,92.285,70.801,77.637,124.023,15.137,0
1490430782.555,50.293,74.219,33.691,86.426,55.664,0
1490430782.559,61.035,30.273,52.734,101.562,50.293,0
1490430782.563,99.121,-26.367,87.402,141.113,72.266,0
1490430782.567,60.547,-37.109,23.438,83.984,84.961,0
1490430782.571,33.691,62.988,10.254,48.828,116.211,0
1490430782.575,27.832,113.770,44.434,52.246,20.996,0
1490430782.579,31.738,78.613,43.457,56.152,-6.348,0
1490430782.583,54.199,76.660,67.871,60.547,89.355,0
1490430782.587,35.156,93.262,41.504,48.828,66.406,0
1490430782.591,51.270,67.871,52.734,72.266,27.832,0
1490430782.594,51.270,-8.301,78.125,76.172,67.383,0
1490430782.598,41.504,-21.973,43.457,67.383,74.219,0
1490430782.602,69.336,15.137,20.020,91.797,24.414,0
1490430782.606,76.660,-38.086,19.531,87.402,22.949,0
1490430782.610,67.871,-54.199,70.312,80.078,56.641,0
1490430782.614,22.949,69.824,42.480,55.176,88.379,0
1490430782.618,-0.977,161.621,-62.988,24.902,95.215,0
1490430782.622,36.133,92.773,20.020,62.500,24.902,0
1490430782.626,38.086,-2.930,114.746,63.477,-4.883,0
1490430782.630,42.969,-6.836,23.438,63.477,37.598,0
1490430782.633,107.422,-57.617,30.273,131.348,40.039,0
1490430782.637,102.539,-101.562,123.047,139.160,16.602,0
1490430782.641,-9.277,44.922,29.297,33.691,15.137,0
1490430782.645,-30.762,179.199,-40.527,5.859,-4.883,0
1490430782.649,19.043,95.703,16.113,47.363,-26.855,0
1490430782.653,26.367,20.508,51.270,37.109,-27.344,0
1490430782.657,40.527,-7.812,68.359,58.594,33.203,0
1490430782.661,22.461,-40.527,60.059,69.824,62.500,0
1490430782.665,12.695,21.484,27.344,58.105,17.578,0
1490430782.669,32.227,52.734,12.207,64.941,46.387,0
1490430782.673,-30.762,-2.441,-1.465,12.695,56.641,0
1490430782.676,-51.758,-57.617,-19.043,-1.953,42.969,0
1490430782.680,-27.344,-55.176,31.738,6.836,-22.949,0
1490430782.684,6.836,23.926,99.609,31.250,-24.902,0
1490430782.688,8.789,40.039,64.453,41.504,8.789,0
1490430782.692,-28.320,21.973,-47.852,4.883,25.391,0
1490430782.696,-35.645,34.668,-12.207,-15.625,94.238,0
1490430782.700,-56.641,8.789,42.480,-37.598,50.781,0
1490430782.704,-57.617,-8.301,41.016,-37.598,-29.785,0
1490430782.708,-95.215,-18.555,4.395,-56.641,8.789,0
1490430782.712,-83.008,-21.973,21.973,-39.551,44.434,0
1490430782.716,14.648,-34.180,49.316,36.621,25.391,0
1490430782.719,41.504,-62.012,57.129,76.660,25.391,0
1490430782.723,11.719,-44.434,127.441,76.172,32.715,0
1490430782.727,-61.035,-2.441,79.590,-2.441,26.855,0
1490430782.731,-100.586,25.391,-7.812,-55.664,0.977,0
1490430782.735,-90.820,-19.531,-20.020,-48.828,31.250,0
1490430782.739,-65.918,-66.895,39.551,-36.621,64.453,0
1490430782.743,-73.242,-19.043,14.160,-22.949,59.570,0
1490430782.747,-50.293,-9.277,-23.438,0.488,-10.254,0
1490430782.751,30.273,-26.367,110.840,84.473,12.695,0
1490430782.755,3.906,-7.812,150.879,71.289,84.473,0
1490430782.758,-9.766,19.531,31.738,50.781,52.734,0
1490430782.762,7.324,10.254,-9.766,67.871,59.570,0
1490430782.766,-36.621,-73.730,35.645,27.344,18.555,0
1490430782.770,-27.344,-94.727,115.234,37.109,20.020,0
1490430782.774,-4.395,-25.879,99.121,36.621,42.480,0
1490430782.778,-3.906,-13.672,12.695,34.668,14.160,0
1490430782.782,30.273,-14.160,47.852,78.125,13.672,0
1490430782.786,4.883,7.324,41.016,72.266,41.504,0
1490430782.790,-17.578,-2.930,38.574,55.664,52.734,0
1490430782.794,-0.488,18.066,33.691,50.781,33.691,0
1490430782.798,38.574,36.621,43.457,77.148,43.457,0
1490430782.801,54.688,-29.297,66.406,80.078,39.062,0
1490430782.805,-24.414,-13.184,4.883,11.719,34.668,0
1490430782.809,-19.043,87.402,1.465,32.227,60.059,0
1490430782.813,79.102,47.852,68.359,135.742,52.246,0
1490430782.817,84.473,-113.281,90.820,144.043,31.738,5
1490430782.821,48.340,-91.797,72.754,99.121,86.914,0
1490430782.825,27.832,26.855,-19.531,52.734,37.598,0
1490430782.829,27.344,67.871,-15.625,63.965,-17.578,0
1490430782.833,37.598,62.988,50.781,94.727,10.742,0
1490430782.837,81.543,45.410,17.578,126.465,22.949,0
1490430782.841,95.215,-42.969,18.066,141.113,30.273,0
1490430782.844,35.645,-74.707,9.766,77.148,42.969,0
1490430782.848,24.414,53.711,33.203,76.172,68.359,0
1490430782.852,41.504,93.262,56.641,88.379,20.508,0
1490430782.856,50.293,32.227,63.965,75.195,-24.414,0
1490430782.860,46.875,30.762,52.734,64.453,20.996,0
1490430782.864,73.242,34.668,20.508,101.074,69.824,0
1490430782.868,126.465,16.113,16.602,153.809,62.500,0
1490430782.872,99.609,30.762,69.336,112.793,15.625,0
1490430782.876,30.273,56.641,26.367,47.852,14.160,0
1490430782.880,16.602,61.523,-58.594,35.156,-30.273,0
1490430782.883,32.715,49.316,-68.359,46.387,8.789,0
1490430782.887,45.898,24.414,-21.484,68.848,27.832,0
1490430782.891,65.918,23.438,46.387,95.703,-8.789,0
1490430782.895,87.891,43.457,12.695,105.957,47.363,0
1490430782.899,55.664,-54.688,19.531,58.594,34.668,0
1490430782.903,38.574,-56.641,107.910,35.645,17.090,0
1490430782.907,54.688,9.277,77.148,68.848,42.969,0
1490430782.911,41.992,57.617,-30.762,61.523,44.434,0
1490430782.915,9.277,136.719,-1.953,24.902,62.012,0
1490430782.919,102.051,115.723,90.820,106.934,35.645,0
1490430782.923,136.230,3.906,77.148,163.086,-41.992,0
1490430782.926,66.406,-52.246,10.254,104.980,-10.742,0
1490430782.930,50.293,8.789,-1.465,73.730,27.344,0
1490430782.934,43.457,73.730,31.738,56.152,30.273,0
1490430782.938,30.273,86.426,32.715,40.527,43.945,0
1490430782.942,54.199,98.145,32.715,69.336,-13.672,0
1490430782.946,160.156,86.426,110.352,168.457,-15.625,0
1490430782.950,129.883,32.715,112.305,156.250,68.848,0
1490430782.954,7.812,31.250,15.137,44.922,52.246,0
1490430782.958,22.461,47.852,3.906,39.062,-4.395,0
1490430782.962,51.270,51.270,20.996,62.500,31.738,0
1490430782.966,50.781,10.742,3.906,71.777,46.875,0
1490430782.969,87.402,54.199,-18.066,124.023,9.277,0
1490430782.973,63.965,70.312,17.578,103.027,-1.953,0
1490430782.977,53.711,20.508,87.891,77.148,14.160,0
1490430782.981,117.188,-1.953,84.473,118.652,5.371,0
1490430782.985,108.887,-35.645,61.523,107.422,42.969,0
1490430782.989,66.895,-4.883,60.547,79.102,57.129,0
1490430782.993,33.691,73.242,43.457,44.434,14.648,0
1490430782.997,34.180,131.836,22.461,36.621,23.926,0
1490430783.001,82.520,90.820,25.879,103.027,35.156,0
1490430783.005,68.848,14.648,8.789,91.797,57.129,0
1490430783.008,37.109,-12.695,4.883,48.340,67.871,0
1490430783.012,26.367,-12.207,12.695,43.457,20.020,0
1490430783.016,70.312,77.148,46.387,83.496,-27.832,0
1490430783.020,83.984,31.250,58.594,104.492,-10.742,0
1490430783.024,43.457,32.227,48.340,50.781,-15.137,0
1490430783.028,88.867,193.359,91.309,74.219,5.371,0
1490430783.032,118.164,89.844,31.250,102.539,30.762,0
1490430783.036,29.297,-80.566,-71.289,25.391,70.801,0
1490430783.040,9.277,20.020,-2.441,20.020,95.703,0
1490430783.044,58.105,102.051,72.266,60.059,50.293,0
1490430783.048,106.445,51.758,97.656,95.703,40.527,0
1490430783.051,106.445,47.363,87.891,108.887,46.875,0
1490430783.055,34.668,62.500,37.109,32.715,5.859,0
1490430783.059,94.238,49.316,31.738,77.637,11.230,0
1490430783.063,136.230,10.742,11.230,133.789,2.441,0
1490430783.067,55.664,35.645,14.648,67.871,0.488,0
1490430783.071,34.668,104.004,92.285,59.570,43.457,0
1490430783.075,34.668,33.691,76.172,53.711,28.320,0
1490430783.079,15.137,45.898,3.906,47.852,9.766,0
1490430783.083,28.320,119.141,-12.207,68.848,47.363,0
1490430783.087,8.789,72.266,5.859,43.457,98.145,0
1490430783.091,-21.484,1.953,23.438,12.695,73.730,0
1490430783.094,95.215,-22.461,89.844,109.863,40.527,0
1490430783.098,172.852,41.016,101.074,181.641,24.414,0
1490430783.102,42.969,79.590,-7.812,51.270,1.953,0
1490430783.106,-6.348,134.766,-1.465,3.418,63.965,0
1490430783.110,77.637,115.234,54.199,90.820,38.086,0
1490430783.114,100.586,61.523,52.734,126.465,-10.742,0
1490430783.118,68.848,32.227,70.312,80.566,1.953,0
1490430783.122,108.398,2.930,64.941,100.586,-1.465,0
1490430783.126,68.359,74.219,-45.410,75.195,48.340,0
1490430783.130,-2.930,181.152,-30.273,20.508,39.551,0
1490430783.133,34.668,145.020,136.230,40.527,33.691,0
1490430783.137,64.453,36.621,156.738,68.359,15.137,0
1490430783.141,37.109,-13.672,28.320,59.082,13.672,0
1490430783.145,1.953,36.133,-37.109,25.391,64.941,0
1490430783.149,37.109,109.375,26.855,63.477,55.664,0
1490430783.153,92.773,100.586,84.473,115.723,12.207,0
1490430783.157,87.402,60.547,40.527,111.816,8.301,0
1490430783.161,47.852,65.430,9.277,67.871,22.461,0
1490430783.165,18.066,80.078,28.320,34.668,27.344,0
1490430783.169,-5.859,81.055,57.617,21.484,13.672,0
1490430783.173,-7.324,65.430,95.215,31.250,-12.695,0
1490430783.176,55.176,37.109,101.074,89.355,-0.488,0
1490430783.180,86.914,18.066,78.125,131.836,19.531,0
1490430783.184,44.922,-3.906,46.875,82.520,55.176,0
1490430783.188,16.113,-33.203,-27.344,25.879,62.500,0
1490430783.192,61.523,35.645,22.949,76.172,34.180,0
1490430783.196,87.891,124.512,91.797,125.488,5.371,0
1490430783.200,20.996,123.535,-5.371,57.129,43.457,0
1490430783.204,25.391,95.703,20.996,60.547,63.965,0
1490430783.208,79.590,73.730,117.676,112.793,21.484,0
1490430783.212,61.035,-3.418,104.980,98.633,-5.371,0
1490430783.216,63.965,-19.043,62.988,100.098,34.668,0
1490430783.219,70.801,80.566,89.844,102.539,64.941,0
1490430783.223,55.664,88.867,76.660,67.871,46.387,0
1490430783.227,24.414,63.965,14.648,24.414,35.645,0
1490430783.231,40.527,52.246,11.719,57.617,-16.602,0
1490430783.235,117.188,34.668,82.031,141.113,-25.879,0
1490430783.239,121.094,35.645,88.379,120.117,32.227,0
1490430783.243,88.379,47.363,33.691,90.820,-21.973,0
1490430783.247,64.941,32.715,21.973,88.867,-8.301,0
1490430783.251,84.961,22.461,62.500,94.238,50.781,0
1490430783.255,49.805,42.480,39.551,62.500,37.109,0
1490430783.258,16.602,81.055,56.641,31.250,38.574,0
1490430783.262,31.738,84.961,46.875,36.133,57.129,0
1490430783.266,47.363,46.875,10.254,74.707,-8.789,0
1490430783.270,81.543,28.809,72.754,116.699,-25.879,0
1490430783.274,74.707,27.344,83.984,92.773,4.395,0
1490430783.278,33.203,22.949,41.992,50.781,40.039,0
1490430783.282,42.480,9.277,58.105,72.754,81.543,0
1490430783.286,65.430,-56.641,43.457,99.609,36.133,0
1490430783.290,89.844,-47.852,56.152,125.488,-47.852,0
1490430783.294,56.641,8.789,42.969,95.703,-22.461,0
1490430783.298,-5.859,42.480,-10.742,35.156,59.082,0
1490430783.301,-38.574,25.391,16.113,-11.230,36.621,0
1490430783.305,-71.777,-11.230,50.293,-49.316,22.461,0
1490430783.309,-22.461,41.992,83.984,4.883,58.594,0
1490430783.313,14.160,31.738,40.039,54.199,78.125,0
1490430783.317,-64.453,-33.203,-6.836,-21.973,49.316,0
1490430783.321,-84.961,-28.320,28.320,-53.223,29.297,0
1490430783.325,19.531,-6.836,83.984,47.852,53.223,0
1490430783.329,8.789,-22.461,123.047,35.156,8.301,0
1490430783.333,-65.918,23.926,84.961,-37.598,-2.930,0
1490430783.337,-62.500,77.148,20.020,-35.645,13.184,0
1490430783.341,-100.098,51.758,20.020,-81.055,44.434,0
1490430783.344,-118.164,79.102,38.574,-99.121,85.938,0
1490430783.348,-82.031,63.965,41.992,-72.754,63.477,0
1490430783.352,-63.965,5.371,30.762,-67.383,-0.977,0
1490430783.356,-47.852,-2.930,47.363,-42.969,3.906,0
1490430783.360,20.996,-26.855,166.504,18.066,14.160,0
1490430783.364,-1.953,-74.219,136.719,-3.418,23.926,0
1490430783.368,-58.594,-10.254,57.129,-63.965,8.789,0
1490430783.372,-9.277,93.750,86.426,-12.207,-62.012,0
1490430783.376,-21.484,75.684,5.859,-21.484,-13.184,0
1490430783.380,-52.246,65.918,-11.230,-66.895,60.059,0
1490430783.383,-63.965,93.262,14.648,-70.312,56.152,0
1490430783.387,-53.711,132.812,68.848,-64.453,26.855,0
1490430783.391,-1.465,81.543,96.680,-22.461,57.617,0
1490430783.395,39.551,-48.340,61.523,37.598,64.453,0
1490430783.399,11.719,-62.500,89.844,17.578,41.016,0
1490430783.403,-51.270,73.730,23.438,-56.152,67.871,0
1490430783.407,-21.484,143.555,4.395,-28.809,62.500,0
1490430783.411,40.527,68.359,23.926,31.738,54.688,0
1490430783.415,83.984,29.785,41.992,71.777,-6.836,0
1490430783.419,54.688,52.246,19.043,51.270,-48.340,0
1490430783.423,-16.602,103.027,20.020,-8.789,40.039,0
1490430783.426,-21.484,127.441,72.266,-9.277,42.480,0
1490430783.430,8.301,68.848,37.109,21.973,25.391,0
1490430783.434,-5.859,16.602,27.344,8.789,35.156,0
1490430783.438,8.789,12.207,4.395,13.184,59.570,0
1490430783.442,125.000,6.348,-7.324,114.258,95.703,0
1490430783.446,74.219,5.371,58.105,97.168,89.844,0
1490430783.450,-19.531,83.008,35.156,8.789,15.137,0
1490430783.454,13.672,82.031,5.859,38.086,20.996,0
1490430783.458,31.738,26.855,20.996,63.477,102.539,0
1490430783.462,24.902,52.246,35.645,57.129,109.375,0
1490430783.466,32.227,12.695,21.484,72.754,28.809,0
1490430783.469,41.992,-47.363,2.930,95.215,36.621,0
1490430783.473,44.922,15.137,37.109,86.426,38.086,0
1490430783.477,35.645,8.301,64.941,85.449,-9.766,0
1490430783.481,32.715,26.855,55.176,97.656,37.598,0
1490430783.485,58.594,106.934,76.172,111.328,13.672,0
1490430783.489,58.594,59.570,50.293,107.910,2.930,0
1490430783.493,11.719,32.715,-38.086,59.570,9.277,0
1490430783.497,-1.465,58.594,-48.828,61.523,8.301,0
1490430783.501,9.766,41.504,-18.555,83.496,53.711,0
1490430783.505,61.523,-28.320,15.137,109.375,83.984,0
1490430783.508,112.305,32.227,24.414,126.465,62.500,0
1490430783.512,75.684,90.820,50.293,92.285,18.066,0
1490430783.516,56.152,14.648,123.047,89.355,32.715,0
1490430783.520,41.992,20.020,63.965,88.379,32.227,0
1490430783.524,37.109,81.543,-25.879,75.684,7.324,0
1490430783.528,66.895,48.340,26.367,110.352,34.180,0
1490430783.532,81.055,11.230,24.414,125.000,-16.602,0
1490430783.536,44.434,5.859,-38.086,78.125,0.000,0
1490430783.540,12.207,17.090,25.879,38.574,45.410,0
1490430783.544,9.766,98.145,25.879,34.668,33.691,0
1490430783.548,57.617,115.234,12.695,83.984,57.129,0
1490430783.551,130.371,-27.832,76.172,157.227,15.625,0
1490430783.555,135.254,-50.293,98.633,159.180,5.859,0
1490430783.559,62.500,10.742,23.926,90.820,15.625,0
1490430783.563,17.578,55.176,-78.125,70.801,-3.418,0
1490430783.567,31.250,98.145,-25.879,67.871,-42.480,0
1490430783.571,68.848,61.035,85.938,91.797,-16.602,0
1490430783.575,79.590,6.348,69.824,101.074,0.000,0
1490430783.579,102.051,15.137,56.152,115.723,3.906,0
1490430783.583,128.418,59.082,54.688,130.859,41.992,0
1490430783.587,85.938,84.961,-23.926,72.754,-11.719,0
1490430783.591,73.730,93.262,-11.719,69.336,-8.301,0
1490430783.594,105.957,62.012,45.898,108.398,59.570,0
1490430783.598,74.707,14.160,54.688,72.266,37.598,0
1490430783.602,66.406,-36.133,32.715,57.129,17.578,0
1490430783.606,110.352,-12.695,35.156,91.309,54.199,0
1490430783.610,95.703,27.344,43.457,70.801,46.875,0
1490430783.614,73.242,8.789,22.461,65.430,67.383,0
1490430783.618,77.148,72.754,13.184,73.730,75.195,0
1490430783.622,130.371,163.574,-4.395,112.305,0.488,0
1490430783.626,153.809,116.699,-20.508,141.113,10.254,0
1490430783.630,87.891,-29.297,56.152,79.102,9.277,0
1490430783.633,67.383,-1.953,62.012,53.223,-30.273,0
1490430783.637,73.242,64.941,41.504,63.965,-14.648,0
1490430783.641,66.406,59.570,28.320,42.969,21.973,0
1490430783.645,50.293,33.203,-17.090,15.625,20.020,0
1490430783.649,85.449,5.371,12.695,69.824,-23.438,0
1490430783.653,101.562,1.465,31.250,115.234,-43.945,0
1490430783.657,69.824,45.410,57.617,81.055,22.461,0
1490430783.661,88.867,113.281,74.707,77.637,31.738,0
1490430783.665,70.312,41.504,1.465,65.918,-31.738,0
1490430783.669,28.320,-17.090,29.785,45.410,-17.578,0
1490430783.673,50.293,41.504,73.730,71.289,4.883,0
1490430783.676,87.891,42.480,61.523,99.609,67.383,0
1490430783.680,66.406,43.945,33.691,92.285,84.961,0
1490430783.684,73.242,70.801,107.422,105.957,61.523,0
1490430783.688,90.332,47.363,114.746,106.934,9.766,0
1490430783.692,63.477,4.883,11.230,78.613,-20.508,0
1490430783.696,62.012,8.789,2.441,74.219,-18.555,0
1490430783.700,54.199,2.930,26.367,66.895,6.836,0
1490430783.704,24.902,-17.090,40.039,54.199,76.660,0
1490430783.708,67.871,56.152,98.145,85.449,42.480,0
1490430783.712,36.133,68.359,-2.441,47.852,8.301,0
1490430783.716,-4.395,55.664,-28.320,36.621,47.852,0
1490430783.719,35.645,-13.672,55.664,58.105,-6.836,0
1490430783.723,30.273,-70.312,39.062,37.598,-2.930,0
1490430783.727,58.594,52.246,50.781,72.754,38.086,0
1490430783.731,69.824,84.961,65.918,83.496,26.855,0
1490430783.735,55.176,21.484,52.246,62.500,6.836,0
1490430783.739,71.777,-23.438,17.578,69.336,34.180,0
1490430783.743,54.199,-76.660,55.176,56.641,41.504,0
1490430783.747,1.953,-44.922,75.684,22.461,10.254,0
1490430783.751,-1.953,69.336,26.367,35.645,23.926,0
1490430783.755,41.992,107.910,22.949,63.965,24.902,0
1490430783.758,10.742,12.207,13.184,19.043,38.086,0
1490430783.762,54.688,17.090,42.480,59.082,31.738,0
1490430783.766,85.449,36.621,39.062,92.773,8.789,0
1490430783.770,17.578,20.996,-18.066,41.992,1.953,0
1490430783.774,58.594,62.988,78.125,80.078,6.836,0
1490430783.778,67.871,5.859,97.656,69.336,13.184,0
1490430783.782,-11.719,-28.320,-25.879,9.277,61.035,0
1490430783.786,-14.160,76.172,22.461,10.742,70.801,0
1490430783.790,15.137,108.398,85.938,18.555,7.324,0
1490430783.794,32.715,56.152,41.504,42.480,4.395,0
1490430783.798,76.660,33.691,-35.645,82.031,12.207,0
1490430783.801,40.039,14.160,10.254,55.176,-4.883,0
1490430783.805,69.824,14.648,83.984,86.426,-13.184,0
1490430783.809,124.512,46.387,116.699,132.324,2.930,0
1490430783.813,38.574,31.738,83.008,57.129,70.312,0
1490430783.817,-17.090,8.301,-52.246,-8.789,80.078,0
1490430783.821,2.441,81.543,-25.391,7.324,9.277,0
1490430783.825,70.312,154.785,72.754,72.266,27.832,0
1490430783.829,70.801,125.000,87.402,83.496,5.859,0
1490430783.833,44.922,66.406,43.945,64.941,14.160,0
1490430783.837,44.434,-32.715,-0.488,69.824,20.996,0
1490430783.841,33.691,-60.547,-8.301,62.012,-21.973,0
1490430783.844,41.016,5.859,19.043,61.523,34.180,0
1490430783.848,53.223,44.922,28.320,69.824,62.988,0
1490430783.852,26.855,103.027,25.879,44.434,55.664,0
1490430783.856,24.414,109.863,37.109,58.105,58.594,0
1490430783.860,22.949,45.898,43.945,55.176,41.504,0
1490430783.864,34.668,13.184,78.613,63.477,44.922,0
1490430783.868,92.773,-40.527,102.051,123.535,10.254,0
1490430783.872,57.129,-68.359,85.449,77.637,-17.578,0
1490430783.876,41.016,40.039,47.852,70.312,40.527,0
1490430783.880,52.246,62.500,-9.766,95.703,39.551,0
1490430783.883,17.090,-1.953,-54.199,45.410,42.480,0
1490430783.887,45.898,68.359,-27.344,63.965,49.805,0
1490430783.891,77.637,96.680,54.199,110.840,3.418,0
1490430783.895,58.594,37.109,82.031,85.449,56.641,0
1490430783.899,56.152,44.434,104.492,78.613,45.898,0
1490430783.903,-13.672,18.066,63.477,29.297,23.926,0
1490430783.907,-14.648,7.812,41.992,11.719,18.066,0
1490430783.911,79.590,33.203,103.516,94.238,-13.672,0
1490430783.915,52.246,2.930,70.801,82.031,28.320,0
1490430783.919,48.828,73.242,-17.090,70.801,-13.672,0
1490430783.923,33.203,49.316,-13.672,49.316,-17.090,0
1490430783.926,13.672,-6.836,39.551,24.902,16.113,0
1490430783.930,82.031,43.457,29.297,100.098,-10.742,0
1490430783.934,69.824,44.434,4.883,101.562,-34.180,0
1490430783.938,-15.625,-26.855,54.199,-2.441,-8.789,0
1490430783.942,-13.672,-83.008,68.848,-2.441,51.270,0
1490430783.946,13.672,-92.773,82.031,20.996,78.613,0
1490430783.950,85.938,-86.914,117.676,93.262,62.500,0
1490430783.954,112.793,-48.828,60.059,146.973,47.852,0
1490430783.958,54.199,-0.488,73.242,99.121,20.020,0
1490430783.962,41.504,-12.695,53.223,83.984,-25.391,0
1490430783.966,0.000,13.672,-38.086,37.598,-12.207,0
1490430783.969,-28.809,8.789,-53.223,-6.836,1.953,0
1490430783.973,-1.465,0.977,2.930,17.090,13.672,0
1490430783.977,78.613,58.594,35.156,87.402,48.340,0
1490430783.981,82.031,12.207,16.602,88.379,31.250,0
1490430783.985,42.480,-12.695,114.258,67.383,-18.555,0
1490430783.989,33.691,29.297,181.641,62.988,12.695,0
1490430783.993,7.324,-13.184,98.145,40.527,59.082,0
1490430783.997,-17.578,-35.645,53.711,18.555,18.555,0
1490430784.001,58.594,43.457,33.691,85.938,26.367,0
1490430784.005,112.305,69.824,8.789,148.438,41.992,0
1490430784.008,53.223,26.855,39.551,83.496,26.367,0
1490430784.012,54.199,-12.695,27.832,77.148,14.648,0
1490430784.016,36.133,-83.008,40.039,67.871,-13.672,0
1490430784.020,29.785,-18.066,54.688,48.828,36.621,0
1490430784.024,28.809,62.988,87.402,62.012,35.645,0
1490430784.028,-23.926,37.109,78.125,41.992,28.320,0
1490430784.032,1.953,53.711,46.387,67.871,62.988,0
1490430784.036,71.289,82.520,76.660,118.652,39.062,0
1490430784.040,94.727,26.367,63.477,137.695,1.465,0
1490430784.044,-4.883,-83.496,-25.879,42.969,29.297,0
1490430784.048,-45.410,-40.039,18.066,8.301,16.602,0
1490430784.051,22.949,40.039,95.703,76.660,11.230,0
1490430784.055,43.945,20.020,89.844,101.074,5.859,0
1490430784.059,77.148,-24.414,38.086,129.395,33.203,0
1490430784.063,41.504,-51.758,11.230,86.914,50.293,0
1490430784.067,-17.578,-14.160,61.523,20.020,-14.160,0
1490430784.071,37.598,14.648,74.219,68.359,21.973,0
1490430784.075,67.871,25.879,100.586,113.281,42.969,0
1490430784.079,10.254,71.777,46.875,61.035,24.414,0
1490430784.083,2.930,79.590,-4.395,48.340,47.363,0
1490430784.087,24.902,34.180,-56.152,55.664,44.922,0
1490430784.091,-0.488,19.531,-34.180,25.879,39.551,0
1490430784.094,-2.441,30.762,98.633,18.555,53.223,0
1490430784.098,25.391,59.570,99.121,19.043,43.457,0
1490430784.102,52.246,53.223,81.543,50.781,60.547,0
1490430784.106,20.996,-15.137,80.566,42.480,11.719,0
1490430784.110,29.297,-29.785,79.102,47.363,14.648,0
1490430784.114,52.246,-20.020,33.203,83.984,78.613,0
1490430784.118,49.316,-14.648,-36.133,84.473,84.961,0
1490430784.122,58.594,24.902,54.199,87.891,44.922,0
1490430784.126,18.066,37.598,116.699,47.363,73.242,0
1490430784.130,-36.133,-1.953,12.207,-6.836,125.000,0
1490430784.133,-39.062,32.227,-7.324,1.465,0.000,0
1490430784.137,-2.441,67.383,68.359,43.945,5.859,0
1490430784.141,34.180,52.734,51.270,69.824,62.012,0
1490430784.145,63.965,19.043,44.922,79.102,92.773,0
1490430784.149,53.223,-16.602,110.352,71.777,145.508,0
1490430784.153,-5.859,-53.711,25.879,8.301,33.203,0
1490430784.157,14.648,-22.461,-22.949,24.902,-16.113,0
1490430784.161,74.219,-38.574,68.848,104.492,31.250,0
1490430784.165,3.906,-69.824,37.109,29.297,49.805,0
1490430784.169,-30.762,54.688,4.883,-19.531,10.254,0
1490430784.173,47.852,138.672,45.898,76.172,-1.465,0
1490430784.176,88.379,104.004,68.848,135.742,52.246,0
1490430784.180,46.875,19.043,96.191,80.078,20.508,0
1490430784.184,-27.832,-48.828,62.988,-6.348,22.949,0
1490430784.188,-1.953,-31.738,57.129,21.484,58.594,0
1490430784.192,31.250,-10.742,62.988,57.617,51.758,0
1490430784.196,19.531,35.645,29.785,46.875,4.395,0
1490430784.200,23.438,71.289,9.766,49.805,26.367,0
1490430784.204,33.203,37.109,-5.371,54.199,53.711,0
1490430784.208,25.391,29.297,14.648,53.223,41.016,0
1490430784.212,13.672,40.527,28.320,43.457,31.250,0
1490430784.216,60.547,15.137,85.938,62.012,-2.930,0
1490430784.219,67.383,-29.785,118.652,65.918,-9.277,0
1490430784.223,22.949,-9.766,47.852,49.805,43.457,0
1490430784.227,39.062,65.430,43.945,59.570,26.855,0
1490430784.231,31.250,33.203,25.391,51.758,13.184,0
1490430784.235,35.645,12.207,17.090,74.219,34.668,0
1490430784.239,50.781,53.223,41.992,86.426,23.438,0
1490430784.243,0.488,5.371,-20.020,23.926,-2.441,0
1490430784.247,2.441,1.953,14.648,30.762,19.043,0
1490430784.251,8.301,8.301,36.621,40.527,68.359,0
1490430784.255,16.602,-18.555,24.414,30.273,20.996,0
1490430784.258,33.203,11.230,113.281,53.223,58.594,0
1490430784.262,60.547,36.133,129.395,74.707,135.254,0
1490430784.266,75.195,33.203,-2.441,78.125,57.617,0
1490430784.270,68.848,16.113,-31.738,94.238,36.621,0
1490430784.274,38.086,18.066,56.152,55.664,91.797,0
1490430784.278,8.789,68.848,76.172,36.621,63.477,0
1490430784.282,2.441,79.102,9.766,41.016,9.766,0
1490430784.286,35.645,60.547,37.598,71.289,35.156,0
1490430784.290,17.578,-19.531,77.637,45.898,74.707,0
1490430784.294,-12.207,-52.246,79.102,12.695,12.695,0
1490430784.298,10.254,-48.828,80.566,52.734,27.832,0
1490430784.301,24.414,-66.406,39.551,43.945,21.973,0
1490430784.305,-14.648,-46.875,-63.965,9.277,-15.625,0
1490430784.309,24.902,52.246,-50.781,26.855,22.461,0
1490430784.313,87.402,69.824,57.617,69.824,3.418,0
1490430784.317,49.316,-1.465,59.082,86.914,35.156,0
1490430784.321,13.184,-12.695,57.129,59.570,44.434,0
1490430784.325,-0.977,-10.254,46.875,24.902,26.367,0
1490430784.329,57.129,18.066,76.172,62.500,79.590,0
1490430784.333,57.617,31.738,58.594,65.918,88.379,0
1490430784.337,17.090,31.250,-21.484,32.227,98.145,0
1490430784.341,77.148,32.227,49.805,89.355,118.164,0
1490430784.344,99.609,15.137,99.121,128.418,42.480,0
1490430784.348,12.207,13.184,-3.906,43.457,30.273,0
1490430784.352,-9.766,20.020,11.230,-4.883,104.980,0
1490430784.356,52.734,52.734,72.754,63.965,93.750,0
1490430784.360,62.012,50.293,7.812,81.543,20.020,0
1490430784.364,63.477,16.113,20.508,83.984,44.434,0
1490430784.368,92.773,52.246,94.727,104.004,105.469,0
1490430784.372,105.469,61.523,104.980,105.957,112.793,0
1490430784.376,52.246,-43.945,43.945,82.520,70.312,0
1490430784.380,25.879,-28.320,-2.930,53.223,66.895,0
1490430784.383,2.930,74.219,-16.602,15.137,89.355,0
1490430784.387,22.949,100.586,49.316,46.387,43.457,0
1490430784.391,53.223,69.824,54.688,72.266,38.086,0
1490430784.395,56.641,41.016,61.035,73.242,67.383,0
1490430784.399,80.566,20.508,80.078,98.145,53.711,0
1490430784.403,97.656,-20.508,-15.625,110.840,41.504,0
1490430784.407,92.773,-19.531,51.758,124.023,97.656,0
1490430784.411,58.105,18.066,114.258,98.145,128.906,0
1490430784.415,41.016,37.109,100.586,64.453,46.387,0
1490430784.419,21.484,53.711,69.824,32.715,15.137,0
1490430784.423,33.203,30.273,42.480,26.367,65.918,0
1490430784.426,19.531,-27.832,27.832,20.020,62.988,0
1490430784.430,20.996,0.000,3.418,22.949,53.223,0
1490430784.434,70.312,32.227,-47.363,74.707,53.711,0
1490430784.438,77.637,25.391,-49.805,103.516,-13.184,0
1490430784.442,50.781,17.578,28.809,68.359,85.449,0
1490430784.446,-3.418,38.086,92.773,11.719,121.582,0
1490430784.450,10.742,87.402,107.910,30.762,30.762,0
1490430784.454,42.969,32.227,65.430,35.645,95.703,0
1490430784.458,54.199,4.395,53.711,42.480,119.629,0
1490430784.462,41.504,-17.090,30.273,56.152,41.016,0
1490430784.466,3.418,-47.852,13.184,20.020,46.387,0
1490430784.469,8.789,18.066,20.508,32.227,59.082,0
1490430784.473,34.180,49.316,10.742,58.105,10.742,0
1490430784.477,54.199,61.035,46.875,67.383,74.219,0
1490430784.481,73.242,70.312,68.848,94.238,54.199,0
1490430784.485,38.574,-15.137,17.090,66.406,-2.441,0
1490430784.489,-4.395,-62.988,0.977,20.508,42.969,0
1490430784.493,20.020,-19.531,1.465,39.551,26.367,0
1490430784.497,37.598,22.949,17.090,40.527,38.574,0
1490430784.501,22.461,31.738,15.137,17.578,17.090,0
1490430784.505,30.762,-16.602,13.184,14.648,-9.766,0
1490430784.508,39.062,-24.902,20.996,23.926,17.090,0
1490430784.512,25.391,27.344,15.625,12.695,25.879,0
1490430784.516,17.090,14.648,38.574,1.953,32.227,0
1490430784.520,-5.859,-23.926,8.789,0.000,9.766,0
1490430784.524,-43.457,24.414,-9.766,-26.855,36.621,0
1490430784.528,-17.578,74.219,46.875,-9.277,14.648,0
1490430784.532,39.551,53.711,75.195,44.922,-23.926,0
1490430784.536,6.348,-10.742,-53.223,17.578,63.477,0
1490430784.540,-10.254,-32.227,-46.875,-9.277,73.242,0
1490430784.544,12.695,16.113,65.430,-17.578,96.191,0
1490430784.548,3.418,41.016,66.895,-28.809,52.734,0
1490430784.551,20.996,28.809,91.797,24.902,-18.066,0
1490430784.555,55.664,41.016,68.848,32.227,54.688,0
1490430784.559,53.223,50.293,47.852,13.184,43.457,0
1490430784.563,32.227,19.531,60.547,16.113,34.668,0
1490430784.567,19.531,22.461,-5.859,-5.859,71.289,0
1490430784.571,22.461,47.363,-27.832,-27.344,22.461,0
1490430784.575,43.945,67.383,54.199,7.812,51.270,0
1490430784.579,85.449,84.961,122.070,45.898,13.184,0
1490430784.583,115.234,66.895,77.148,65.430,15.137,0
1490430784.587,92.773,25.391,37.598,61.035,40.039,0
1490430784.591,69.824,17.578,91.309,58.594,3.906,0
1490430784.594,67.383,52.734,97.168,64.941,38.086,0
1490430784.598,39.551,74.219,41.504,21.973,76.172,0
1490430784.602,58.105,96.680,75.684,41.016,77.637,0
1490430784.606,87.891,122.559,40.039,77.637,43.945,0
1490430784.610,89.355,134.766,36.133,76.660,48.340,0
1490430784.614,76.660,148.926,138.184,56.641,10.742,0
1490430784.618,55.664,139.648,77.148,6.836,60.547,0
1490430784.622,49.805,92.773,-56.641,19.531,73.730,0
1490430784.626,104.492,72.754,14.648,95.215,20.508,0
1490430784.630,128.418,47.852,54.688,96.680,20.020,0
1490430784.633,90.820,36.621,22.461,64.941,-13.184,0
1490430784.637,111.328,41.992,99.121,98.633,13.184,0
1490430784.641,179.199,41.992,177.246,178.711,42.969,0
1490430784.645,168.457,91.797,120.117,182.617,30.273,0
1490430784.649,130.859,235.840,90.820,142.578,30.273,0
1490430784.653,145.020,289.062,136.719,140.137,34.180,0
1490430784.657,143.066,215.332,88.867,116.211,55.176,0
1490430784.661,123.047,139.648,46.387,88.867,80.566,0
1490430784.665,161.133,60.547,64.941,131.348,21.484,0
1490430784.669,193.848,94.238,80.078,185.547,30.762,0
1490430784.673,161.621,151.855,86.426,165.527,54.688,0
1490430784.676,160.156,100.586,117.188,167.480,15.625,0
1490430784.680,167.969,35.645,126.465,179.688,0.488,0
1490430784.684,189.453,87.891,133.789,181.641,27.344,0
1490430784.688,179.199,198.242,145.020,174.316,48.828,0
1490430784.692,160.645,164.551,145.020,160.156,60.547,0
1490430784.696,196.777,169.434,162.598,214.844,41.992,0
1490430784.700,218.750,216.797,127.930,240.723,33.203,0
1490430784.704,179.199,184.570,82.520,176.758,42.969,0
1490430784.708,127.930,149.902,88.867,132.324,58.594,0
1490430784.712,180.176,144.531,114.258,194.824,41.016,0
1490430784.716,234.375,154.785,113.281,243.164,16.602,0
1490430784.719,201.172,127.441,151.855,208.496,65.430,0
1490430784.723,193.359,84.473,205.566,192.871,30.762,0
1490430784.727,166.016,96.680,172.363,195.312,32.227,0
1490430784.731,149.902,181.152,107.910,181.641,70.312,0
1490430784.735,145.996,179.199,90.332,163.574,85.938,0
1490430784.739,107.422,140.625,88.379,123.047,35.156,0
1490430784.743,185.059,121.094,166.016,182.129,48.340,0
1490430784.747,206.055,104.492,130.859,197.266,64.453,0
1490430784.751,104.980,181.641,20.020,108.887,14.648,0
1490430784.755,131.836,193.359,111.328,138.672,-4.883,0
1490430784.758,168.457,127.930,144.043,155.762,8.789,0
1490430784.762,118.164,71.289,28.320,122.070,71.777,0
1490430784.766,144.043,43.945,110.840,169.922,65.430,0
1490430784.770,126.953,109.375,142.090,168.457,17.578,0
1490430784.774,39.062,164.062,24.902,94.238,10.742,0
1490430784.778,92.773,172.363,117.676,150.879,60.059,0
1490430784.782,145.020,136.230,140.625,169.434,95.703,0
1490430784.786,137.695,81.543,81.055,137.207,49.316,0
1490430784.790,146.973,55.176,112.305,161.621,38.574,0
1490430784.794,134.277,53.711,56.152,146.484,15.137,0
1490430784.798,134.277,28.320,60.547,146.484,7.812,0
1490430784.801,120.605,-30.762,114.258,156.738,34.668,0
1490430784.805,54.688,53.711,79.102,122.559,13.184,0
1490430784.809,28.809,193.359,81.055,77.637,61.035,0
1490430784.813,56.641,181.152,105.469,100.586,73.242,0
1490430784.817,96.680,138.672,129.395,154.297,30.273,0
1490430784.821,139.160,72.266,113.770,191.406,41.992,0
1490430784.825,114.258,-54.199,40.527,166.992,67.871,0
1490430784.829,72.754,-24.414,36.133,123.535,41.504,0
1490430784.833,43.457,104.492,46.875,98.145,26.367,0
1490430784.837,43.945,156.250,69.824,108.398,37.109,0
1490430784.841,62.988,124.023,79.102,123.047,64.453,0
1490430784.844,73.242,83.984,93.750,110.352,47.852,0
1490430784.848,72.754,25.879,97.168,102.051,9.277,0
1490430784.852,64.941,-4.883,66.895,105.957,5.859,0
1490430784.856,19.043,14.648,-15.137,71.289,13.184,0
1490430784.860,-8.789,45.898,-39.062,35.156,28.320,0
1490430784.864,54.199,19.531,57.129,107.422,40.527,0
1490430784.868,128.418,-10.254,178.223,171.875,4.883,0
1490430784.872,63.965,64.941,161.133,104.980,-20.508,0
1490430784.876,59.570,91.309,31.738,96.680,16.113,0
1490430784.880,70.801,39.062,-17.090,75.684,16.602,0
1490430784.883,3.906,38.574,2.441,27.832,3.906,0
1490430784.887,-4.883,78.125,13.184,37.109,-34.668,0
1490430784.891,58.105,109.863,48.828,101.562,-42.969,0
1490430784.895,84.473,77.148,58.105,128.906,8.301,0
1490430784.899,51.758,20.020,49.316,55.176,-8.301,0
1490430784.903,76.660,50.781,27.344,47.363,-41.016,0
1490430784.907,123.047,31.738,67.383,97.656,-30.273,0
1490430784.911,86.426,-50.781,61.035,84.961,7.812,0
1490430784.915,75.195,12.695,40.527,77.148,12.695,0
1490430784.919,110.840,46.875,66.406,88.379,-23.438,0
1490430784.923,132.812,0.488,40.039,102.051,-33.691,0
1490430784.926,161.133,92.773,75.195,149.414,3.906,0
1490430784.930,117.676,145.996,75.195,120.605,-22.949,0
1490430784.934,61.523,100.098,38.086,65.918,-62.500,0
1490430784.938,52.246,72.266,17.090,68.848,-34.668,0
1490430784.942,51.270,42.480,-47.852,57.129,-17.090,0
1490430784.946,31.738,33.691,-45.410,15.137,10.254,0
1490430784.950,77.637,57.129,80.078,57.129,47.852,0
1490430784.954,146.484,7.812,222.656,109.863,0.977,0
1490430784.958,98.633,-33.203,124.512,60.059,-52.246,0
1490430784.962,97.168,69.824,-29.297,77.637,0.488,0
1490430784.966,72.754,96.680,-50.781,84.473,16.113,0
1490430784.969,21.484,64.941,11.230,54.199,-32.715,0
1490430784.973,37.598,79.590,21.973,66.895,3.906,0
1490430784.977,48.340,33.203,-3.418,78.613,-30.273,0
1490430784.981,59.570,-58.594,65.430,105.469,-89.355,0
1490430784.985,46.875,5.371,108.398,102.539,-17.090,0
1490430784.989,59.082,98.145,67.383,97.656,8.301,0
1490430784.993,62.012,47.363,60.547,89.355,-37.109,0
1490430784.997,35.156,18.555,78.125,79.590,-26.855,0
1490430785.001,27.832,45.898,5.859,61.523,-15.137,0
1490430785.005,17.578,58.105,11.230,38.574,-27.344,0
1490430785.008,20.020,60.059,54.688,52.246,-9.766,0
1490430785.012,17.090,57.617,69.824,66.406,15.137,0
1490430785.016,7.812,-10.254,68.359,69.336,1.465,0
1490430785.020,55.664,-12.695,61.523,112.305,-77.637,0
1490430785.024,81.543,21.973,96.191,123.535,-77.148,0
1490430785.028,21.484,45.410,52.734,54.688,-18.066,0
1490430785.032,-20.020,71.289,2.930,18.555,1.953,0
1490430785.036,7.812,73.242,11.719,39.062,2.930,0
1490430785.040,39.551,46.875,65.430,66.406,-8.301,0
1490430785.044,40.527,-8.789,93.750,62.988,-23.926,0
1490430785.048,34.180,-48.828,37.598,48.340,-38.086,0
1490430785.051,29.785,-21.973,12.207,41.504,-30.273,0
1490430785.055,39.062,67.871,5.859,53.711,-9.277,0
1490430785.059,67.383,112.793,22.461,98.633,-26.855,0
1490430785.063,90.332,65.430,96.680,141.113,-32.715,0
1490430785.067,75.195,12.695,76.172,131.836,-37.109,0
1490430785.071,56.641,0.000,68.359,85.938,-52.246,0
1490430785.075,65.918,22.461,85.449,92.773,-31.738,0
1490430785.079,66.895,33.203,38.086,89.844,-63.477,0
1490430785.083,56.152,42.480,33.691,64.941,-93.750,0
1490430785.087,75.195,80.078,73.730,81.543,-74.707,0
1490430785.091,89.844,45.898,101.074,104.980,-86.426,0
1490430785.094,50.293,-17.090,63.477,71.289,-77.637,0
1490430785.098,67.383,58.594,89.844,66.406,-37.598,0
1490430785.102,95.215,84.473,99.609,111.328,-31.738,0
1490430785.106,45.898,30.273,9.766,104.980,-79.590,0
1490430785.110,35.156,60.059,-20.996,73.730,-82.031,0
1490430785.114,67.871,68.848,14.160,58.594,-76.172,0
1490430785.118,64.453,23.926,69.824,61.035,-83.984,0
1490430785.122,66.406,23.438,107.910,82.520,-87.891,0
1490430785.126,83.984,34.180,83.008,101.074,-108.887,0
1490430785.130,95.703,48.828,65.430,107.422,-109.863,0
1490430785.133,98.145,55.664,114.746,109.863,-127.441,0
1490430785.137,65.430,71.777,52.734,55.176,-102.539,0
1490430785.141,17.578,131.836,-43.457,-3.418,-155.762,0
1490430785.145,44.922,161.621,9.277,41.504,-153.320,0
1490430785.149,101.562,41.504,68.848,96.191,-127.930,0
1490430785.153,98.633,56.641,117.676,115.234,-131.836,0
1490430785.157,88.379,114.746,158.203,102.539,-82.031,0
1490430785.161,41.992,17.090,83.496,46.387,-110.352,0
1490430785.165,63.965,18.066,114.746,77.148,-121.582,0
1490430785.169,118.652,86.426,134.277,136.719,-94.727,0
1490430785.173,123.047,32.715,61.035,146.484,-116.211,0
1490430785.176,93.262,-38.574,12.695,113.770,-41.016,0
1490430785.180,80.078,130.859,27.832,97.656,-30.762,0
1490430785.184,82.520,223.633,98.633,101.074,-88.379,0
1490430785.188,42.480,138.184,86.914,55.664,-77.148,0
1490430785.192,29.297,101.074,44.434,17.090,-80.566,0
1490430785.196,62.500,35.645,49.805,37.598,-98.633,0
1490430785.200,54.688,-9.277,84.473,64.453,-117.188,0
1490430785.204,24.414,63.477,105.469,37.598,-91.309,0
1490430785.208,54.688,132.812,105.469,51.758,-88.867,0
1490430785.212,59.082,116.699,83.984,58.105,-145.996,0
1490430785.216,35.645,101.074,89.844,34.180,-106.934,0
1490430785.219,16.602,75.195,96.191,16.113,-103.027,0
1490430785.223,28.320,-3.418,94.238,24.902,-111.816,0
1490430785.227,41.992,50.293,103.027,21.973,-72.754,0
1490430785.231,18.555,114.746,99.121,-3.906,-86.914,0
1490430785.235,14.648,158.691,119.141,21.484,-125.000,0
1490430785.239,25.391,267.090,126.465,36.133,-78.125,0
1490430785.243,2.930,169.922,93.262,-20.508,-87.402,0
1490430785.247,-21.484,81.543,79.102,-48.340,-149.902,0
1490430785.251,-21.484,152.832,32.227,-33.691,-135.254,0
1490430785.255,-17.090,127.930,32.715,-29.785,-117.676,0
1490430785.258,3.906,33.691,90.332,-8.301,-90.820,0
1490430785.262,33.691,83.496,102.051,-0.488,-87.402,0
1490430785.266,85.938,164.551,106.934,35.645,-99.609,0
1490430785.270,79.590,140.625,79.590,35.156,-67.871,0
1490430785.274,-3.418,138.184,29.785,-60.059,-82.031,0
1490430785.278,-4.395,213.867,32.715,-52.734,-83.496,0
1490430785.282,30.762,212.891,74.219,10.254,-31.250,0
1490430785.286,29.785,64.941,111.816,19.531,-43.457,0
1490430785.290,25.879,70.312,83.496,0.000,-93.750,0
1490430785.294,35.156,161.133,44.434,-1.953,-84.961,0
1490430785.298,86.426,160.645,68.848,67.383,-94.238,0
1490430785.301,88.867,100.586,67.383,92.773,-96.191,0
1490430785.305,59.082,97.168,45.898,54.199,-71.289,0
1490430785.309,61.035,125.977,38.086,45.410,-61.523,0
1490430785.313,87.891,126.465,24.414,74.707,-26.855,0
1490430785.317,128.418,176.270,45.410,99.609,-41.992,0
1490430785.321,148.926,180.176,84.961,139.648,-59.082,0
1490430785.325,126.465,97.656,90.332,131.836,-69.336,0
1490430785.329,94.727,104.004,35.645,85.938,-68.359,0
1490430785.333,61.035,143.555,-23.926,51.758,-30.273,0
1490430785.337,103.516,151.855,41.992,82.520,-29.297,0
1490430785.341,137.695,121.094,56.641,134.277,-37.598,0
1490430785.344,119.629,140.137,-16.113,109.375,-13.672,0
1490430785.348,109.863,184.082,-32.715,83.496,-34.180,0
1490430785.352,118.652,150.879,40.527,118.652,-3.418,0
1490430785.356,177.734,107.422,135.742,203.125,33.203,0
1490430785.360,149.414,95.215,71.289,175.781,27.344,0
1490430785.364,134.277,90.332,33.691,137.695,5.371,0
1490430785.368,122.070,110.352,39.551,113.281,-15.137,0
1490430785.372,167.480,152.344,41.504,140.137,-30.762,0
1490430785.376,193.848,-12.207,54.199,175.293,18.555,0
1490430785.380,102.051,42.969,11.230,97.168,38.574,0
1490430785.383,91.309,290.039,-28.809,68.848,25.391,0
1490430785.387,173.828,228.027,24.414,139.160,26.855,0
1490430785.391,171.875,110.840,68.359,155.762,13.184,0
1490430785.395,91.797,125.000,20.508,94.727,24.414,0
1490430785.399,114.258,181.152,8.789,117.188,-9.766,0
1490430785.403,127.441,138.672,46.875,131.348,-24.414,0
1490430785.407,123.535,41.504,49.805,141.113,-17.090,0
1490430785.411,129.883,80.566,8.301,138.672,-36.133,0
1490430785.415,151.855,174.805,74.219,151.367,0.977,0
1490430785.419,221.680,78.125,113.281,212.891,26.367,0
1490430785.423,153.809,10.254,3.906,168.945,-4.395,0
1490430785.426,72.754,144.531,-17.578,120.605,-21.484,0
1490430785.430,103.027,173.828,22.461,130.371,19.043,0
1490430785.434,94.238,150.879,15.137,120.117,1.465,0
1490430785.438,116.211,107.422,70.312,127.441,0.977,0
1490430785.442,126.465,50.781,95.703,136.230,7.324,0
1490430785.446,88.867,111.328,56.641,116.699,-8.789,0
1490430785.450,78.613,147.461,28.320,112.305,25.391,0
1490430785.454,125.488,169.434,68.848,147.949,46.387,0
1490430785.458,162.598,85.449,134.766,184.570,-8.301,0
1490430785.462,141.602,-25.391,70.801,170.898,-49.316,0
1490430785.466,110.352,94.727,27.832,133.301,-51.270,0
1490430785.469,84.473,153.320,16.602,101.074,-41.016,0
1490430785.473,91.797,145.996,2.930,107.910,-16.602,0
1490430785.477,92.773,176.758,56.641,98.633,-88.379,0
1490430785.481,76.660,118.652,73.730,67.383,-38.086,0
1490430785.485,94.727,2.930,95.703,79.102,42.969,0
1490430785.489,100.098,35.156,95.703,100.098,7.812,0
1490430785.493,77.637,170.410,15.625,86.914,16.602,0
1490430785.497,74.707,199.219,-18.555,77.148,62.012,0
1490430785.501,106.934,166.504,42.480,97.656,52.246,0
1490430785.505,141.113,79.102,87.891,123.047,-6.348,0
1490430785.508,116.211,61.035,55.176,93.262,18.066,0
1490430785.512,95.215,62.012,61.523,75.195,47.852,0
1490430785.516,102.539,-23.926,42.480,83.496,-34.180,0
1490430785.520,88.379,59.570,17.090,63.477,-10.254,0
1490430785.524,93.750,209.473,32.227,56.152,41.992,0
1490430785.528,103.027,201.172,48.340,77.148,32.715,0
1490430785.532,78.613,111.816,71.777,87.402,46.875,0
1490430785.536,93.262,99.121,65.918,104.004,55.176,0
1490430785.540,94.727,139.160,30.273,104.492,-14.648,0
1490430785.544,78.125,65.918,29.785,104.980,-67.871,0
1490430785.548,69.824,39.551,52.734,83.984,-4.883,0
1490430785.551,90.332,125.977,65.430,81.055,-14.160,0
1490430785.555,137.695,186.523,82.031,129.395,-14.648,0
1490430785.559,147.461,111.328,70.312,151.367,24.902,0
1490430785.563,104.492,41.504,51.758,107.910,9.277,0
1490430785.567,50.781,121.094,55.664,35.156,17.090,0
1490430785.571,60.059,104.004,71.289,24.414,3.906,0
1490430785.575,78.125,39.551,13.184,34.180,11.719,0
1490430785.579,92.285,73.242,19.531,45.410,-6.836,0
1490430785.583,88.867,66.406,59.082,81.543,-29.785,0
1490430785.587,70.801,80.566,19.043,80.078,6.348,0
1490430785.591,52.246,145.508,25.391,64.941,4.395,0
1490430785.594,50.781,172.363,62.500,71.777,-22.949,0
1490430785.598,41.992,194.336,43.945,15.625,3.906,0
1490430785.602,52.734,153.809,46.387,21.484,-18.555,0
1490430785.606,70.312,96.191,36.133,27.344,5.371,0
1490430785.610,102.539,73.242,27.344,10.742,36.133,0
1490430785.614,104.492,4.395,65.430,53.223,-3.418,0
1490430785.618,83.008,23.926,106.445,62.012,2.441,0
1490430785.622,114.258,98.633,98.633,99.609,-21.484,0
1490430785.626,74.219,111.816,3.418,59.570,-22.949,0
1490430785.630,10.254,137.207,-47.363,-9.277,13.184,0
1490430785.633,18.066,157.227,0.977,-6.836,-12.207,0
1490430785.637,50.293,187.500,51.270,38.574,-23.926,0
1490430785.641,38.574,152.344,45.898,36.133,-46.387,0
1490430785.645,23.438,112.793,37.109,-3.906,-20.996,0
1490430785.649,43.457,79.102,21.973,18.555,4.883,0
1490430785.653,35.156,49.316,51.270,21.973,-8.301,0
1490430785.657,66.895,43.945,102.539,62.012,2.441,0
1490430785.661,76.660,-5.859,92.773,116.699,4.395,0
1490430785.665,0.000,36.621,39.062,36.621,-20.996,0
1490430785.669,27.344,122.070,38.086,32.227,9.277,0
1490430785.673,47.852,131.348,38.574,55.664,25.879,0
1490430785.676,-2.441,134.766,10.742,11.230,-45.898,0
1490430785.680,16.602,153.809,40.527,23.926,-44.434,0
1490430785.684,64.453,151.367,82.520,42.480,-20.020,0
1490430785.688,58.594,112.305,91.797,25.879,-48.828,0
1490430785.692,57.129,82.520,33.691,25.879,-23.438,0
1490430785.696,55.664,96.680,10.742,41.992,23.438,0
1490430785.700,73.242,126.953,39.062,60.059,24.902,0
1490430785.704,102.539,103.027,50.293,56.152,-10.254,0
1490430785.708,82.031,50.293,41.992,19.531,-47.852,0
1490430785.712,104.004,48.828,47.363,40.527,-40.039,0
1490430785.716,102.539,28.809,38.574,46.387,-33.691,0
1490430785.719,109.375,40.039,45.898,35.156,-14.648,0
1490430785.723,121.094,95.215,69.824,12.207,-26.367,0
1490430785.727,130.859,137.695,45.410,30.762,-46.875,0
1490430785.731,154.785,92.285,41.016,62.012,-29.297,0
1490430785.735,167.969,63.965,72.266,71.289,-24.414,0
1490430785.739,168.945,91.309,48.340,76.660,3.418,0
1490430785.743,140.625,107.910,6.836,50.781,20.996,0
1490430785.747,163.086,112.793,36.621,86.426,36.133,0
1490430785.751,168.945,114.258,54.199,75.195,25.391,0
1490430785.755,171.387,104.492,61.523,71.289,6.836,0
1490430785.758,170.898,82.031,54.199,97.656,5.371,0
1490430785.762,131.348,140.625,11.230,57.129,15.625,0
1490430785.766,120.117,192.383,5.859,44.922,77.637,0
1490430785.770,161.621,152.832,61.523,78.125,35.645,0
1490430785.774,183.594,33.691,72.266,68.359,-19.531,0
1490430785.778,183.594,46.387,52.734,32.227,48.340,0
1490430785.782,176.270,176.758,27.344,15.137,41.016,0
1490430785.786,150.391,211.914,-12.695,27.344,5.859,0
1490430785.790,172.852,124.023,42.969,46.387,35.156,0
1490430785.794,215.332,42.480,52.246,72.266,109.863,0
1490430785.798,208.496,52.246,9.277,51.270,224.609,0
1490430785.801,207.520,92.285,27.832,26.855,417.480,0
1490430785.805,223.633,77.637,64.453,46.875,599.121,0
1490430785.809,201.172,70.801,56.641,31.738,645.020,0
1490430785.813,227.051,124.512,46.875,42.969,634.277,0
1490430785.817,222.168,126.953,73.242,51.270,690.430,0
1490430785.821,186.035,115.723,56.152,4.395,640.625,0
1490430785.825,187.500,145.508,-13.672,-3.418,665.039,0
1490430785.829,200.195,147.461,3.418,38.086,938.477,0
1490430785.833,217.773,99.121,30.762,27.832,-987.793,0
1490430785.837,230.957,68.359,27.832,42.480,989.258,0
1490430785.841,232.422,47.852,33.203,68.359,-999.512,0
1490430785.844,247.559,71.289,50.293,69.824,999.512,0
1490430785.848,268.555,112.793,83.984,74.219,999.512,0
1490430785.852,245.605,104.492,75.684,58.105,999.512,0
1490430785.856,200.684,135.742,57.617,24.902,999.512,0
1490430785.860,208.984,159.180,30.273,4.395,999.512,0
1490430785.864,214.844,152.832,2.441,-10.254,999.512,0
1490430785.868,230.957,133.789,20.508,13.184,999.512,0
1490430785.872,240.234,100.098,29.785,42.480,999.512,0
1490430785.876,242.676,77.148,29.297,33.203,999.512,0
1490430785.880,240.723,119.629,38.086,50.781,999.512,0
1490430785.883,238.281,133.789,65.430,41.504,999.512,0
1490430785.887,255.859,71.777,31.738,23.438,999.512,0
1490430785.891,266.113,67.383,41.016,37.109,999.512,0
1490430785.895,292.480,41.992,98.633,77.148,999.512,0
1490430785.899,302.734,54.688,98.633,71.777,999.512,0
1490430785.903,301.758,157.715,57.617,28.809,999.512,0
1490430785.907,314.941,174.805,57.129,54.199,999.512,0
1490430785.911,285.156,132.324,45.410,40.527,999.512,0
1490430785.915,278.320,163.086,20.996,9.766,999.512,0
1490430785.919,255.859,190.918,23.926,10.742,999.512,0
1490430785.923,232.422,164.551,24.414,21.484,999.512,0
1490430785.926,212.402,123.535,1.953,15.625,999.512,0
1490430785.930,223.145,106.934,35.645,36.133,999.512,0
1490430785.934,272.949,71.289,87.402,70.312,999.512,0
1490430785.938,278.320,22.461,92.285,55.664,999.512,0
1490430785.942,261.719,104.492,136.230,30.762,999.512,0
1490430785.946,274.414,172.363,112.793,46.387,999.512,0
1490430785.950,245.605,162.598,12.695,59.082,999.512,0
1490430785.954,202.148,170.410,-20.996,36.621,999.512,0
1490430785.958,188.965,161.133,-20.996,12.207,999.512,0
1490430785.962,202.148,177.246,27.344,22.461,999.512,0
1490430785.966,223.145,179.688,73.730,34.668,999.512,0
1490430785.969,218.750,140.625,54.688,35.156,999.512,0
1490430785.973,207.520,110.352,57.129,18.555,999.512,0
1490430785.977,194.336,94.727,74.707,19.531,999.512,0
1490430785.981,184.082,90.820,58.105,28.809,999.512,0
1490430785.985,226.562,58.594,59.570,37.598,999.512,0
1490430785.989,215.332,48.340,58.594,29.297,999.512,0
1490430785.993,185.059,108.887,32.227,33.691,999.512,0
1490430785.997,181.641,187.012,32.227,60.547,999.512,0
1490430786.001,161.621,171.875,34.180,49.805,-1000.000,0
1490430786.005,162.598,87.891,14.648,22.949,998.535,0
1490430786.008,163.574,98.145,27.344,11.719,975.586,0
1490430786.012,196.289,154.785,71.289,41.016,-976.074,0
1490430786.016,192.383,123.047,69.336,33.203,704.590,0
1490430786.020,155.273,108.887,45.898,15.137,-192.383,0
1490430786.024,155.762,125.488,61.035,19.531,-836.426,0
1490430786.028,153.809,116.699,52.246,25.391,-999.023,0
1490430786.032,158.203,129.395,43.457,48.340,-678.711,0
1490430786.036,166.992,114.258,83.008,50.781,-289.062,0
1490430786.040,160.645,64.453,64.941,28.809,-696.289,0
1490430786.044,130.859,17.578,-1.953,-0.977,-997.070,0
1490430786.048,137.207,80.566,8.301,0.000,-945.801,0
1490430786.051,161.133,148.438,37.109,27.344,-967.285,0
1490430786.055,161.133,122.559,52.734,44.434,-960.449,0
1490430786.059,149.902,112.305,66.895,15.137,-941.895,0
1490430786.063,132.812,128.418,35.645,-18.555,-874.023,0
1490430786.067,124.023,114.258,-4.883,-9.766,-842.285,0
1490430786.071,152.344,104.004,37.109,26.367,-932.617,0
1490430786.075,191.406,134.277,56.641,44.922,-843.262,0
1490430786.079,149.902,109.863,26.855,16.113,-918.945,0
1490430786.083,125.488,97.656,45.898,33.203,-827.637,0
1490430786.087,155.762,111.328,74.707,69.824,404.785,0
1490430786.091,133.789,93.262,54.688,37.598,911.621,0
1490430786.094,116.699,67.383,54.688,11.719,726.562,0
1490430786.098,130.859,60.547,52.734,11.719,787.109,0
1490430786.102,151.855,125.000,45.410,5.371,545.410,0
1490430786.106,151.367,126.465,50.293,14.160,755.371,0
1490430786.110,129.883,68.848,20.020,30.273,910.645,0
1490430786.114,122.559,8.301,-5.859,9.766,742.188,0
1490430786.118,108.398,40.527,27.832,-18.066,594.238,0
1490430786.122,138.672,155.273,68.848,9.766,698.242,0
1490430786.126,170.898,170.898,83.008,51.270,782.227,0
1490430786.130,130.371,95.215,31.250,18.555,790.039,0
1490430786.133,113.281,104.980,14.160,13.672,717.285,0
1490430786.137,117.188,111.328,43.457,14.160,529.297,0
1490430786.141,88.379,104.980,14.648,-20.020,537.109,0
1490430786.145,97.656,120.605,5.371,-7.812,673.340,0
1490430786.149,132.812,98.633,71.289,25.879,774.414,0
1490430786.153,128.906,93.262,75.195,21.484,889.160,0
1490430786.157,144.531,98.633,42.480,18.066,889.648,0
1490430786.161,121.094,63.477,15.625,-2.441,888.184,0
1490430786.165,104.492,73.242,24.902,0.000,954.102,0
1490430786.169,141.602,106.445,46.875,41.016,-986.816,0
1490430786.173,125.000,106.934,38.574,36.621,959.961,0
1490430786.176,98.145,119.629,32.227,20.020,855.957,0
1490430786.180,152.344,112.793,83.008,42.969,954.590,0
1490430786.184,145.020,42.480,68.848,54.199,994.141,0
1490430786.188,96.680,-21.973,-4.395,33.203,923.828,0
1490430786.192,111.816,34.668,37.109,39.551,912.598,0
1490430786.196,105.469,79.102,68.848,39.551,900.879,0
1490430786.200,89.355,119.629,46.875,25.879,957.031,0
1490430786.204,78.613,161.621,20.020,16.602,-995.117,0
1490430786.208,57.617,96.191,25.879,4.883,996.582,0
1490430786.212,80.078,82.031,50.293,19.531,999.023,0
1490430786.216,98.633,118.164,69.336,34.180,999.512,0
1490430786.219,70.801,91.309,40.527,24.902,999.512,0
1490430786.223,54.199,58.594,2.441,20.508,999.512,0
1490430786.227,37.109,50.293,21.484,9.766,999.512,0
1490430786.231,39.551,42.969,30.273,9.277,999.512,0
1490430786.235,49.316,87.891,35.156,-5.371,999.512,0
1490430786.239,81.055,96.191,86.426,34.180,999.023,0
1490430786.243,91.797,54.199,88.379,77.148,999.512,0
1490430786.247,61.523,147.461,77.637,48.340,998.535,0
1490430786.251,28.809,176.758,38.086,23.926,997.559,0
1490430786.255,28.809,150.879,2.930,20.508,999.512,0
1490430786.258,64.453,141.113,26.855,36.621,999.512,0
1490430786.262,68.359,42.480,23.926,30.273,999.023,0
1490430786.266,49.316,-8.789,23.926,19.531,999.512,0
1490430786.270,55.176,39.062,62.012,28.320,999.512,0
1490430786.274,66.895,82.031,44.434,33.691,999.512,0
1490430786.278,61.523,91.797,36.133,42.969,999.512,0
1490430786.282,60.547,59.570,58.594,36.133,999.512,0
1490430786.286,47.852,23.926,58.105,26.855,999.512,0
1490430786.290,53.711,63.477,62.500,46.875,999.512,0
1490430786.294,63.477,98.145,78.613,57.129,999.512,0
1490430786.298,46.387,24.902,48.828,29.297,999.512,0
1490430786.301,31.738,-9.277,33.691,30.762,999.512,0
1490430786.305,-0.488,52.734,44.434,23.438,999.512,0
1490430786.309,-55.664,95.703,65.430,2.930,999.512,0
1490430786.313,-133.301,95.215,76.172,-20.020,999.512,0
1490430786.317,-98.145,78.125,62.988,-15.625,999.512,0
1490430786.321,-32.715,54.199,51.758,-28.809,999.512,0
1490430786.325,-27.344,15.625,35.156,-69.824,999.512,0
1490430786.329,-22.949,12.207,47.852,-80.566,999.512,0
1490430786.333,-8.301,-6.348,54.199,-84.473,999.512,0
1490430786.337,23.926,-1.465,87.891,-59.082,999.512,0
1490430786.341,-7.324,24.414,83.984,-63.477,999.512,0
1490430786.344,-34.180,8.789,52.734,-55.176,999.512,0
1490430786.348,-25.391,21.973,53.711,-38.086,999.512,0
1490430786.352,-18.555,23.438,71.777,-49.316,999.512,0
1490430786.356,-19.043,-9.766,74.219,-75.684,999.512,0
1490430786.360,-24.902,28.809,28.320,-86.426,999.512,0
1490430786.364,-32.715,65.918,30.762,-88.867,999.512,0
1490430786.368,-21.973,24.414,85.449,-70.801,999.512,0
1490430786.372,-7.812,-19.531,62.012,-66.895,999.512,0
1490430786.376,-18.066,-13.672,39.551,-104.980,999.512,0
1490430786.380,-9.277,30.762,40.039,-91.797,999.512,0
1490430786.383,36.133,41.016,40.527,-42.480,999.512,0
1490430786.387,65.430,18.066,66.406,-30.762,999.512,0
1490430786.391,37.598,-16.602,33.203,-38.086,999.512,0
1490430786.395,14.648,35.156,3.418,-46.875,999.512,0
1490430786.399,47.363,65.918,60.059,-37.598,999.512,0
1490430786.403,41.016,26.855,60.059,-50.781,999.512,0
1490430786.407,28.809,23.438,33.203,-66.406,-999.023,0
1490430786.411,72.266,21.973,66.406,-12.695,990.723,0
1490430786.415,52.246,13.672,53.223,-9.277,-981.445,0
1490430786.419,31.738,48.340,17.090,-28.809,936.523,0
1490430786.423,26.367,66.406,8.301,-31.738,876.953,0
1490430786.426,14.160,64.941,20.508,-62.988,900.391,0
1490430786.430,44.434,79.590,50.293,-38.574,868.652,0
1490430786.434,59.082,47.852,57.129,-18.555,990.723,0
1490430786.438,46.387,6.348,58.594,-27.832,996.582,0
1490430786.442,61.035,-13.184,42.969,-20.020,971.191,0
1490430786.446,56.152,6.836,49.805,-23.438,997.559,0
1490430786.450,25.391,-26.855,51.758,-5.859,994.141,0
1490430786.454,61.523,-65.918,35.645,65.918,999.512,0
1490430786.458,55.176,-21.973,12.207,47.852,966.797,0
1490430786.462,58.594,49.316,-3.906,35.645,933.594,0
1490430786.466,52.734,96.680,-23.438,25.879,927.246,0
1490430786.469,17.578,72.266,15.625,-17.090,882.812,0
1490430786.473,24.414,74.219,78.125,-8.301,788.086,0
1490430786.477,49.805,86.914,99.609,8.789,693.848,0
1490430786.481,81.543,22.949,83.008,44.922,629.395,0
1490430786.485,66.895,-16.113,29.785,15.137,616.699,0
1490430786.489,121.582,3.418,42.480,31.738,247.559,0
1490430786.493,144.531,5.371,22.461,48.828,-317.383,0
1490430786.497,111.816,48.828,9.277,18.555,-228.027,0
1490430786.501,125.488,88.379,56.641,35.645,-188.965,0
1490430786.505,120.605,139.160,50.293,40.039,-304.688,0
1490430786.508,91.309,127.441,20.508,11.230,-282.227,0
1490430786.512,75.684,83.984,13.184,12.695,-270.508,0
1490430786.516,75.195,25.391,12.207,32.227,-249.512,0
1490430786.520,75.684,35.645,14.160,28.320,-236.816,0
1490430786.524,74.707,89.844,42.480,49.805,-189.453,0
1490430786.528,47.363,57.617,-8.789,59.082,-168.945,0
1490430786.532,45.898,67.383,-10.742,73.242,-200.195,0
1490430786.536,46.875,110.352,81.543,68.848,-269.043,0
1490430786.540,52.734,115.234,85.938,78.125,-234.863,0
1490430786.544,38.574,122.559,57.129,99.121,-200.195,0
1490430786.548,-4.395,135.742,10.254,32.715,-157.715,0
1490430786.551,32.715,170.410,-1.953,26.367,-99.609,0
1490430786.555,72.754,185.547,34.668,52.246,-55.176,0
1490430786.559,46.387,101.074,-10.254,62.500,-27.344,0
1490430786.563,47.363,82.031,-22.461,84.473,-11.719,0
1490430786.567,42.480,187.988,25.391,50.781,28.320,0
1490430786.571,53.223,171.875,26.855,51.758,90.332,0
1490430786.575,56.641,60.547,45.410,71.777,128.906,0
1490430786.579,55.176,86.426,76.660,92.773,161.133,0
1490430786.583,87.402,128.418,66.895,120.117,218.262,0
1490430786.587,57.129,108.887,58.105,92.285,260.742,0
1490430786.591,17.090,144.531,20.996,41.992,256.836,0
1490430786.594,0.977,122.559,-4.883,33.691,228.516,0
1490430786.598,10.254,103.027,-10.742,68.848,247.559,0
1490430786.602,47.363,162.109,19.043,94.727,289.062,0
1490430786.606,81.543,130.371,61.523,115.723,266.113,0
1490430786.610,53.711,104.004,16.113,62.988,224.121,0
1490430786.614,55.664,137.695,31.738,75.684,169.434,0
1490430786.618,87.402,61.035,92.285,118.652,-18.066,0
1490430786.622,62.012,36.621,53.223,89.844,-161.133,0
1490430786.626,71.289,82.520,28.320,104.980,-172.363,0
1490430786.630,50.293,59.082,36.133,77.637,-151.855,0
1490430786.633,-7.812,114.258,0.000,42.480,-143.555,0
1490430786.637,6.348,238.770,40.039,69.336,-539.551,0
1490430786.641,11.719,145.508,62.988,38.574,-968.750,0
1490430786.645,-2.441,72.754,1.465,35.645,-977.051,0
1490430786.649,8.789,148.438,0.488,63.965,-903.320,0
1490430786.653,-0.977,143.555,-13.184,28.320,-706.543,0
1490430786.657,-3.906,94.727,20.996,24.414,-815.918,0
1490430786.661,-5.859,67.871,76.660,31.250,-987.793,0
1490430786.665,-0.977,48.828,50.781,47.852,-954.590,0
1490430786.669,36.133,28.809,56.641,75.195,-865.723,0
1490430786.673,43.457,61.523,66.406,73.730,-752.441,0
1490430786.676,48.828,121.582,56.641,70.312,-790.039,0
1490430786.680,41.016,180.176,61.035,52.734,-792.969,0
1490430786.684,41.504,216.309,-6.348,55.664,-642.090,0
1490430786.688,62.500,174.805,-46.387,65.918,-518.066,0
1490430786.692,45.898,113.770,31.738,69.824,-467.285,0
1490430786.696,30.762,97.656,54.199,56.152,-474.609,0
1490430786.700,50.293,118.652,61.523,46.875,-443.848,0
1490430786.704,37.109,130.371,52.734,45.898,-308.105,0
1490430786.708,51.270,103.516,50.293,73.730,-195.312,0
1490430786.712,92.285,93.262,61.035,78.125,-231.445,0
1490430786.716,49.316,80.566,22.461,36.621,-246.582,0
1490430786.719,49.316,152.832,35.156,58.105,-169.922,0
1490430786.723,89.844,190.430,76.172,65.918,-168.457,0
1490430786.727,92.285,181.641,49.805,49.805,-206.055,0
1490430786.731,82.031,179.688,18.066,61.035,-170.410,0
1490430786.735,43.457,165.527,-4.883,44.922,-214.355,0
1490430786.739,35.645,129.395,15.137,32.227,-310.547,0
1490430786.743,64.941,63.965,23.926,73.242,-240.234,0
1490430786.747,63.965,70.312,-32.715,90.332,-142.090,0
1490430786.751,31.738,139.648,-13.184,23.438,-71.777,0
1490430786.755,26.855,173.828,41.992,-1.953,-18.555,0
1490430786.758,36.133,156.738,53.223,28.320,120.605,0
1490430786.762,46.875,207.520,83.496,56.641,238.281,0
1490430786.766,55.176,206.055,114.258,69.824,381.836,0
1490430786.770,50.293,147.949,68.359,66.406,581.543,0
1490430786.774,44.922,105.469,10.254,77.148,495.605,0
1490430786.778,72.266,72.266,7.812,123.047,402.832,0
1490430786.782,20.508,59.082,30.762,48.340,499.512,0
1490430786.786,-3.418,118.164,28.320,7.324,522.949,0
1490430786.790,30.762,232.422,16.602,74.707,471.680,0
1490430786.794,32.227,283.203,21.973,71.289,477.539,0
1490430786.798,10.254,204.102,65.430,29.785,489.258,0
1490430786.801,-13.672,114.746,41.504,9.766,432.129,0
1490430786.805,22.461,120.117,51.758,47.852,368.164,0
1490430786.809,47.852,152.832,104.492,84.961,402.344,0
1490430786.813,34.668,104.492,81.055,91.797,425.293,0
1490430786.817,5.859,49.316,10.254,54.688,401.367,0
1490430786.821,-2.930,132.812,-24.902,21.484,377.441,0
1490430786.825,29.785,198.730,28.809,52.246,393.066,0
