timestamps,TP9,AF7,AF8,TP10,Right AUX,Marker0
1484095940.370,23.438,28.809,30.273,46.875,22.949,0
1484095940.374,25.879,30.273,34.668,48.340,17.090,0
1484095940.378,31.250,26.855,33.203,52.734,4.883,0
1484095940.382,28.809,20.996,30.273,52.246,32.715,0
1484095940.386,24.414,17.090,27.344,46.387,46.875,0
1484095940.390,25.391,21.973,23.926,41.016,54.199,0
1484095940.394,23.438,26.855,28.320,43.457,52.734,0
1484095940.397,15.137,22.461,31.250,38.574,11.230,0
1484095940.401,11.719,19.531,30.273,35.645,1.465,0
1484095940.405,14.160,21.973,28.809,41.504,-10.742,0
1484095940.409,11.230,25.879,24.902,41.016,27.344,0
1484095940.413,9.277,27.344,25.391,42.480,69.336,0
1484095940.417,9.277,25.879,25.391,45.898,58.594,0
1484095940.421,8.301,24.414,21.973,43.945,20.508,0
1484095940.425,13.672,25.391,21.973,47.363,-35.645,0
1484095940.429,14.648,22.461,24.414,45.410,-21.973,0
1484095940.433,17.090,20.508,22.949,42.969,-23.926,0
1484095940.436,20.996,22.949,23.926,44.922,-27.832,0
1484095940.440,26.367,21.484,30.762,44.922,-11.719,0
1484095940.444,28.809,21.484,31.250,44.434,-28.809,0
1484095940.448,27.344,23.926,25.391,45.410,29.785,0
1484095940.452,29.297,26.855,25.391,46.875,7.812,0
1484095940.456,32.227,27.344,23.438,49.805,-8.789,0
1484095940.460,32.227,33.691,15.137,46.875,40.039,0
1484095940.464,31.738,37.598,14.648,42.969,42.480,0
1484095940.468,34.668,36.133,15.625,45.410,17.578,0
1484095940.472,36.133,37.109,16.602,43.457,-33.691,0
1484095940.476,41.992,40.527,21.484,46.875,9.766,0
1484095940.479,42.969,42.480,18.555,48.828,9.277,0
1484095940.483,30.273,41.016,13.672,43.945,8.789,0
1484095940.487,27.832,39.062,17.090,46.875,41.992,0
1484095940.491,26.367,38.086,19.043,48.340,25.391,0
1484095940.495,19.043,39.551,24.902,46.387,36.133,0
1484095940.499,18.066,37.109,33.203,50.781,22.461,0
1484095940.503,12.207,36.133,30.762,45.898,28.320,0
1484095940.507,12.207,40.527,23.438,39.062,56.152,0
1484095940.511,11.719,33.203,18.555,36.133,24.414,0
1484095940.515,10.254,33.691,18.555,35.156,20.020,0
1484095940.519,9.277,41.504,17.090,37.109,23.926,0
1484095940.522,10.254,38.086,17.090,39.551,2.930,0
1484095940.526,15.137,35.645,19.043,41.992,42.969,0
1484095940.530,16.113,33.691,13.672,43.457,71.777,0
1484095940.534,21.973,30.273,9.766,43.945,10.742,0
1484095940.538,28.809,31.738,11.719,46.875,17.578,0
1484095940.542,25.391,31.250,12.207,47.852,48.828,0
1484095940.546,19.531,33.203,11.719,46.875,29.297,0
1484095940.550,18.555,37.109,14.160,45.410,41.992,0
1484095940.554,17.578,37.109,12.695,45.898,32.715,0
1484095940.558,24.414,34.180,12.695,53.711,72.266,0
1484095940.561,25.879,34.180,17.090,51.270,70.312,0
1484095940.565,18.066,35.156,18.555,42.480,-51.270,0
1484095940.569,19.043,34.668,21.973,44.922,-29.785,0
1484095940.573,22.461,32.227,22.461,51.758,46.875,0
1484095940.577,16.602,32.715,20.020,45.410,38.574,0
1484095940.581,10.742,36.621,19.531,41.992,47.852,0
1484095940.585,11.230,33.691,19.043,39.062,50.781,0
1484095940.589,11.230,27.832,18.066,35.156,10.742,0
1484095940.593,5.371,26.367,16.602,37.598,24.414,0
1484095940.597,3.418,25.879,20.020,38.574,37.598,0
1484095940.601,4.883,24.902,26.855,41.016,57.129,0
1484095940.604,6.348,22.461,30.762,43.457,60.547,0
1484095940.608,5.859,21.484,33.691,43.457,0.488,0
1484095940.612,13.184,29.785,29.785,46.875,62.012,0
1484095940.616,17.090,37.109,17.578,47.852,62.988,0
1484095940.620,16.602,38.574,13.184,45.410,13.672,0
1484095940.624,23.926,41.504,14.648,50.781,43.457,0
1484095940.628,26.855,41.016,20.508,55.664,73.242,0
1484095940.632,23.438,36.621,24.902,54.688,27.344,0
1484095940.636,24.414,34.668,25.879,53.223,12.695,0
1484095940.640,29.297,39.062,29.785,52.734,22.461,0
1484095940.644,34.180,40.527,33.203,52.246,6.348,0
1484095940.647,34.668,37.109,27.832,46.387,18.066,0
1484095940.651,26.367,37.598,20.996,42.480,9.277,0
1484095940.655,27.344,37.109,20.996,40.039,36.621,0
1484095940.659,22.949,36.621,20.508,31.738,73.730,0
1484095940.663,20.508,36.621,21.973,30.273,54.688,0
1484095940.667,24.414,32.715,23.438,31.738,3.906,0
1484095940.671,25.391,34.180,20.996,26.855,9.277,0
1484095940.675,26.367,37.598,23.926,25.879,25.391,0
1484095940.679,20.020,39.062,27.832,20.996,8.789,0
1484095940.683,13.672,37.109,25.879,16.602,-11.230,0
1484095940.686,11.719,34.180,26.367,13.672,-7.812,0
1484095940.690,16.602,41.016,29.297,11.719,10.254,0
1484095940.694,17.578,43.945,31.250,10.742,8.789,0
1484095940.698,11.230,36.621,30.762,13.184,30.762,0
1484095940.702,12.207,37.109,25.879,15.625,77.148,0
1484095940.706,14.648,35.645,25.391,13.672,27.344,0
1484095940.710,18.066,33.691,30.273,22.949,-23.438,0
1484095940.714,9.277,26.367,32.227,25.391,-6.348,0
1484095940.718,11.719,22.949,30.273,31.250,48.340,0
1484095940.722,20.508,25.391,27.832,40.039,97.168,0
1484095940.726,17.578,21.484,27.344,39.062,6.836,0
1484095940.729,19.043,21.973,28.320,44.434,-65.430,0
1484095940.733,26.367,25.391,30.273,50.293,9.766,0
1484095940.737,27.344,26.367,31.250,45.898,37.109,0
1484095940.741,22.461,27.832,30.762,44.434,36.133,0
1484095940.745,23.438,26.367,32.227,49.805,-16.602,0
1484095940.749,26.855,26.855,39.551,52.734,-18.066,0
1484095940.753,29.297,34.668,39.551,55.176,-7.812,0
1484095940.757,20.996,34.180,29.297,46.387,-36.133,0
1484095940.761,16.113,30.762,24.902,44.922,-1.953,0
1484095940.765,23.926,31.738,29.297,45.898,30.762,0
1484095940.769,20.996,25.391,36.133,41.016,41.992,0
1484095940.772,14.160,29.297,36.621,41.992,51.758,0
1484095940.776,14.648,37.109,34.180,41.992,17.090,0
1484095940.780,15.137,37.598,37.598,43.945,8.789,0
1484095940.784,11.719,34.180,30.273,40.527,14.648,0
1484095940.788,10.742,34.668,23.926,37.598,10.254,0
1484095940.792,4.883,38.574,28.809,33.691,10.742,0
1484095940.796,5.371,41.016,31.738,32.227,-43.457,0
1484095940.800,13.184,41.992,27.832,35.645,18.555,0
1484095940.804,12.207,39.062,23.926,42.480,62.988,0
1484095940.808,14.160,36.133,21.973,49.805,29.785,0
1484095940.811,21.973,40.527,23.926,54.199,42.480,0
1484095940.815,23.926,45.410,26.367,59.570,42.969,0
1484095940.819,22.461,39.062,23.926,61.523,71.777,0
1484095940.823,23.438,29.785,21.484,53.223,86.914,0
1484095940.827,28.320,26.367,26.855,47.363,21.973,0
1484095940.831,27.344,26.367,27.344,48.340,4.883,0
1484095940.835,27.344,24.414,20.508,50.781,28.320,0
1484095940.839,27.832,22.949,20.508,54.199,-42.480,0
1484095940.843,31.738,27.832,21.484,51.758,-1.465,0
1484095940.847,34.180,28.320,20.996,53.223,40.039,0
1484095940.851,30.762,26.367,19.531,56.152,5.859,0
1484095940.854,30.273,24.414,25.391,50.293,67.383,0
1484095940.858,32.227,26.855,26.367,44.922,75.195,0
1484095940.862,25.391,33.203,20.996,42.969,13.672,0
1484095940.866,23.438,35.645,20.996,39.062,2.441,0
1484095940.870,29.297,32.227,26.855,37.598,28.809,0
1484095940.874,25.391,24.902,29.297,36.621,47.363,0
1484095940.878,21.484,24.902,26.367,40.527,52.734,0
1484095940.882,17.090,32.227,29.297,43.945,41.016,0
1484095940.886,13.184,38.086,24.902,43.945,-39.551,0
1484095940.890,14.648,35.645,20.508,44.922,-14.648,0
1484095940.894,19.043,32.227,20.508,41.016,14.648,0
1484095940.897,20.020,34.668,20.020,39.062,-25.391,0
1484095940.901,12.207,37.109,22.949,34.668,0.977,0
1484095940.905,9.766,37.598,24.414,31.250,-15.137,0
1484095940.909,11.719,34.180,23.926,34.668,-7.324,0
1484095940.913,7.812,34.180,22.949,33.203,32.227,1
1484095940.917,7.812,31.738,19.531,27.832,14.648,0
1484095940.921,7.324,30.273,14.648,25.879,-7.324,0
1484095940.925,-2.930,34.180,12.695,24.902,0.977,0
1484095940.929,-5.859,29.297,14.160,29.785,13.184,0
1484095940.933,-0.977,24.414,20.996,39.062,32.227,0
1484095940.936,-3.418,31.250,26.367,41.992,52.734,0
1484095940.940,-1.465,35.645,32.227,47.363,49.316,0
1484095940.944,2.441,34.180,37.109,49.805,41.504,0
1484095940.948,2.441,33.203,33.203,48.340,56.152,0
1484095940.952,1.465,30.762,31.250,51.758,2.441,0
1484095940.956,2.441,29.785,28.809,50.293,-8.789,0
1484095940.960,6.836,33.203,24.414,50.293,19.531,0
1484095940.964,8.301,33.691,21.484,49.805,7.324,0
1484095940.968,8.789,33.203,17.578,42.480,34.668,0
1484095940.972,6.836,35.645,16.602,39.551,38.086,0
1484095940.976,4.883,36.133,21.484,41.992,39.551,0
1484095940.979,8.789,34.668,23.438,43.457,48.828,0
1484095940.983,8.301,36.621,16.602,42.480,43.945,0
1484095940.987,10.742,33.691,15.625,39.062,15.625,0
1484095940.991,10.742,26.855,23.926,41.504,18.066,0
1484095940.995,0.977,24.902,26.855,45.898,25.391,0
1484095940.999,-3.906,23.926,26.367,41.992,7.324,0
1484095941.003,-2.441,25.391,23.926,39.551,-32.227,0
1484095941.007,6.836,32.227,23.926,43.945,3.418,0
1484095941.011,11.719,32.715,27.344,44.922,51.758,0
1484095941.015,9.766,28.809,29.785,46.875,41.504,0
1484095941.019,9.766,30.762,29.785,46.387,35.645,0
1484095941.022,11.230,32.227,23.438,49.316,62.988,0
1484095941.026,5.859,35.156,17.578,52.246,68.848,0
1484095941.030,9.766,36.621,12.695,54.688,30.273,0
1484095941.034,15.625,32.227,8.789,52.246,11.719,0
1484095941.038,14.648,30.762,9.766,47.852,74.707,0
1484095941.042,14.160,24.902,7.324,43.945,61.035,0
1484095941.046,15.625,20.508,-2.441,39.551,8.789,0
1484095941.050,11.719,17.090,-5.371,38.086,56.641,0
1484095941.054,2.930,9.277,-4.395,29.297,39.062,0
1484095941.058,-2.930,7.324,-4.883,19.043,41.992,0
1484095941.061,-8.301,5.859,-7.812,11.719,56.641,0
1484095941.065,-11.230,2.930,-10.742,5.859,6.836,0
1484095941.069,-9.766,2.441,-4.883,6.348,25.879,0
1484095941.073,-15.137,2.930,3.418,5.859,8.789,0
1484095941.077,-20.020,2.930,-1.465,0.488,-43.945,0
1484095941.081,-16.113,3.906,-4.883,-2.441,-20.996,0
1484095941.085,-16.602,9.277,4.395,-1.953,-3.418,0
1484095941.089,-17.578,8.789,8.301,-3.418,-19.531,0
1484095941.093,-17.578,8.789,10.742,-4.395,-40.039,0
1484095941.097,-15.137,12.207,17.090,-1.465,1.465,0
1484095941.101,-15.137,9.766,16.113,-3.418,1.953,0
1484095941.104,-17.578,6.836,13.184,-5.859,33.691,0
1484095941.108,-17.578,4.883,8.301,-5.371,24.902,0
1484095941.112,-16.113,3.418,6.348,-5.371,33.203,0
1484095941.116,-19.531,6.348,7.324,-3.418,71.289,0
1484095941.120,-21.484,8.789,5.859,-4.395,11.719,0
1484095941.124,-19.531,8.301,2.930,-6.348,-4.395,0
1484095941.128,-16.113,7.812,6.348,0.000,-0.977,0
1484095941.132,-12.695,7.812,14.648,7.324,19.531,0
1484095941.136,-9.766,8.789,18.066,13.672,16.602,0
1484095941.140,-12.207,11.230,15.137,12.207,-10.254,0
1484095941.144,-12.207,12.207,13.672,12.207,46.875,0
1484095941.147,-10.742,15.625,15.625,18.066,37.598,0
1484095941.151,-9.277,18.066,17.578,17.578,-9.277,0
1484095941.155,-4.395,16.602,17.090,19.043,68.848,0
1484095941.159,-7.812,16.113,10.742,21.484,102.051,0
1484095941.163,-6.836,20.508,9.277,18.555,33.203,0
1484095941.167,-5.859,23.438,10.742,17.090,20.508,0
1484095941.171,-5.859,24.902,9.277,20.020,24.902,0
1484095941.175,-0.977,24.414,12.695,19.531,40.039,0
1484095941.179,-2.441,17.578,12.695,19.043,21.973,0
1484095941.183,-7.324,18.555,15.625,18.066,2.441,0
1484095941.186,-8.301,23.438,20.996,16.113,-15.137,0
1484095941.190,-7.324,25.391,22.949,16.113,-26.855,0
1484095941.194,-4.883,25.879,26.367,21.973,38.086,0
1484095941.198,1.465,24.414,28.809,27.832,74.219,0
1484095941.202,7.812,25.391,29.785,25.879,8.789,0
1484095941.206,16.113,27.344,28.320,27.832,0.488,0
1484095941.210,20.996,26.855,31.738,32.715,42.480,0
1484095941.214,24.414,26.367,38.086,34.180,-5.859,0
1484095941.218,29.785,26.855,36.133,38.086,12.695,0
1484095941.222,31.250,22.461,35.156,45.410,67.383,0
1484095941.226,25.391,19.043,36.133,45.898,-0.488,0
1484095941.229,23.926,20.508,27.832,41.504,11.719,0
1484095941.233,26.367,21.484,16.113,41.992,39.551,0
1484095941.237,27.832,20.508,16.602,42.969,-6.836,0
1484095941.241,25.391,18.555,22.461,40.039,-24.414,0
1484095941.245,21.484,19.043,20.508,36.133,-14.160,0
1484095941.249,25.879,23.926,20.508,40.039,1.953,0
1484095941.253,27.344,24.902,22.949,43.457,21.973,0
1484095941.257,21.484,23.926,15.137,38.086,52.734,0
1484095941.261,20.508,21.484,14.160,33.691,21.484,0
1484095941.265,23.926,23.438,18.555,40.039,-9.766,0
1484095941.269,19.531,27.344,22.461,41.504,24.902,0
1484095941.272,18.066,29.785,23.438,40.039,27.832,0
1484095941.276,10.254,32.227,15.625,31.738,33.203,0
1484095941.280,6.348,31.738,11.719,28.320,63.965,0
1484095941.284,9.766,27.344,8.789,30.273,0.488,0
1484095941.288,14.160,28.320,10.742,31.250,2.930,0
1484095941.292,18.555,28.809,14.160,33.203,62.012,0
1484095941.296,13.672,27.832,12.695,34.180,55.176,0
1484095941.300,11.719,33.691,15.625,35.156,0.488,0
1484095941.304,13.672,34.180,17.090,30.273,-20.508,0
1484095941.308,20.996,33.691,16.602,32.715,4.395,0
1484095941.311,32.227,36.133,21.484,45.410,-13.184,0
1484095941.315,36.621,31.738,24.902,45.410,5.859,0
1484095941.319,39.551,29.785,20.996,43.945,12.695,0
1484095941.323,41.016,33.203,16.113,52.246,-30.273,0
1484095941.327,38.574,31.738,15.137,55.176,-21.973,0
1484095941.331,43.457,35.156,14.648,57.129,25.879,0
1484095941.335,44.434,35.156,14.648,58.594,18.066,0
1484095941.339,41.016,32.227,19.531,59.570,19.043,0
1484095941.343,35.645,27.832,17.578,58.105,29.297,0
1484095941.347,32.227,23.438,7.812,53.711,21.973,0
1484095941.351,33.203,21.973,6.836,53.223,19.043,0
1484095941.354,28.320,21.484,9.277,51.270,26.367,0
1484095941.358,26.855,24.902,10.742,51.270,33.691,0
1484095941.362,26.855,25.391,18.066,52.734,1.465,0
1484095941.366,28.809,25.391,23.438,53.711,11.719,0
1484095941.370,21.484,21.973,24.414,48.828,21.484,0
1484095941.374,21.484,20.508,24.902,44.922,49.805,0
1484095941.378,23.926,21.484,28.320,41.992,69.824,0
1484095941.382,18.066,17.578,25.879,37.109,62.012,0
1484095941.386,15.137,18.066,25.391,40.527,27.832,0
1484095941.390,12.695,25.391,25.391,42.480,-7.812,0
1484095941.394,9.277,28.320,25.879,34.668,5.859,0
1484095941.397,10.254,27.344,31.738,31.250,-1.465,0
1484095941.401,14.160,25.391,33.691,35.156,0.977,0
1484095941.405,15.137,24.902,28.809,36.621,12.695,0
1484095941.409,12.207,23.926,22.461,33.691,-19.531,0
1484095941.413,13.672,24.902,20.996,30.273,24.902,0
1484095941.417,16.113,25.391,23.438,32.715,118.652,0
1484095941.421,14.160,25.879,27.832,31.250,41.992,0
1484095941.425,16.113,27.344,31.250,32.227,-45.410,0
1484095941.429,18.555,25.879,29.297,39.062,-4.883,0
1484095941.433,16.602,27.344,25.879,37.109,18.555,0
1484095941.436,18.066,28.809,23.438,38.574,-16.113,0
1484095941.440,21.484,27.344,24.414,44.922,0.977,0
1484095941.444,22.461,21.973,20.996,41.992,37.598,0
1484095941.448,26.367,17.578,22.461,42.969,30.273,0
1484095941.452,31.250,22.949,27.832,47.363,49.805,0
1484095941.456,36.621,25.391,24.414,52.734,85.938,0
1484095941.460,41.992,26.367,27.344,58.105,34.180,0
1484095941.464,38.574,32.227,27.344,55.176,7.324,0
1484095941.468,33.203,35.156,21.973,49.805,8.789,0
1484095941.472,31.738,30.273,23.438,47.852,-18.555,0
1484095941.476,29.785,31.738,31.250,49.316,33.203,0
1484095941.479,29.785,30.762,42.480,52.246,66.895,0
1484095941.483,30.273,27.344,44.434,49.316,20.996,0
1484095941.487,23.926,33.691,47.363,47.363,0.000,0
1484095941.491,21.973,32.227,50.781,51.270,8.301,0
1484095941.495,21.973,25.391,48.828,48.828,-3.906,0
1484095941.499,19.531,24.902,46.387,40.039,10.742,0
1484095941.503,18.066,20.508,44.434,33.203,87.891,0
1484095941.507,17.578,18.555,44.922,35.645,33.203,0
1484095941.511,22.949,24.902,49.805,40.527,-22.949,0
1484095941.515,19.043,29.297,51.758,38.574,32.227,0
1484095941.519,14.648,27.344,54.688,36.133,37.109,0
1484095941.522,14.160,24.414,51.758,40.039,20.508,0
1484095941.526,16.602,26.367,45.898,44.922,12.695,0
1484095941.530,14.648,27.832,41.016,44.434,15.137,0
1484095941.534,16.113,23.926,35.645,42.480,41.016,0
1484095941.538,20.996,23.438,36.133,39.551,-4.395,0
1484095941.542,25.879,30.762,41.504,43.457,-27.832,0
1484095941.546,29.785,31.250,39.551,50.781,-37.598,0
1484095941.550,28.320,28.320,40.039,52.734,-20.020,0
1484095941.554,26.367,26.367,35.645,49.316,54.688,0
1484095941.558,24.902,28.809,27.344,50.293,60.547,0
1484095941.561,21.973,30.273,31.738,51.270,2.930,0
1484095941.565,22.461,27.344,34.180,49.805,-0.977,0
1484095941.569,22.461,26.855,32.227,42.969,-5.371,0
1484095941.573,20.020,25.879,31.250,40.527,18.555,0
1484095941.577,20.020,26.367,34.180,46.387,87.402,0
1484095941.581,19.043,28.809,36.621,43.945,52.734,0
1484095941.585,20.996,26.855,33.691,40.039,-25.391,0
1484095941.589,21.973,24.414,37.109,35.645,-10.742,0
1484095941.593,20.508,28.809,39.062,31.250,39.062,0
1484095941.597,21.484,33.203,37.598,31.738,37.109,0
1484095941.601,16.113,29.785,37.598,33.691,-29.297,0
1484095941.604,14.648,25.391,32.715,37.109,-26.855,0
1484095941.608,21.484,28.809,28.809,40.039,43.457,0
1484095941.612,25.879,33.203,27.344,37.598,90.820,0
1484095941.616,24.414,32.715,25.391,28.809,121.094,0
1484095941.620,24.414,33.203,30.762,31.250,57.129,0
1484095941.624,24.902,34.180,39.551,32.227,-3.418,0
1484095941.628,20.996,33.691,39.062,29.297,14.648,0
1484095941.632,19.531,33.691,32.715,30.762,61.523,0
1484095941.636,18.066,33.691,30.762,31.738,55.176,0
1484095941.640,14.160,28.320,32.715,29.785,94.238,0
1484095941.644,12.207,23.926,34.668,25.391,78.613,0
1484095941.647,13.184,24.414,33.691,26.367,13.184,0
1484095941.651,12.207,25.391,35.156,30.273,24.902,0
1484095941.655,9.766,23.438,39.551,26.855,60.059,0
1484095941.659,10.742,23.926,41.992,24.414,27.832,0
1484095941.663,14.648,27.832,42.969,34.180,18.066,0
1484095941.667,11.719,31.250,41.504,39.551,20.020,0
1484095941.671,9.766,33.203,47.852,33.203,-2.930,0
1484095941.675,9.277,35.156,52.734,29.785,40.039,0
1484095941.679,8.789,33.691,51.270,31.738,23.926,0
1484095941.683,9.277,28.320,54.199,27.344,-19.531,0
1484095941.686,11.719,26.367,59.082,26.855,0.000,0
1484095941.690,13.184,26.855,59.570,28.809,26.855,0
1484095941.694,12.207,28.320,60.547,31.738,7.812,0
1484095941.698,16.113,31.250,62.012,35.156,-6.836,0
1484095941.702,27.344,32.227,57.129,37.598,30.273,0
1484095941.706,34.180,30.762,47.363,42.969,31.250,0
1484095941.710,34.668,30.273,39.551,43.457,-19.043,0
1484095941.714,35.156,30.762,40.039,41.992,6.836,0
1484095941.718,33.691,27.832,41.504,43.945,16.602,0
1484095941.722,23.926,26.367,43.457,36.621,3.906,0
1484095941.726,15.137,28.809,43.945,33.203,72.754,0
1484095941.729,12.695,30.762,39.062,33.203,59.570,0
1484095941.733,12.695,30.762,44.434,34.180,27.344,0
1484095941.737,13.184,28.320,48.828,36.133,98.145,0
1484095941.741,15.625,26.855,47.363,36.621,98.633,0
1484095941.745,14.648,28.809,47.363,35.645,45.410,0
1484095941.749,15.137,27.344,45.898,36.133,77.637,0
1484095941.753,20.020,28.320,48.340,41.992,58.105,0
1484095941.757,21.973,28.809,50.781,38.574,4.395,0
1484095941.761,19.531,31.250,46.387,35.645,29.297,0
1484095941.765,14.648,35.156,40.039,40.039,41.992,0
1484095941.769,11.230,30.762,36.621,35.645,53.711,0
1484095941.772,14.160,29.297,36.621,33.691,67.383,0
1484095941.776,19.043,32.715,35.156,40.527,-11.230,0
1484095941.780,23.926,34.668,29.785,45.410,-33.691,0
1484095941.784,25.391,33.203,27.344,47.852,28.320,0
1484095941.788,25.879,30.762,29.785,48.828,97.168,0
1484095941.792,18.555,29.785,30.762,45.410,61.523,0
1484095941.796,13.672,26.367,27.344,41.016,0.000,0
1484095941.800,21.973,26.367,21.973,42.480,12.695,0
1484095941.804,21.973,26.855,17.090,40.039,27.344,0
1484095941.808,27.344,26.855,19.531,42.969,24.414,0
1484095941.811,31.738,31.250,26.855,45.410,9.277,0
1484095941.815,28.809,37.109,29.785,41.016,-38.086,0
1484095941.819,24.414,35.645,35.156,44.922,-23.926,0
1484095941.823,20.996,32.715,38.574,47.363,26.367,0
1484095941.827,22.949,34.668,38.086,44.434,21.973,0
1484095941.831,24.902,35.156,32.715,42.480,-32.715,0
1484095941.835,26.367,31.738,27.344,41.992,-50.781,0
1484095941.839,25.391,33.203,25.391,38.086,36.621,0
1484095941.843,19.043,34.180,23.926,34.668,40.039,0
1484095941.847,19.043,33.691,23.438,31.250,-3.906,0
1484095941.851,20.020,36.133,24.902,27.832,14.648,0
1484095941.854,18.066,36.133,30.762,26.855,43.945,0
1484095941.858,20.508,37.598,34.180,31.250,65.430,0
1484095941.862,19.531,38.574,32.715,30.762,13.672,0
1484095941.866,18.066,40.039,26.367,28.320,23.926,0
1484095941.870,19.043,41.504,22.461,33.203,91.797,0
1484095941.874,20.020,40.039,20.996,36.621,36.621,0
1484095941.878,17.578,39.551,21.484,34.180,-65.430,0
1484095941.882,11.230,33.203,20.996,28.320,-8.789,0
1484095941.886,10.254,31.738,16.602,29.785,24.902,0
1484095941.890,14.648,36.133,16.602,33.691,-4.883,0
1484095941.894,21.484,38.086,15.625,34.668,-0.488,0
1484095941.897,23.926,39.062,9.766,38.574,10.254,0
1484095941.901,22.949,43.945,7.812,40.527,-10.742,0
1484095941.905,20.508,41.016,7.812,30.273,21.973,0
1484095941.909,21.484,39.062,9.766,29.297,17.090,0
1484095941.913,28.809,46.387,5.859,31.250,-26.855,0
1484095941.917,31.250,44.922,0.977,27.832,-3.906,0
1484095941.921,34.180,45.410,0.488,29.785,4.883,0
1484095941.925,38.086,50.293,-1.953,35.156,-30.273,0
1484095941.929,33.203,51.270,0.000,39.551,8.789,0
1484095941.933,30.273,47.852,7.812,36.621,17.578,0
1484095941.936,32.227,44.434,7.324,36.621,-10.254,0
1484095941.940,38.086,43.945,3.906,39.062,39.062,0
1484095941.944,41.992,42.969,2.930,42.969,42.480,0
1484095941.948,37.109,38.086,4.883,47.852,-11.230,0
1484095941.952,35.645,39.062,9.766,44.434,-12.695,0
1484095941.956,40.039,47.363,8.301,44.434,45.410,0
1484095941.960,36.133,51.758,0.000,46.875,50.781,0
1484095941.964,36.621,48.828,0.000,53.223,45.410,0
1484095941.968,33.203,43.457,4.395,52.246,24.902,0
1484095941.972,21.973,43.457,2.441,36.133,34.668,0
1484095941.976,27.344,48.828,5.859,36.133,39.062,0
1484095941.979,39.551,52.734,17.090,58.105,46.387,0
1484095941.983,40.039,50.781,15.137,55.176,19.043,0
1484095941.987,39.551,46.875,9.277,47.363,-16.113,0
1484095941.991,39.551,44.434,8.301,54.688,13.184,0
1484095941.995,40.039,46.387,10.742,56.641,47.363,0
1484095941.999,43.945,45.898,20.996,57.617,48.340,0
1484095942.003,41.016,43.945,20.508,61.035,31.250,0
1484095942.007,40.527,42.969,13.184,60.059,28.320,0
1484095942.011,39.062,42.480,14.648,53.711,-0.488,0
1484095942.015,36.621,41.016,17.090,57.617,-0.488,0
1484095942.019,39.551,44.922,18.555,59.570,-4.883,0
1484095942.022,40.527,47.852,19.043,57.617,47.852,0
1484095942.026,43.457,42.480,20.996,56.641,41.016,0
1484095942.030,39.062,41.504,23.438,55.664,-64.941,0
1484095942.034,34.180,46.387,21.484,58.105,-69.336,0
1484095942.038,41.504,48.828,23.926,62.500,6.836,0
1484095942.042,47.852,48.340,25.391,60.547,7.812,0
1484095942.046,44.922,45.410,28.809,55.664,41.992,0
1484095942.050,40.039,41.992,35.645,59.082,22.949,0
1484095942.054,31.250,38.086,31.738,58.594,-3.418,0
1484095942.058,24.902,34.668,25.879,58.594,28.320,0
1484095942.061,26.855,35.645,19.043,58.105,39.062,0
1484095942.065,24.902,41.016,12.207,53.711,61.523,0
1484095942.069,19.043,42.969,9.766,51.270,45.898,0
1484095942.073,19.043,39.062,9.766,46.387,-8.789,0
1484095942.077,19.531,37.598,15.137,40.039,8.301,0
1484095942.081,12.695,34.668,18.066,37.598,38.086,0
1484095942.085,6.836,31.738,12.695,34.180,38.574,0
1484095942.089,7.812,29.785,6.836,31.738,27.344,0
1484095942.093,9.277,27.832,7.324,32.715,13.184,0
1484095942.097,11.719,25.879,7.324,38.574,75.195,0
1484095942.101,17.090,23.438,11.719,41.016,66.406,0
1484095942.104,18.555,28.809,13.184,43.457,20.020,0
1484095942.108,21.484,34.668,10.254,49.316,-5.859,0
1484095942.112,20.020,29.785,6.348,41.504,-0.488,0
1484095942.116,15.625,27.832,9.277,34.668,35.645,0
1484095942.120,15.137,37.109,17.090,38.574,38.574,0
1484095942.124,12.695,40.527,18.555,42.480,22.461,0
1484095942.128,13.672,39.062,24.414,43.457,3.418,0
1484095942.132,14.648,39.062,27.832,44.922,47.852,0
1484095942.136,16.602,37.598,24.414,44.434,53.223,0
1484095942.140,16.602,35.156,26.367,42.969,-20.020,0
1484095942.144,20.020,35.645,32.227,43.945,-19.531,0
1484095942.147,28.809,33.203,40.039,44.922,18.555,0
1484095942.151,31.250,32.227,46.387,48.828,28.320,0
1484095942.155,28.320,32.715,49.805,45.898,35.156,0
1484095942.159,27.832,29.297,45.898,40.527,12.207,0
1484095942.163,33.691,26.855,41.992,41.504,74.707,0
1484095942.167,37.598,30.273,38.086,49.316,77.637,0
1484095942.171,39.551,35.645,37.598,56.152,5.859,0
1484095942.175,40.039,34.180,40.039,60.059,33.691,0
1484095942.179,37.598,33.203,40.527,64.941,8.301,0
1484095942.183,35.156,35.156,46.875,66.895,-15.137,0
1484095942.186,31.738,42.480,57.129,62.500,14.160,2
1484095942.190,34.668,43.457,62.500,62.500,43.457,0
1484095942.194,34.180,39.062,57.617,61.035,29.297,0
1484095942.198,25.879,39.551,49.805,53.711,21.973,0
1484095942.202,20.996,41.016,45.410,42.480,-4.395,0
1484095942.206,23.926,44.922,47.363,41.504,-21.973,0
1484095942.210,24.902,42.969,48.340,48.340,41.016,0
1484095942.214,13.672,38.086,48.340,40.039,-5.371,0
1484095942.218,12.207,41.016,51.270,35.645,-28.320,0
1484095942.222,18.555,39.062,48.340,40.527,7.324,0
1484095942.226,18.066,30.762,44.922,39.551,41.016,0
1484095942.229,17.578,32.715,35.156,37.109,1.953,0
1484095942.233,16.602,39.062,26.367,37.598,-32.715,0
1484095942.237,17.578,41.016,28.809,37.109,7.812,0
1484095942.241,20.508,42.969,32.227,31.250,26.367,0
1484095942.245,22.461,44.434,32.715,34.180,48.340,0
1484095942.249,17.578,41.016,31.250,34.668,26.367,0
1484095942.253,13.184,33.691,29.297,23.438,19.043,0
1484095942.257,11.230,33.203,25.879,22.461,10.254,0
1484095942.261,3.906,37.109,25.879,25.391,20.996,0
1484095942.265,3.906,38.574,28.809,28.809,5.859,0
1484095942.269,9.766,38.574,30.762,35.645,17.090,0
1484095942.272,17.578,42.480,32.227,44.434,20.996,0
1484095942.276,25.391,43.457,31.250,49.316,40.527,0
1484095942.280,23.926,43.457,29.785,50.293,64.453,0
1484095942.284,24.414,41.016,29.297,50.293,62.012,0
1484095942.288,22.461,36.133,26.367,45.410,19.531,0
1484095942.292,18.066,35.645,23.926,42.969,14.648,0
1484095942.296,22.461,40.527,29.297,45.410,105.957,0
1484095942.300,26.855,44.434,33.203,46.875,83.984,0
1484095942.304,22.461,43.457,37.109,39.062,3.906,0
1484095942.308,20.996,41.504,44.434,33.691,59.082,0
1484095942.311,20.996,38.574,44.922,36.621,49.316,0
1484095942.315,23.438,40.527,41.992,35.645,-5.371,0
1484095942.319,21.484,49.316,40.039,36.133,10.742,0
1484095942.323,22.461,46.875,38.086,41.016,-4.395,0
1484095942.327,28.320,41.504,34.668,44.922,2.441,0
1484095942.331,25.879,43.457,36.621,46.875,25.391,0
1484095942.335,25.391,41.992,31.738,41.016,25.391,0
1484095942.339,26.367,44.434,29.785,41.016,70.801,0
1484095942.343,26.855,44.922,30.762,46.387,66.895,0
1484095942.347,25.391,42.480,30.273,43.945,37.109,0
1484095942.351,24.414,40.527,39.062,47.852,44.434,0
1484095942.354,26.367,37.109,37.109,51.270,50.293,0
1484095942.358,21.484,35.645,35.156,44.434,19.043,0
1484095942.362,12.207,34.180,38.086,38.574,48.828,0
1484095942.366,10.742,38.086,38.574,33.691,61.035,0
1484095942.370,13.184,36.621,36.621,32.227,47.363,0
1484095942.374,17.578,37.109,30.762,34.668,68.848,0
1484095942.378,16.113,40.039,23.926,32.227,64.453,0
1484095942.382,5.859,40.527,20.996,24.902,59.082,0
1484095942.386,8.301,41.504,20.508,27.832,44.434,0
1484095942.390,19.043,41.992,17.578,34.668,41.504,0
1484095942.394,15.137,42.480,17.578,41.016,43.945,0
1484095942.397,14.160,44.922,16.602,48.340,46.387,0
1484095942.401,26.855,43.457,19.043,52.246,47.852,0
1484095942.405,30.273,39.551,22.461,50.293,35.645,0
1484095942.409,29.297,39.062,20.508,48.828,-3.418,0
1484095942.413,34.668,41.016,22.949,52.734,-32.715,0
1484095942.417,42.969,46.875,30.273,52.734,43.945,0
1484095942.421,41.016,47.852,31.738,53.711,55.176,0
1484095942.425,37.109,43.945,30.762,57.617,49.316,0
1484095942.429,39.551,42.480,28.809,55.176,55.664,0
1484095942.433,38.574,47.363,28.809,52.734,13.672,0
1484095942.436,35.645,50.293,29.297,62.012,38.574,0
1484095942.440,45.410,51.270,31.250,72.266,60.059,0
1484095942.444,57.617,58.105,36.621,79.590,-27.832,0
1484095942.448,55.176,59.082,39.062,79.590,-35.645,0
1484095942.452,49.805,55.664,42.480,77.148,21.484,0
1484095942.456,49.316,55.176,44.434,78.125,14.648,0
1484095942.460,50.781,52.246,37.109,71.777,-16.113,0
1484095942.464,48.340,43.457,31.738,63.965,9.277,0
1484095942.468,42.480,42.969,34.180,59.082,-2.930,0
1484095942.472,36.621,46.875,31.738,56.641,-14.160,0
1484095942.476,36.621,45.410,31.250,54.688,21.484,0
1484095942.479,40.527,45.898,29.785,52.734,20.996,0
1484095942.483,35.156,43.457,21.973,46.875,7.324,0
1484095942.487,22.949,40.527,17.578,38.086,32.715,0
1484095942.491,21.484,40.039,20.508,35.156,21.484,0
1484095942.495,24.902,38.574,27.832,37.109,14.648,0
1484095942.499,21.484,37.109,28.320,33.691,32.715,0
1484095942.503,20.020,40.039,25.391,28.809,32.227,0
1484095942.507,20.996,40.527,25.391,31.738,-6.836,0
1484095942.511,20.996,38.574,25.879,33.691,-4.395,0
1484095942.515,28.320,40.039,27.344,38.574,31.250,0
1484095942.519,35.645,42.969,28.809,46.875,53.711,0
1484095942.522,31.250,40.039,28.809,51.758,62.988,0
1484095942.526,29.785,37.109,28.809,52.734,56.152,0
1484095942.530,36.133,37.598,25.879,54.688,45.898,0
1484095942.534,36.133,36.133,24.902,57.617,13.672,0
1484095942.538,36.133,30.273,25.391,55.664,3.418,0
1484095942.542,35.156,27.832,27.344,62.012,29.785,0
1484095942.546,35.645,33.203,26.367,63.477,-30.762,0
1484095942.550,38.574,40.039,27.344,62.012,-13.672,0
1484095942.554,38.086,35.156,34.180,61.035,-13.184,0
1484095942.558,35.156,30.762,38.574,60.547,-89.355,0
1484095942.561,33.691,35.156,41.016,67.383,-14.160,0
1484095942.565,33.691,32.715,41.992,71.289,52.734,0
1484095942.569,26.367,32.227,41.016,65.430,14.648,0
1484095942.573,26.367,32.227,40.039,62.500,69.336,0
1484095942.577,30.273,31.738,34.668,61.523,68.848,0
1484095942.581,27.832,35.156,29.297,64.941,49.316,0
1484095942.585,22.461,35.156,24.902,64.941,-0.488,0
1484095942.589,18.066,36.133,20.020,58.594,-18.555,0
1484095942.593,22.949,36.621,22.461,59.082,25.879,0
1484095942.597,25.879,32.715,30.273,57.617,-19.531,0
1484095942.601,22.461,31.738,30.762,54.688,-2.441,0
1484095942.604,14.648,36.133,28.320,50.781,29.785,0
1484095942.608,7.812,34.180,34.668,43.457,42.969,0
1484095942.612,13.672,32.715,38.574,44.922,39.062,0
1484095942.616,18.066,34.668,37.109,46.875,-0.488,0
1484095942.620,19.043,33.203,37.598,42.480,30.762,0
1484095942.624,24.902,34.668,40.039,45.898,61.523,0
1484095942.628,30.273,40.039,37.109,54.199,64.941,0
1484095942.632,31.738,39.062,30.273,55.176,46.875,0
1484095942.636,29.297,38.574,32.227,59.082,11.230,0
1484095942.640,33.691,38.574,36.133,64.941,-9.277,0
1484095942.644,38.086,37.598,33.691,61.523,-9.277,0
1484095942.647,34.180,35.645,32.715,56.152,9.766,0
1484095942.651,31.738,31.738,36.621,59.082,39.551,0
1484095942.655,33.203,29.785,37.109,66.895,31.738,0
1484095942.659,30.762,33.203,39.551,69.824,49.316,0
1484095942.663,26.367,34.180,43.457,63.477,81.543,0
1484095942.667,26.367,35.156,44.434,61.035,55.664,0
1484095942.671,23.438,38.574,42.480,64.453,28.809,0
1484095942.675,18.066,38.574,42.969,62.500,51.758,0
1484095942.679,14.648,35.645,41.992,56.641,60.547,0
1484095942.683,17.090,35.156,41.992,62.500,39.551,0
1484095942.686,22.461,36.621,41.504,66.895,69.824,3
1484095942.690,24.902,31.250,43.457,59.570,59.570,0
1484095942.694,29.785,26.855,51.270,54.199,51.270,0
1484095942.698,33.203,28.809,51.270,54.688,102.051,0
1484095942.702,30.273,28.809,51.270,49.316,34.668,0
1484095942.706,25.879,30.273,52.734,46.875,-9.277,0
1484095942.710,25.879,32.227,51.758,48.828,40.039,0
1484095942.714,24.902,33.691,48.340,46.387,13.184,0
1484095942.718,22.461,34.180,47.852,45.410,-2.930,0
1484095942.722,20.020,26.855,50.293,43.457,27.344,0
1484095942.726,24.902,28.320,54.688,44.922,31.738,0
1484095942.729,33.691,37.109,58.594,51.758,50.293,0
1484095942.733,39.062,41.992,56.152,57.129,20.020,0
1484095942.737,40.527,40.527,56.152,54.688,-9.277,0
1484095942.741,35.156,43.457,58.594,52.734,2.441,0
1484095942.745,36.621,52.734,62.500,57.617,-21.973,0
1484095942.749,39.062,53.223,63.965,55.176,-38.574,0
1484095942.753,38.574,54.688,59.570,52.734,-14.160,0
1484095942.757,37.109,55.664,57.617,48.828,27.344,0
1484095942.761,35.156,50.781,54.199,47.363,39.551,0
1484095942.765,37.598,49.805,49.805,51.270,36.133,0
1484095942.769,39.551,52.246,54.688,53.711,33.203,0
1484095942.772,36.133,50.293,54.688,54.199,27.344,0
1484095942.776,35.645,44.922,49.805,55.176,14.160,0
1484095942.780,39.062,40.039,45.898,57.129,-2.930,0
1484095942.784,33.203,40.039,41.992,54.199,31.250,0
1484095942.788,33.691,43.945,42.969,54.199,4.883,0
1484095942.792,42.480,49.316,42.969,56.641,-52.734,0
1484095942.796,44.434,48.340,41.504,56.152,-22.461,0
1484095942.800,44.922,49.316,43.945,60.059,22.461,0
1484095942.804,42.480,51.758,41.992,56.641,43.945,0
1484095942.808,43.457,48.340,39.062,57.617,39.062,0
1484095942.811,43.457,44.922,41.016,56.152,17.578,0
1484095942.815,40.527,49.316,40.039,51.270,0.977,0
1484095942.819,37.598,52.246,36.621,48.828,23.438,0
1484095942.823,39.062,48.828,44.434,45.898,64.453,0
1484095942.827,37.598,47.852,49.805,50.293,31.250,0
1484095942.831,37.109,53.223,48.340,55.176,55.176,0
1484095942.835,41.504,58.105,52.246,55.176,38.574,0
1484095942.839,46.387,52.734,48.828,51.270,14.648,0
1484095942.843,43.457,49.805,36.133,51.758,45.410,0
1484095942.847,36.133,52.246,35.645,55.664,75.684,0
1484095942.851,31.250,46.875,39.062,58.105,46.387,0
1484095942.854,34.668,48.340,38.574,61.035,2.441,0
1484095942.858,35.645,47.363,34.668,60.059,20.996,0
1484095942.862,35.645,41.016,31.738,59.570,6.348,0
1484095942.866,39.062,44.434,38.086,62.500,55.176,0
1484095942.870,36.621,41.992,45.898,59.570,72.266,0
1484095942.874,37.598,37.598,48.828,57.129,37.598,0
1484095942.878,37.109,45.410,48.828,53.711,85.938,0
1484095942.882,32.715,48.828,49.316,47.852,77.637,0
1484095942.886,31.250,49.805,49.805,48.340,6.836,0
1484095942.890,29.297,50.293,50.781,49.316,20.996,0
1484095942.894,27.344,47.852,52.246,43.457,51.270,0
1484095942.897,33.691,44.922,52.246,47.363,29.297,0
1484095942.901,36.621,43.945,49.805,55.176,-29.785,0
1484095942.905,35.645,41.016,49.316,49.316,-12.207,0
1484095942.909,39.062,39.551,51.758,46.387,22.949,0
1484095942.913,36.621,40.039,51.758,49.805,15.137,0
1484095942.917,35.645,37.109,48.828,48.340,-6.836,0
1484095942.921,40.527,42.480,52.246,56.152,41.016,0
1484095942.925,41.016,42.969,53.711,62.012,69.824,0
1484095942.929,36.133,41.504,51.270,54.199,48.340,0
1484095942.933,33.203,45.410,51.270,51.758,47.363,0
1484095942.936,31.250,45.898,50.781,46.387,16.602,0
1484095942.940,26.367,41.504,54.688,40.527,-17.090,0
1484095942.944,24.902,41.992,58.105,39.551,11.719,0
1484095942.948,28.320,41.992,62.988,39.062,60.547,0
1484095942.952,29.785,36.133,64.453,35.156,65.918,0
1484095942.956,22.949,33.691,60.059,35.645,32.227,0
1484095942.960,20.996,32.715,59.082,42.969,23.438,0
1484095942.964,21.973,33.203,53.711,39.062,32.715,0
1484095942.968,23.438,35.156,47.852,35.156,-13.672,0
1484095942.972,22.949,35.156,41.992,33.203,-27.832,0
1484095942.976,23.926,34.668,40.527,33.203,-11.230,0
1484095942.979,23.926,36.621,46.387,37.109,-41.992,0
1484095942.983,19.531,35.645,48.340,35.156,-18.555,0
1484095942.987,23.438,36.133,48.340,41.992,37.598,0
1484095942.991,23.438,31.738,46.387,43.945,58.594,0
1484095942.995,20.996,25.391,44.922,36.621,-13.184,0
1484095942.999,21.973,29.297,44.922,38.574,-10.742,0
1484095943.003,22.949,34.668,44.434,43.457,35.645,0
1484095943.007,20.508,32.715,47.852,42.969,-21.484,0
1484095943.011,17.090,30.273,49.805,42.969,-19.531,0
1484095943.015,16.113,28.809,49.316,41.504,1.465,0
1484095943.019,22.461,35.156,51.758,45.898,-14.160,0
1484095943.022,24.902,38.086,47.852,47.363,-18.555,0
1484095943.026,21.484,31.738,47.363,41.992,-35.645,0
1484095943.030,21.973,31.250,49.805,44.922,-24.414,0
1484095943.034,22.949,32.227,46.875,46.875,-25.391,0
1484095943.038,31.738,35.645,43.945,50.293,26.855,0
1484095943.042,35.645,34.668,44.434,51.758,6.836,0
1484095943.046,32.715,31.738,50.781,52.734,-6.348,0
1484095943.050,36.133,36.621,52.246,58.594,59.570,0
1484095943.054,36.133,37.598,49.316,57.129,43.945,0
1484095943.058,34.180,30.273,49.805,53.223,-0.977,0
1484095943.061,33.203,27.832,46.875,53.711,16.602,0
1484095943.065,29.297,33.203,44.922,50.781,68.359,0
1484095943.069,21.973,31.250,51.270,48.340,133.301,0
1484095943.073,17.578,27.344,51.758,44.434,94.238,0
1484095943.077,16.113,29.297,50.293,42.969,32.715,0
1484095943.081,14.648,30.273,50.293,44.922,36.621,0
1484095943.085,19.043,29.785,47.852,48.340,26.367,0
1484095943.089,25.879,32.227,45.898,55.176,26.367,0
1484095943.093,28.320,33.691,41.504,56.641,-0.977,0
1484095943.097,25.391,36.133,42.969,51.758,53.223,0
1484095943.101,26.367,41.992,46.875,53.711,83.008,0
1484095943.104,32.227,43.945,48.828,61.523,51.270,0
1484095943.108,35.645,42.480,45.410,61.523,24.414,0
1484095943.112,39.551,44.922,44.434,59.082,28.320,0
1484095943.116,42.969,43.457,49.316,59.570,11.719,0
1484095943.120,44.922,42.480,49.316,58.594,53.223,0
1484095943.124,44.434,41.992,44.922,66.406,100.586,0
1484095943.128,44.922,39.062,48.828,70.801,49.316,0
1484095943.132,46.875,40.039,53.223,72.754,100.098,0
1484095943.136,41.016,41.016,47.852,68.848,52.734,0
1484095943.140,43.457,40.527,48.340,70.312,1.953,0
1484095943.144,42.480,35.645,51.758,69.824,46.387,0
1484095943.147,37.109,32.227,53.711,63.477,41.992,0
1484095943.151,34.668,35.645,54.199,65.918,5.859,0
1484095943.155,29.785,34.180,54.199,62.012,26.855,0
1484095943.159,24.414,31.250,52.734,58.105,56.641,0
1484095943.163,21.973,32.227,43.945,58.594,26.367,0
1484095943.167,24.902,36.621,40.039,55.176,-2.930,0
1484095943.171,27.832,37.598,42.480,52.734,3.418,0
1484095943.175,24.902,35.156,41.992,55.176,9.277,0
1484095943.179,22.461,37.109,41.016,52.734,-14.160,0
1484095943.183,27.832,38.086,42.969,49.316,-9.766,0
1484095943.186,26.367,37.598,44.434,44.434,24.414,0
1484095943.190,25.391,36.621,41.992,44.922,34.668,4
1484095943.194,29.297,33.691,38.574,50.781,40.039,0
1484095943.198,34.668,37.109,35.645,54.688,53.223,0
1484095943.202,36.133,43.457,34.668,59.570,-1.465,0
1484095943.206,33.203,45.410,31.250,60.547,-30.762,0
1484095943.210,37.109,48.828,26.855,58.594,19.043,0
1484095943.214,40.039,46.875,27.344,62.012,4.395,0
1484095943.218,39.062,43.457,26.367,63.477,-26.367,0
1484095943.222,38.086,42.969,22.461,60.547,41.504,0
1484095943.226,39.062,42.969,20.508,62.012,43.945,0
1484095943.229,41.016,46.387,24.414,62.500,7.812,0
1484095943.233,40.039,46.875,25.391,56.641,36.621,0
1484095943.237,43.457,45.410,27.832,53.711,79.102,0
1484095943.241,46.875,50.293,31.250,50.781,33.203,0
1484095943.245,42.969,51.758,31.738,50.293,28.809,0
1484095943.249,39.551,50.293,32.227,51.758,40.527,0
1484095943.253,40.039,53.223,32.227,50.293,15.137,0
1484095943.257,42.480,53.223,30.762,47.363,44.922,0
1484095943.261,44.922,49.805,28.320,47.852,37.598,0
1484095943.265,48.340,49.805,36.621,51.758,65.918,0
1484095943.269,44.434,50.293,42.480,53.711,44.922,0
1484095943.272,37.109,47.363,42.969,53.223,-54.199,0
1484095943.276,36.133,47.363,43.945,52.734,16.602,0
1484095943.280,35.156,44.922,44.922,49.316,-10.742,0
1484095943.284,34.668,40.039,47.852,46.875,-33.691,0
1484095943.288,32.227,42.480,42.969,50.781,22.461,0
1484095943.292,29.785,47.852,38.574,48.340,-34.668,0
1484095943.296,24.414,44.922,41.992,46.387,2.930,0
1484095943.300,20.020,42.480,42.480,46.875,27.344,0
1484095943.304,23.926,41.016,38.086,41.992,49.805,0
1484095943.308,20.996,39.062,39.062,37.598,46.875,0
1484095943.311,22.461,42.480,42.969,40.039,15.137,0
1484095943.315,26.855,43.457,44.922,43.457,17.578,0
1484095943.319,25.879,38.574,45.410,42.969,-5.859,0
1484095943.323,25.879,34.180,43.457,42.969,-33.203,0
1484095943.327,29.297,29.785,40.039,46.387,-4.883,0
1484095943.331,38.086,38.574,37.598,50.293,40.527,0
1484095943.335,42.480,47.852,32.227,45.410,57.129,0
1484095943.339,45.410,51.758,30.273,46.875,29.297,0
1484095943.343,51.270,58.594,41.504,55.664,26.367,0
1484095943.347,51.270,58.105,56.152,58.105,53.711,0
1484095943.351,52.246,54.688,64.941,61.035,41.504,0
1484095943.354,45.898,49.805,74.219,58.594,5.371,0
1484095943.358,40.039,48.340,83.496,52.734,-11.719,0
1484095943.362,43.457,45.898,82.520,55.664,7.812,0
1484095943.366,43.457,43.945,75.195,59.570,14.160,0
1484095943.370,46.387,41.992,74.707,62.500,28.320,0
1484095943.374,49.316,40.039,81.543,65.918,18.555,0
1484095943.378,50.293,39.062,84.473,62.988,10.742,0
1484095943.382,50.781,37.109,77.637,64.941,19.043,0
1484095943.386,48.340,40.039,74.219,71.777,71.289,0
1484095943.390,44.922,44.434,71.289,70.801,63.477,0
1484095943.394,41.016,43.945,71.777,67.871,-50.781,0
1484095943.397,35.645,39.062,81.055,66.406,11.230,0
1484095943.401,33.691,39.062,86.426,62.500,53.223,0
1484095943.405,32.715,42.969,86.914,63.477,13.184,0
1484095943.409,26.855,43.457,85.449,60.059,11.230,0
1484095943.413,29.297,42.480,84.473,58.594,12.695,0
1484095943.417,27.344,44.922,79.590,59.082,15.625,0
1484095943.421,21.484,42.480,72.266,55.176,-8.301,0
1484095943.425,21.973,39.551,69.336,54.688,21.973,0
1484095943.429,25.391,40.039,64.453,62.500,53.711,0
1484095943.433,29.297,41.016,61.523,66.895,43.945,0
1484095943.436,36.133,40.039,65.430,67.383,13.672,0
1484095943.440,40.039,41.016,67.871,69.824,24.902,0
1484095943.444,40.039,45.410,73.242,72.266,33.203,0
1484095943.448,39.062,47.363,72.266,72.754,40.527,0
1484095943.452,31.738,44.922,62.012,67.383,30.762,0
1484095943.456,34.180,42.969,57.617,62.988,-12.695,0
1484095943.460,34.180,42.480,61.035,59.082,-10.742,0
1484095943.464,24.414,38.574,59.082,57.617,15.625,0
1484095943.468,26.367,33.691,59.570,61.035,-8.301,0
1484095943.472,29.297,34.180,57.617,55.176,41.504,0
1484095943.476,26.855,37.598,52.734,52.246,63.477,0
1484095943.479,26.855,39.062,51.270,49.316,4.395,0
1484095943.483,23.438,38.574,47.852,41.992,46.875,0
1484095943.487,20.508,37.109,43.457,38.574,69.336,0
1484095943.491,22.949,34.668,40.039,39.062,30.762,0
1484095943.495,30.273,32.715,41.504,41.504,15.137,0
1484095943.499,32.227,32.227,43.945,40.527,10.742,0
1484095943.503,30.762,33.691,47.852,39.551,-1.953,0
1484095943.507,31.250,33.203,47.363,37.598,18.066,0
1484095943.511,26.855,30.762,41.992,35.645,35.645,0
1484095943.515,22.461,27.344,39.551,36.133,50.293,0
1484095943.519,19.531,21.484,39.551,39.551,25.391,0
1484095943.522,18.066,25.879,41.504,46.387,8.301,0
1484095943.526,19.043,32.227,41.016,44.922,10.742,0
1484095943.530,16.113,28.320,35.156,43.945,22.949,0
1484095943.534,17.090,24.414,33.203,47.363,72.266,0
1484095943.538,23.438,26.367,38.086,40.039,55.176,0
1484095943.542,28.809,27.344,36.133,39.062,45.898,0
1484095943.546,33.691,23.438,34.668,41.992,51.270,0
1484095943.550,35.645,20.508,35.156,41.992,-6.348,0
1484095943.554,33.691,20.020,32.715,43.945,5.859,0
1484095943.558,33.691,22.949,34.180,42.969,36.133,0
1484095943.561,34.180,21.484,33.203,43.457,-1.953,0
1484095943.565,27.832,13.672,35.156,38.574,-31.738,0
1484095943.569,23.438,15.137,39.551,38.086,3.418,0
1484095943.573,24.414,18.066,36.133,41.992,13.672,0
1484095943.577,21.973,17.090,36.133,38.574,6.348,0
1484095943.581,15.625,16.113,42.969,35.645,69.824,0
1484095943.585,12.207,16.113,43.945,32.715,106.445,0
1484095943.589,15.137,16.602,39.551,33.203,6.348,0
1484095943.593,19.043,17.090,38.086,35.645,-79.590,0
1484095943.597,12.695,17.578,40.527,35.156,-16.602,0
1484095943.601,7.324,20.508,42.480,35.645,18.066,0
1484095943.604,8.301,21.484,44.922,33.203,40.039,0
1484095943.608,14.160,28.809,43.457,41.504,105.469,0
1484095943.612,15.137,26.367,42.480,49.316,28.809,0
1484095943.616,18.555,16.602,45.898,46.875,-34.180,0
1484095943.620,21.973,19.043,46.387,49.805,11.719,0
1484095943.624,16.602,19.531,44.922,51.270,26.855,0
1484095943.628,16.113,23.438,49.805,46.875,31.250,0
1484095943.632,17.578,27.832,52.734,48.340,34.180,0
1484095943.636,15.137,31.250,45.410,48.828,20.996,0
1484095943.640,17.578,31.250,46.875,43.945,23.438,0
1484095943.644,19.043,30.273,48.828,46.387,13.672,0
1484095943.647,17.578,31.250,42.969,48.340,61.523,0
1484095943.651,19.531,32.227,42.969,47.363,60.547,0
1484095943.655,24.902,34.668,46.875,51.758,-5.371,0
1484095943.659,25.879,33.203,44.434,51.270,16.113,0
1484095943.663,22.461,27.344,38.086,48.340,10.254,0
1484095943.667,21.973,25.391,36.133,51.270,-18.066,0
1484095943.671,25.391,27.832,40.039,55.176,-28.320,0
1484095943.675,24.902,30.273,34.668,51.758,28.809,0
1484095943.679,26.855,35.645,24.902,48.340,44.434,0
1484095943.683,29.785,34.668,24.902,42.480,52.734,0
1484095943.686,30.273,33.691,24.902,46.387,65.918,0
1484095943.690,35.156,35.156,26.855,50.781,29.297,5
1484095943.694,33.203,36.133,30.273,45.898,52.734,0
1484095943.698,30.762,35.645,28.320,42.969,63.965,0
1484095943.702,32.227,41.504,31.250,44.434,40.527,0
1484095943.706,36.621,46.387,38.574,51.758,56.152,0
1484095943.710,36.621,39.551,32.715,58.594,50.293,0
1484095943.714,33.691,32.715,30.273,61.523,8.301,0
1484095943.718,38.086,34.668,31.738,61.523,31.738,0
1484095943.722,43.457,36.133,34.180,61.035,36.133,0
1484095943.726,41.016,34.668,36.621,60.547,-17.090,0
1484095943.729,38.086,34.668,33.691,62.988,4.395,0
1484095943.733,39.551,32.715,31.738,63.965,16.602,0
1484095943.737,35.645,30.762,28.809,58.594,-29.297,0
1484095943.741,33.691,31.738,25.391,57.129,17.090,0
1484095943.745,36.621,34.668,28.320,62.012,46.387,0
1484095943.749,38.574,34.180,29.785,67.383,-10.742,0
1484095943.753,38.574,36.621,24.414,69.336,5.859,0
1484095943.757,34.180,38.086,28.320,67.871,51.758,0
1484095943.761,28.809,34.180,34.668,62.500,43.457,0
1484095943.765,28.320,33.203,29.297,56.641,-11.230,0
1484095943.769,35.645,37.109,28.809,58.105,46.875,0
1484095943.772,35.645,37.109,34.668,59.082,82.031,0
1484095943.776,31.250,33.691,34.180,55.664,-4.395,0
1484095943.780,31.250,35.645,31.250,51.758,0.488,0
1484095943.784,28.809,33.203,30.273,49.805,-15.625,0
1484095943.788,27.832,31.738,38.086,50.781,-32.227,0
1484095943.792,28.809,35.645,40.039,44.922,-30.273,0
1484095943.796,27.344,33.691,42.480,39.062,-3.418,0
1484095943.800,26.367,28.809,46.875,44.434,59.570,0
1484095943.804,20.996,31.738,43.457,47.852,11.230,0
1484095943.808,22.949,29.297,46.875,44.922,-4.883,0
1484095943.811,28.809,23.926,51.270,49.316,2.930,0
1484095943.815,30.762,28.809,50.781,55.176,24.902,0
1484095943.819,27.832,34.180,52.246,54.688,68.359,0
1484095943.823,22.949,32.227,53.223,52.734,61.035,0
1484095943.827,22.949,25.879,55.664,59.570,19.531,0
1484095943.831,21.973,27.344,59.082,61.035,28.320,0
1484095943.835,21.484,28.320,58.105,62.012,70.801,0
1484095943.839,21.484,26.855,56.641,64.453,31.250,0
1484095943.843,23.926,24.902,53.711,60.547,36.621,0
1484095943.847,23.926,22.949,49.316,63.965,57.617,0
1484095943.851,21.973,28.809,47.363,64.453,19.043,0
1484095943.854,20.020,35.156,47.852,59.570,13.184,0
1484095943.858,17.578,32.715,44.434,54.199,4.395,0
1484095943.862,13.184,29.297,41.504,46.387,2.441,0
1484095943.866,6.836,34.668,42.969,46.875,35.156,0
1484095943.870,4.883,43.457,41.504,41.504,40.527,0
1484095943.874,3.906,44.434,44.434,34.180,21.973,0
1484095943.878,3.418,44.434,46.875,32.227,-38.086,0
1484095943.882,4.883,43.945,41.504,28.809,-30.273,0
1484095943.886,12.695,42.969,39.062,29.785,23.438,0
1484095943.890,15.137,45.410,38.574,34.668,6.836,0
1484095943.894,20.996,46.875,37.109,37.109,-21.484,0
1484095943.897,29.297,45.898,38.574,41.016,8.301,0
1484095943.901,34.668,41.016,40.527,44.434,20.020,0
1484095943.905,37.109,40.039,38.086,47.363,-9.277,0
1484095943.909,40.527,39.062,37.598,51.270,-3.418,0
1484095943.913,44.922,39.551,38.574,56.641,43.945,0
1484095943.917,43.945,48.340,37.109,63.477,35.645,0
1484095943.921,41.992,50.781,37.598,62.500,59.570,0
1484095943.925,41.504,45.410,38.086,62.500,57.617,0
1484095943.929,40.527,41.016,42.969,60.059,0.977,0
1484095943.933,40.527,41.992,44.434,55.664,15.137,0
1484095943.936,39.062,41.992,43.457,57.617,47.852,0
1484095943.940,35.645,42.969,47.852,55.664,-4.395,0
1484095943.944,32.227,43.945,50.293,53.223,-5.371,0
1484095943.948,31.250,37.109,48.828,58.105,11.230,0
1484095943.952,36.133,32.715,44.434,63.477,40.527,0
1484095943.956,37.598,36.133,43.457,64.941,70.312,0
1484095943.960,32.715,38.086,47.363,62.012,1.953,0
1484095943.964,32.227,38.574,45.410,56.641,-19.531,0
1484095943.968,33.691,38.086,44.922,59.570,39.551,0
1484095943.972,31.250,39.551,49.805,59.570,39.062,0
1484095943.976,30.762,44.434,49.316,53.711,-15.625,0
1484095943.979,27.832,48.340,46.875,49.805,-24.902,0
1484095943.983,20.996,47.363,42.480,46.387,-13.184,0
1484095943.987,19.043,44.434,40.039,41.992,29.785,0
1484095943.991,21.973,45.898,39.062,38.574,84.961,0
1484095943.995,18.066,50.781,35.645,34.180,86.914,0
1484095943.999,12.695,51.270,38.086,30.762,38.574,0
1484095944.003,13.672,48.340,42.480,29.785,44.434,0
1484095944.007,14.648,49.805,38.574,31.250,68.848,0
1484095944.011,12.695,50.781,41.016,28.809,74.219,0
1484095944.015,5.371,48.828,42.969,23.926,87.891,0
1484095944.019,9.766,51.758,40.527,31.250,66.406,0
1484095944.022,23.438,51.270,43.457,43.945,24.414,0
1484095944.026,24.902,47.852,41.504,46.875,5.859,0
1484095944.030,25.879,48.828,43.945,47.363,32.227,0
1484095944.034,26.367,44.922,50.293,50.293,77.637,0
1484095944.038,27.832,45.410,51.270,56.641,73.242,0
1484095944.042,37.109,50.781,55.176,65.430,45.898,0
1484095944.046,35.156,48.340,61.523,65.430,-18.555,0
1484095944.050,29.785,43.945,62.500,62.500,0.000,0
1484095944.054,33.691,44.922,63.965,58.105,79.102,0
1484095944.058,34.668,46.387,64.453,57.617,19.043,0
1484095944.061,36.621,49.316,61.523,62.012,-15.625,0
1484095944.065,43.457,51.758,60.059,64.453,32.715,0
1484095944.069,38.086,48.340,57.617,55.664,0.977,0
1484095944.073,35.156,47.852,54.199,51.270,3.906,0
1484095944.077,35.645,48.828,55.176,49.316,45.410,0
1484095944.081,31.738,48.828,56.641,44.922,18.066,0
1484095944.085,30.762,50.293,54.199,44.434,-12.695,0
1484095944.089,27.832,47.852,54.688,42.969,31.738,0
1484095944.093,27.832,47.363,62.012,46.387,81.543,0
1484095944.097,29.785,49.316,67.871,50.293,26.855,0
1484095944.101,30.762,48.340,63.965,50.293,2.441,0
1484095944.104,28.320,50.781,57.129,47.363,34.180,0
1484095944.108,22.949,49.805,56.641,40.527,15.625,0
1484095944.112,22.461,44.434,58.594,41.992,55.176,0
1484095944.116,19.043,44.434,54.688,43.457,112.305,0
1484095944.120,17.578,49.805,55.664,41.992,75.684,0
1484095944.124,21.484,49.805,61.035,41.016,8.301,0
1484095944.128,24.902,49.316,61.523,39.062,-2.930,0
1484095944.132,19.043,53.223,55.664,33.691,-22.949,0
1484095944.136,18.066,52.734,48.340,32.227,3.418,0
1484095944.140,25.879,45.410,50.781,39.062,15.625,0
1484095944.144,26.855,38.574,51.758,42.969,34.180,0
1484095944.147,26.855,42.969,54.688,45.410,4.395,0
1484095944.151,30.273,49.805,60.059,44.434,-12.695,0
1484095944.155,29.785,50.781,57.617,40.039,82.031,0
1484095944.159,29.297,48.828,54.199,37.598,49.805,0
1484095944.163,37.109,48.340,48.340,50.293,16.602,0
1484095944.167,41.504,51.758,40.527,56.641,62.988,0
1484095944.171,38.574,53.711,45.410,53.223,39.551,0
1484095944.175,41.992,52.734,59.082,59.082,32.227,0
1484095944.179,38.086,51.758,63.477,59.082,59.082,0
1484095944.183,28.320,54.688,58.594,58.105,36.621,0
1484095944.186,26.855,47.852,55.176,59.082,34.668,0
1484095944.190,35.156,41.992,60.059,61.523,36.133,0
1484095944.194,39.551,46.387,61.035,67.871,47.363,0
1484095944.198,36.621,49.316,57.129,70.801,3.906,0
1484095944.202,37.598,51.270,57.129,73.242,22.949,0
1484095944.206,43.457,48.828,49.805,70.801,54.688,0
1484095944.210,46.875,48.828,49.316,68.848,55.664,0
1484095944.214,50.781,48.340,56.152,69.336,45.898,0
1484095944.218,51.270,47.363,56.152,73.242,5.859,0
1484095944.222,44.922,46.875,59.570,75.195,24.902,0
1484095944.226,39.062,45.898,62.012,67.871,7.324,0
1484095944.229,39.062,48.340,58.105,62.012,-26.367,0
1484095944.233,36.133,47.852,52.246,56.152,-50.293,0
1484095944.237,30.273,42.969,54.199,46.387,-20.020,0
1484095944.241,25.879,44.922,57.617,43.945,30.273,0
1484095944.245,27.832,44.434,54.688,41.016,3.906,0
1484095944.249,29.297,41.992,49.805,41.504,25.879,0
1484095944.253,30.273,42.480,47.852,44.922,81.543,0
1484095944.257,32.227,42.480,45.898,48.828,67.383,0
1484095944.261,33.691,47.852,44.922,50.781,46.875,0
1484095944.265,35.156,50.293,49.316,51.758,-27.832,0
1484095944.269,36.621,43.945,53.223,53.711,-47.363,0
1484095944.272,35.156,45.410,52.734,50.781,2.930,0
1484095944.276,34.668,44.434,46.387,57.129,3.418,0
1484095944.280,36.133,38.574,49.805,65.430,71.289,0
1484095944.284,31.738,41.504,50.293,64.941,20.996,0
1484095944.288,27.344,43.457,47.363,61.035,-40.039,0
1484095944.292,25.879,41.504,48.340,54.688,-15.625,0
1484095944.296,29.297,42.480,47.852,58.105,-13.184,0
1484095944.300,31.250,43.945,48.340,56.641,23.438,0
1484095944.304,29.297,41.016,47.852,51.270,21.973,0
1484095944.308,33.203,40.527,52.734,58.105,-12.207,0
1484095944.311,36.621,43.945,55.664,58.105,0.977,0
1484095944.315,38.086,46.875,49.805,56.152,65.918,0
1484095944.319,42.480,47.852,48.828,58.105,22.949,0
1484095944.323,41.504,46.387,49.805,54.688,-30.273,0
1484095944.327,40.039,47.852,44.922,55.664,20.996,0
1484095944.331,37.109,44.434,43.945,57.129,68.359,0
1484095944.335,30.762,39.062,42.969,56.641,59.570,0
1484095944.339,31.738,39.062,42.969,58.594,-1.465,0
1484095944.343,32.227,41.504,44.434,60.547,3.418,0
1484095944.347,33.691,44.922,43.457,65.918,46.387,0
1484095944.351,35.645,45.898,43.945,63.477,72.266,0
1484095944.354,27.344,44.922,39.062,53.223,64.941,0
1484095944.358,20.508,41.504,37.598,51.270,32.227,0
1484095944.362,20.996,41.016,41.504,52.246,15.137,0
1484095944.366,22.949,44.434,42.480,53.223,40.527,0
1484095944.370,22.461,47.852,41.504,50.781,47.852,0
1484095944.374,22.949,44.434,42.480,50.293,-6.348,0
1484095944.378,26.855,44.434,48.340,53.711,19.043,0
1484095944.382,31.738,51.758,44.922,55.176,30.762,0
1484095944.386,40.039,52.734,36.133,58.594,25.879,0
1484095944.390,42.969,53.711,33.203,63.965,68.359,0
1484095944.394,42.969,52.246,36.621,67.871,34.180,0
1484095944.397,41.016,49.316,40.039,69.336,49.316,0
1484095944.401,39.551,53.711,34.180,69.336,73.242,0
1484095944.405,41.992,55.176,29.785,67.871,68.359,0
1484095944.409,45.410,57.129,33.203,68.848,69.824,0
1484095944.413,46.875,56.152,35.645,71.289,31.738,0
1484095944.417,44.922,55.664,37.598,65.430,12.207,0
1484095944.421,45.410,58.105,44.434,62.500,10.742,0
1484095944.425,42.480,58.105,43.945,62.012,7.812,0
1484095944.429,41.504,59.570,39.551,60.059,21.973,0
1484095944.433,45.898,58.594,40.039,59.082,16.113,0
1484095944.436,43.945,59.082,39.551,59.082,-25.391,0
1484095944.440,43.457,59.570,41.992,55.176,56.152,0
1484095944.444,41.504,55.664,42.969,50.293,48.828,0
1484095944.448,40.039,49.805,45.410,51.758,25.879,0
1484095944.452,40.527,49.805,48.340,49.805,42.969,0
1484095944.456,35.156,51.270,45.898,41.992,-20.996,0
1484095944.460,30.273,51.758,44.922,36.621,16.602,0
1484095944.464,28.809,53.711,44.922,38.574,46.387,0
1484095944.468,26.855,54.199,41.016,37.598,62.012,0
1484095944.472,28.320,52.246,38.086,34.180,82.520,0
1484095944.476,35.156,48.828,42.480,35.645,38.574,0
1484095944.479,33.691,49.316,42.969,35.156,5.859,0
1484095944.483,31.250,48.828,39.062,35.156,-18.555,0
1484095944.487,33.691,49.805,37.598,35.645,-23.438,0
1484095944.491,35.156,47.852,36.621,41.016,0.000,0
1484095944.495,40.039,48.340,40.527,53.711,6.836,0
1484095944.499,42.969,52.246,45.410,55.664,-10.254,0
1484095944.503,38.574,47.852,48.340,49.805,13.184,0
1484095944.507,37.109,43.945,50.293,56.152,-1.465,0
1484095944.511,42.969,44.434,47.852,61.523,-7.812,0
1484095944.515,39.062,42.480,43.457,56.641,9.277,0
1484095944.519,34.668,38.574,41.016,55.176,32.227,0
1484095944.522,37.598,42.969,38.086,58.594,36.133,0
1484095944.526,37.109,44.922,36.621,58.105,29.785,0
1484095944.530,36.621,43.457,38.574,52.246,33.203,0
1484095944.534,37.598,48.340,36.621,54.688,19.531,0
1484095944.538,38.574,49.316,33.691,56.641,21.973,0
1484095944.542,39.551,49.805,37.109,59.082,48.828,0
1484095944.546,32.227,50.293,38.086,61.035,85.449,0
1484095944.550,32.715,48.340,37.598,58.594,11.719,0
1484095944.554,38.574,48.828,38.574,55.176,-56.152,0
1484095944.558,35.156,48.340,38.574,51.758,6.836,0
1484095944.561,32.227,44.922,38.086,52.246,8.789,0
1484095944.565,34.668,42.969,33.691,52.246,48.828,0
1484095944.569,31.250,43.945,36.133,45.898,112.305,0
1484095944.573,20.508,48.828,41.504,42.969,40.527,0
1484095944.577,22.461,46.387,42.969,42.480,5.371,0
1484095944.581,23.926,39.551,41.992,40.039,21.484,0
1484095944.585,19.531,41.504,38.574,42.480,22.949,0
1484095944.589,24.414,48.828,39.551,43.945,-11.230,0
1484095944.593,26.855,52.246,40.527,42.969,20.020,0
1484095944.597,17.578,46.387,35.645,41.016,36.133,0
1484095944.601,14.648,43.457,36.621,40.039,34.668,0
1484095944.604,20.996,47.363,34.180,44.922,61.523,0
1484095944.608,28.320,48.828,34.180,50.781,6.836,0
1484095944.612,33.203,50.781,43.457,53.711,-33.691,0
1484095944.616,30.273,50.293,46.387,54.199,-18.555,0
1484095944.620,29.297,50.293,45.410,53.711,3.906,0
1484095944.624,32.227,53.223,43.457,55.664,40.039,0
1484095944.628,31.250,49.805,43.945,61.035,43.457,0
1484095944.632,29.785,50.293,43.457,62.012,4.883,0
1484095944.636,28.320,52.734,41.016,57.617,41.992,0
1484095944.640,29.785,55.176,39.551,58.594,52.246,0
1484095944.644,27.344,57.617,38.086,56.152,40.527,0
1484095944.647,23.438,53.711,41.016,50.293,77.148,0
1484095944.651,20.020,53.711,38.574,42.969,14.160,0
1484095944.655,19.531,52.246,33.203,40.039,-9.766,0
1484095944.659,18.555,50.781,32.227,38.574,53.223,0
1484095944.663,17.578,52.734,37.109,39.062,36.133,0
1484095944.667,18.555,52.246,42.480,41.992,61.523,0
1484095944.671,13.184,51.270,40.527,36.621,98.145,0
1484095944.675,9.277,51.758,40.527,32.715,62.500,0
1484095944.679,9.766,49.316,36.133,34.180,11.230,0
1484095944.683,10.742,50.781,32.715,35.156,-4.883,0
1484095944.686,21.484,53.223,34.180,41.016,46.387,0
1484095944.690,25.879,57.129,34.180,43.945,25.391,0
1484095944.694,11.719,55.176,34.668,36.133,-32.715,0
1484095944.698,10.254,48.828,37.109,35.156,3.906,0
1484095944.702,24.414,52.246,36.621,42.969,-1.953,0
1484095944.706,35.645,54.688,32.715,53.711,41.016,0
1484095944.710,41.016,51.270,34.668,60.547,97.168,0
1484095944.714,44.434,49.805,35.156,60.547,91.797,0
1484095944.718,52.246,53.223,36.621,59.082,89.355,0
1484095944.722,54.688,53.711,36.621,56.641,37.109,0
1484095944.726,53.223,55.664,36.133,56.641,22.461,0
1484095944.729,56.641,58.594,40.039,58.594,-3.418,0
1484095944.733,55.664,53.711,40.527,61.035,-39.551,0
1484095944.737,49.805,50.781,38.086,64.941,36.133,0
1484095944.741,48.828,50.781,34.180,61.035,14.160,0
1484095944.745,46.875,49.805,35.645,60.547,-18.066,0
1484095944.749,39.062,50.781,35.156,57.617,21.973,0
1484095944.753,40.527,51.270,34.180,53.223,-28.809,0
1484095944.757,46.387,53.223,33.203,58.594,-2.930,0
1484095944.761,48.340,45.898,32.227,63.965,22.461,0
1484095944.765,47.363,42.969,34.668,68.359,18.555,0
1484095944.769,47.852,50.781,34.180,71.777,-0.488,0
1484095944.772,48.340,48.828,30.273,70.801,-21.484,0
1484095944.776,46.387,48.340,33.691,69.336,37.109,0
1484095944.780,44.434,49.805,36.133,66.895,36.133,0
1484095944.784,41.016,48.828,33.203,61.523,46.387,0
1484095944.788,42.969,49.316,34.180,56.641,33.203,0
1484095944.792,43.945,51.758,39.062,53.223,30.273,0
1484095944.796,46.387,56.641,39.551,53.223,-0.488,0
1484095944.800,50.293,57.129,40.039,60.547,19.043,0
1484095944.804,47.363,51.758,39.551,66.895,84.961,0
1484095944.808,48.340,49.805,33.691,71.289,31.738,0
1484095944.811,50.781,53.223,30.273,73.242,-22.949,0
1484095944.815,50.781,47.852,30.273,72.266,8.301,0
1484095944.819,50.781,45.898,32.715,72.266,17.090,0
1484095944.823,53.711,52.734,33.691,74.219,1.953,0
1484095944.827,50.293,54.688,30.273,70.801,-41.992,0
1484095944.831,48.828,55.664,29.297,65.430,-25.879,0
1484095944.835,45.410,56.641,25.879,56.152,48.340,0
1484095944.839,37.598,54.688,26.367,52.734,30.762,0
1484095944.843,32.715,54.199,29.297,55.176,5.371,0
1484095944.847,25.391,50.781,28.809,54.688,57.617,0
1484095944.851,16.602,46.875,26.855,52.246,23.438,0
1484095944.854,8.301,41.504,23.438,49.316,20.996,0
1484095944.858,8.789,37.109,25.879,46.387,102.539,0
1484095944.862,15.625,43.457,31.738,44.922,71.777,0
1484095944.866,15.137,48.828,31.250,41.016,7.324,0
1484095944.870,14.160,44.922,32.715,39.551,-0.488,0
1484095944.874,12.695,46.387,31.250,43.457,23.926,0
1484095944.878,13.672,48.828,31.250,45.898,63.477,0
1484095944.882,16.602,49.316,37.109,47.363,64.941,0
1484095944.886,23.926,47.852,36.133,55.176,0.977,0
1484095944.890,29.297,42.480,34.180,60.547,15.137,0
1484095944.894,29.297,40.039,31.250,56.152,31.250,0
1484095944.897,33.203,44.434,25.879,57.129,20.996,0
1484095944.901,37.598,49.316,24.902,66.406,26.855,0
1484095944.905,40.039,47.363,23.926,68.359,34.668,0
1484095944.909,45.410,51.270,23.926,68.359,64.941,0
1484095944.913,44.922,59.570,20.996,73.730,31.738,0
1484095944.917,44.434,60.547,24.902,71.289,31.250,0
1484095944.921,42.969,59.082,29.785,68.848,21.973,0
1484095944.925,41.504,58.594,27.344,69.336,18.555,0
1484095944.929,42.480,54.688,32.715,66.895,52.734,0
1484095944.933,41.016,52.246,29.785,64.453,27.344,0
1484095944.936,36.133,56.641,24.414,56.152,0.977,0
1484095944.940,28.320,55.176,24.902,50.781,39.551,0
1484095944.944,32.227,57.129,32.227,57.617,40.527,0
1484095944.948,31.738,60.059,35.156,58.594,-1.465,0
1484095944.952,26.367,52.734,31.738,53.223,23.438,0
1484095944.956,23.438,50.781,31.738,52.734,47.852,0
1484095944.960,22.461,52.734,30.762,53.223,20.508,0
1484095944.964,21.484,51.270,39.062,52.246,-16.602,0
1484095944.968,25.391,50.781,48.828,51.758,12.695,0
1484095944.972,26.855,51.758,51.758,53.223,23.926,0
1484095944.976,24.414,54.199,58.105,55.664,13.184,0
1484095944.979,24.902,53.711,61.523,55.176,-12.207,0
1484095944.983,23.926,47.852,66.895,52.734,35.645,0
1484095944.987,18.555,41.504,66.895,48.340,59.082,0
1484095944.991,25.391,43.945,66.406,44.434,-13.672,0
1484095944.995,34.180,50.293,72.266,48.828,17.578,0
1484095944.999,33.203,48.828,72.754,53.711,-1.953,0
1484095945.003,33.691,47.363,72.754,52.246,-24.902,0
1484095945.007,34.668,49.316,73.242,53.711,4.395,0
1484095945.011,36.621,48.828,77.637,54.688,16.602,0
1484095945.015,40.039,44.434,80.566,54.688,65.430,0
1484095945.019,41.504,43.945,76.660,60.059,68.359,0
1484095945.022,38.086,48.828,73.730,58.594,13.672,0
1484095945.026,36.621,52.246,73.242,58.594,30.273,0
1484095945.030,36.133,50.781,69.336,58.105,2.441,0
1484095945.034,30.762,47.852,70.312,51.270,-7.812,0
1484095945.038,30.762,52.734,62.500,51.758,4.395,0
1484095945.042,32.715,58.594,56.641,49.805,-29.785,0
1484095945.046,34.668,59.082,60.547,47.852,10.742,0
1484095945.050,31.250,56.641,63.477,47.363,25.879,0
1484095945.054,30.762,58.105,66.406,50.781,16.113,0
1484095945.058,32.227,56.152,65.430,48.340,60.059,0
1484095945.061,33.203,52.734,65.430,50.293,19.531,0
1484095945.065,33.691,55.176,66.406,55.664,33.691,0
1484095945.069,32.227,52.246,68.848,50.781,41.016,0
1484095945.073,23.438,52.246,67.383,46.387,-17.578,0
1484095945.077,23.438,56.641,64.941,52.246,41.016,0
1484095945.081,26.367,59.082,62.500,55.176,5.859,0
1484095945.085,20.020,57.617,55.176,55.176,-15.137,0
1484095945.089,21.973,56.152,52.246,56.152,42.480,0
1484095945.093,22.949,52.246,49.316,55.664,1.953,0
1484095945.097,24.902,49.316,43.945,60.547,-5.859,0
1484095945.101,31.738,50.293,47.852,66.406,40.527,0
1484095945.104,29.297,55.176,51.270,64.941,27.832,0
1484095945.108,28.809,56.152,47.852,63.965,-2.930,0
1484095945.112,35.156,55.664,44.922,68.848,46.875,0
1484095945.116,39.551,53.711,44.434,68.359,48.828,0
1484095945.120,41.992,50.781,47.852,66.895,33.691,0
1484095945.124,37.598,49.805,45.898,70.312,36.133,0
1484095945.128,38.086,50.293,43.457,73.730,-20.020,0
1484095945.132,39.062,52.246,44.434,65.430,-16.113,0
1484095945.136,41.992,49.316,45.410,59.082,-8.789,0
1484095945.140,43.457,51.270,42.969,59.082,9.766,0
1484095945.144,38.086,55.176,32.227,54.199,32.715,0
1484095945.147,33.203,55.664,23.926,50.293,26.367,0
1484095945.151,27.344,52.734,22.949,42.969,51.758,0
1484095945.155,29.297,50.293,28.320,38.574,30.762,0
1484095945.159,32.227,55.176,25.879,39.551,31.738,0
1484095945.163,35.156,60.059,21.973,40.039,34.668,0
1484095945.167,33.203,59.570,19.043,38.086,-6.348,0
1484095945.171,25.879,56.152,13.184,36.621,-3.418,0
1484095945.175,28.809,60.059,20.996,40.527,-15.137,0
1484095945.179,30.762,63.477,23.926,37.109,9.766,0
1484095945.183,31.250,58.594,21.484,32.715,34.180,0
1484095945.186,34.180,56.152,26.855,39.062,49.805,0
1484095945.190,33.691,65.430,29.297,48.340,60.547,0
1484095945.194,30.762,69.336,22.949,50.781,23.438,0
1484095945.198,29.785,68.359,21.484,45.898,22.949,0
1484095945.202,37.109,69.336,25.879,44.434,38.574,0
1484095945.206,43.945,68.359,25.391,47.852,13.672,0
1484095945.210,50.781,70.801,29.785,52.734,50.781,0
1484095945.214,47.363,66.895,28.809,51.270,59.570,0
1484095945.218,47.363,62.988,26.855,50.293,39.062,0
1484095945.222,51.270,64.453,34.180,48.828,48.828,0
1484095945.226,47.852,60.547,33.691,45.898,14.160,0
1484095945.229,43.457,56.152,27.832,54.688,25.879,0
1484095945.233,40.527,58.594,24.414,66.406,30.273,0
1484095945.237,38.574,60.059,26.855,71.289,21.973,0
1484095945.241,32.715,59.082,28.809,74.707,44.434,0
1484095945.245,26.855,56.152,30.762,77.148,56.152,0
1484095945.249,21.484,56.641,33.203,73.730,35.156,0
1484095945.253,21.484,58.105,31.738,72.266,2.441,0
1484095945.257,23.926,58.594,30.762,71.289,20.020,0
1484095945.261,25.391,61.035,34.180,68.359,9.277,0
1484095945.265,29.785,62.012,37.109,68.359,-0.977,0
1484095945.269,33.691,61.523,34.668,62.988,0.977,0
1484095945.272,28.809,61.523,31.250,55.176,-22.949,0
1484095945.276,24.414,60.059,32.715,52.246,5.859,0
1484095945.280,28.809,65.918,36.133,60.059,56.641,0
1484095945.284,28.809,77.637,40.039,66.406,39.551,0
1484095945.288,33.691,90.332,40.527,67.871,20.020,0
1484095945.292,39.062,95.215,34.180,67.383,28.809,0
1484095945.296,41.016,99.121,30.762,68.848,26.367,0
1484095945.300,40.039,104.980,33.691,72.754,-11.230,0
1484095945.304,36.621,99.121,33.203,72.266,-10.254,0
1484095945.308,36.621,95.215,31.250,69.336,16.602,0
1484095945.311,39.551,104.980,29.297,71.777,9.766,0
1484095945.315,44.434,119.629,30.273,72.754,-62.988,0
1484095945.319,46.387,126.953,31.250,70.801,-85.938,0
1484095945.323,45.898,133.789,32.227,77.148,-66.895,0
1484095945.327,43.945,159.668,30.273,80.566,-43.945,0
1484095945.331,43.457,185.059,27.832,76.660,16.113,0
1484095945.335,46.875,206.055,29.297,80.078,68.359,0
1484095945.339,50.781,225.586,31.250,83.496,88.867,0
1484095945.343,50.781,229.980,33.691,82.031,38.574,0
1484095945.347,43.945,232.422,33.691,76.660,69.824,0
1484095945.351,36.133,240.723,41.504,72.754,46.875,0
1484095945.354,31.250,243.652,49.316,72.266,25.391,0
1484095945.358,32.715,248.535,46.875,70.312,27.344,0
1484095945.362,34.668,250.000,41.992,70.801,-13.184,0
1484095945.366,32.227,242.188,39.062,68.848,-9.766,0
1484095945.370,33.691,240.723,40.039,65.430,12.695,0
1484095945.374,32.227,238.281,36.621,61.035,35.645,0
1484095945.378,26.855,228.516,35.156,61.523,28.809,0
1484095945.382,22.461,214.355,33.203,61.523,3.906,0
1484095945.386,21.973,204.102,29.785,54.688,18.555,0
1484095945.390,26.855,205.566,35.156,55.664,23.438,0
1484095945.394,19.531,191.406,36.621,58.105,26.855,0
1484095945.397,13.184,169.922,32.715,56.152,9.277,0
1484095945.401,21.973,163.086,30.762,57.129,24.902,0
1484095945.405,21.484,150.391,28.809,55.664,47.363,0
1484095945.409,16.602,141.113,30.273,55.664,38.574,0
1484095945.413,16.602,146.973,33.691,51.270,47.852,0
1484095945.417,19.043,143.066,31.250,44.434,83.008,0
1484095945.421,20.508,134.766,27.832,41.504,56.641,0
1484095945.425,23.438,131.348,30.273,44.434,52.734,0
1484095945.429,30.762,130.859,30.762,48.340,67.383,0
1484095945.433,36.133,132.324,30.273,50.781,36.133,0
1484095945.436,43.457,134.277,33.691,58.594,63.965,0
1484095945.440,48.340,133.301,33.691,63.965,48.340,0
1484095945.444,43.945,125.488,32.227,63.965,42.969,0
1484095945.448,42.480,119.141,32.715,68.848,47.363,0
1484095945.452,42.969,112.793,36.621,72.754,60.059,0
1484095945.456,40.527,106.934,33.203,74.219,63.965,0
1484095945.460,40.527,102.539,26.855,72.266,-2.930,0
1484095945.464,38.574,103.027,26.367,66.406,-68.848,0
1484095945.468,39.062,104.004,20.996,64.453,-62.988,0
1484095945.472,37.598,109.863,21.973,63.477,39.062,0
1484095945.476,34.180,115.234,20.996,62.988,57.617,0
1484095945.479,32.227,109.375,16.113,57.129,3.418,0
1484095945.483,30.273,111.328,18.066,56.152,-1.465,0
1484095945.487,24.902,121.094,25.391,56.152,9.766,0
1484095945.491,20.508,129.395,25.879,50.293,40.039,0
1484095945.495,22.461,131.348,25.391,50.781,23.926,0
1484095945.499,21.484,131.348,28.809,50.781,-26.367,0
1484095945.503,20.508,132.812,27.832,45.410,-15.137,0
1484095945.507,21.973,125.000,27.344,43.945,-8.789,0
1484095945.511,20.996,119.629,30.273,43.457,6.348,0
1484095945.515,17.090,116.211,29.297,42.480,-10.254,0
1484095945.519,21.484,116.699,31.738,45.898,-13.672,0
1484095945.522,30.762,128.418,33.203,51.270,22.461,0
1484095945.526,30.762,132.812,31.738,51.270,45.898,0
1484095945.530,30.762,132.812,33.691,52.734,20.020,0
1484095945.534,36.621,128.906,35.156,57.129,-8.789,0
1484095945.538,49.316,126.953,30.762,58.105,6.836,0
1484095945.542,55.176,133.301,24.414,63.965,5.859,0
1484095945.546,51.270,128.418,25.879,68.848,41.504,0
1484095945.550,52.734,122.070,28.320,74.219,41.016,0
1484095945.554,59.082,118.164,25.391,80.566,49.805,0
1484095945.558,63.477,110.352,18.066,77.148,14.648,0
1484095945.561,62.500,109.375,19.043,76.172,10.742,0
1484095945.565,55.176,109.375,19.043,72.266,34.668,0
1484095945.569,47.852,98.145,15.137,67.383,45.898,0
1484095945.573,41.504,95.703,16.113,69.824,36.621,0
1484095945.577,40.527,98.145,20.508,66.406,25.391,0
1484095945.581,49.316,96.191,26.855,60.059,83.496,0
1484095945.585,58.105,104.492,31.738,59.570,39.551,0
1484095945.589,62.988,116.699,38.086,63.477,-40.039,0
1484095945.593,64.453,121.094,37.598,61.035,51.758,0
1484095945.597,60.059,124.512,33.691,60.547,91.309,0
1484095945.601,55.664,125.977,33.203,63.965,15.137,0
1484095945.604,51.758,121.094,38.086,58.594,-7.324,0
1484095945.608,49.805,115.723,39.062,52.734,-8.301,0
1484095945.612,44.922,110.352,35.645,51.758,15.137,0
1484095945.616,34.180,111.816,37.109,46.387,27.832,0
1484095945.620,34.180,110.840,39.551,41.992,97.168,0
1484095945.624,36.133,101.074,40.039,42.969,103.516,0
1484095945.628,36.621,90.332,43.945,46.387,2.930,0
1484095945.632,35.645,83.008,41.016,45.898,-0.488,0
1484095945.636,36.133,80.566,38.086,45.898,69.336,0
1484095945.640,39.551,79.590,39.551,47.852,23.926,0
1484095945.644,41.016,79.590,39.062,48.340,-36.133,0
1484095945.647,41.992,79.590,36.621,46.875,28.320,0
1484095945.651,40.039,76.660,33.691,38.086,43.457,0
1484095945.655,37.598,71.777,33.203,37.109,-16.602,0
1484095945.659,37.109,71.289,39.551,40.527,-44.922,0
1484095945.663,36.133,72.266,42.969,44.922,-15.137,0
1484095945.667,35.645,71.289,41.016,52.246,25.391,0
1484095945.671,37.109,66.406,43.945,59.570,51.270,0
1484095945.675,40.039,57.129,45.898,64.941,59.082,0
1484095945.679,39.551,56.641,46.387,65.918,45.898,0
1484095945.683,34.668,63.477,45.410,60.547,13.672,0
1484095945.686,35.645,68.359,42.480,60.547,-21.973,0
1484095945.690,39.551,71.289,42.480,65.918,2.441,0
1484095945.694,36.621,72.754,41.504,62.988,66.406,0
1484095945.698,37.109,70.312,44.922,61.523,21.973,0
1484095945.702,39.062,72.754,45.898,64.453,-30.762,0
1484095945.706,39.551,75.195,41.016,66.406,20.996,0
1484095945.710,40.527,73.730,40.527,61.523,69.336,0
1484095945.714,35.156,74.707,41.504,57.617,3.418,0
1484095945.718,32.715,74.219,42.969,60.547,-22.949,0
1484095945.722,34.180,77.148,39.551,60.059,-19.043,0
1484095945.726,28.809,75.684,37.109,53.711,-8.301,0
1484095945.729,20.508,73.242,41.992,49.316,-4.395,0
1484095945.733,32.715,73.242,47.852,57.129,-42.480,0
1484095945.737,35.156,70.312,51.270,56.152,-12.207,0
1484095945.741,23.438,70.312,46.387,51.758,4.395,0
1484095945.745,22.949,73.242,37.109,49.316,0.977,0
1484095945.749,26.367,79.102,41.504,49.805,-5.859,0
1484095945.753,29.297,84.473,51.270,54.688,6.836,0
1484095945.757,32.715,82.031,51.270,58.105,-13.184,0
1484095945.761,29.785,70.801,48.340,52.734,0.488,0
1484095945.765,24.902,68.848,50.293,54.199,-23.438,0
1484095945.769,24.902,71.289,56.641,57.129,-80.566,0
1484095945.772,21.973,70.801,49.316,53.223,-12.695,0
1484095945.776,19.531,78.125,35.645,57.129,17.090,0
1484095945.780,22.461,76.172,35.645,55.664,-49.316,0
1484095945.784,31.250,69.336,37.109,59.082,-20.020,0
1484095945.788,31.250,65.918,40.527,60.547,41.504,0
1484095945.792,32.227,63.477,47.852,60.547,55.176,0
1484095945.796,34.180,62.500,46.875,56.641,2.441,0
1484095945.800,27.344,58.105,42.480,54.688,-5.371,0
1484095945.804,26.367,61.035,44.434,60.547,54.688,0
1484095945.808,26.855,69.336,47.363,57.617,32.715,0
1484095945.811,28.809,66.895,46.387,56.152,-4.395,0
1484095945.815,28.320,53.711,44.922,54.199,16.113,0
1484095945.819,28.320,52.246,48.340,55.176,10.254,0
1484095945.823,30.273,53.223,47.852,61.035,7.812,0
1484095945.827,27.344,46.875,45.410,62.012,31.738,0
1484095945.831,26.855,49.316,45.410,62.988,42.969,0
1484095945.835,32.227,53.223,46.387,62.988,27.832,0
1484095945.839,40.039,55.176,48.340,65.918,-34.668,0
1484095945.843,36.133,48.828,48.340,62.012,-29.297,0
1484095945.847,35.645,44.434,46.387,60.059,60.059,0
1484095945.851,38.574,50.293,41.992,59.570,67.383,0
1484095945.854,44.434,54.199,43.945,61.523,3.418,0
1484095945.858,47.363,53.223,43.945,62.012,49.805,0
1484095945.862,35.156,46.387,42.480,53.223,23.438,0
1484095945.866,29.297,39.062,43.457,51.758,-22.949,0
1484095945.870,25.879,43.945,44.434,56.152,49.805,0
1484095945.874,27.344,49.316,51.270,58.105,65.918,0
1484095945.878,29.785,47.852,55.176,55.176,55.664,0
1484095945.882,34.668,50.781,54.688,59.082,29.785,0
1484095945.886,32.715,54.688,49.805,61.035,4.395,0
1484095945.890,31.250,54.199,45.898,58.105,22.949,0
1484095945.894,34.668,50.781,51.270,58.105,53.711,0
1484095945.897,29.297,48.340,50.781,55.176,41.992,0
1484095945.901,28.320,46.387,43.945,53.223,38.086,0
1484095945.905,29.785,43.457,40.039,55.664,46.387,0
1484095945.909,28.320,41.504,42.969,57.129,31.738,0
1484095945.913,28.809,38.574,50.781,60.059,37.109,0
1484095945.917,28.809,35.156,53.711,62.988,24.414,0
1484095945.921,28.809,34.180,50.781,62.988,-0.977,0
1484095945.925,31.738,41.504,53.223,66.406,-22.461,0
1484095945.929,35.156,46.875,52.246,68.848,14.648,0
1484095945.933,37.598,51.270,50.293,70.801,18.066,0
1484095945.936,40.527,54.199,50.781,73.730,44.922,0
1484095945.940,37.109,49.805,50.293,67.871,48.340,0
1484095945.944,35.645,56.152,53.223,69.336,11.230,0
1484095945.948,35.645,61.523,51.270,68.359,37.598,0
1484095945.952,29.297,59.082,39.062,62.012,53.223,0
1484095945.956,27.832,58.105,29.785,57.129,1.465,0
1484095945.960,31.738,58.105,31.738,59.082,-21.973,0
1484095945.964,35.645,55.176,37.109,62.988,67.383,0
1484095945.968,35.156,53.711,37.109,61.035,49.805,0
1484095945.972,34.668,56.152,33.691,58.105,-16.113,0
1484095945.976,32.715,58.594,35.156,55.664,12.207,0
1484095945.979,29.297,58.594,34.668,61.035,19.531,0
1484095945.983,27.832,55.176,38.574,58.594,73.242,0
1484095945.987,28.809,48.828,46.875,54.688,86.914,0
1484095945.991,33.691,44.922,47.852,59.570,41.016,0
1484095945.995,37.109,45.410,51.758,62.988,37.598,0
1484095945.999,32.227,47.852,55.176,58.594,38.086,0
1484095946.003,28.320,47.363,48.340,49.805,79.590,0
1484095946.007,31.738,46.387,41.992,49.805,71.289,0
1484095946.011,30.762,46.875,48.340,50.293,1.465,0
1484095946.015,30.273,48.828,51.758,55.664,17.578,0
1484095946.019,31.250,50.781,52.734,56.641,24.902,0
1484095946.022,33.203,47.852,54.199,53.711,-27.344,0
1484095946.026,36.621,44.922,47.852,54.688,46.387,0
1484095946.030,38.574,45.410,41.992,55.176,90.820,0
1484095946.034,37.598,50.293,41.992,51.270,61.523,0
1484095946.038,35.156,55.176,44.434,49.316,39.551,0
1484095946.042,26.855,53.711,44.434,42.969,33.203,0
1484095946.046,18.066,48.828,42.969,39.551,-28.320,0
1484095946.050,18.555,44.922,42.480,41.016,-27.344,0
1484095946.054,18.066,40.527,42.969,37.109,13.672,0
1484095946.058,19.043,41.992,44.922,36.133,1.465,0
1484095946.061,20.508,45.410,48.828,34.180,11.230,0
1484095946.065,22.949,40.039,46.387,34.668,30.273,0
1484095946.069,27.344,36.133,45.410,38.086,48.340,0
1484095946.073,28.320,41.016,46.875,36.621,85.938,0
1484095946.077,28.320,50.781,44.922,34.180,47.363,0
1484095946.081,25.879,57.129,43.457,35.156,13.672,0
1484095946.085,23.926,57.129,42.969,39.551,60.547,0
1484095946.089,26.855,56.641,45.410,41.992,46.875,0
1484095946.093,27.344,58.105,40.039,43.457,38.086,0
1484095946.097,23.438,59.082,37.109,42.480,14.648,0
1484095946.101,22.949,55.176,40.527,38.574,-61.523,0
1484095946.104,30.762,53.711,40.039,42.480,-25.391,0
1484095946.108,34.668,60.547,40.039,45.410,44.922,0
1484095946.112,35.156,64.941,39.062,40.039,21.973,0
1484095946.116,34.180,67.871,37.109,36.133,35.156,0
1484095946.120,29.297,71.777,40.527,36.621,80.078,0
1484095946.124,30.273,73.730,39.551,39.062,31.738,0
1484095946.128,33.691,75.195,36.133,37.109,7.812,0
1484095946.132,33.203,73.730,33.691,32.715,7.324,0
1484095946.136,35.156,70.312,35.645,32.227,2.930,0
1484095946.140,35.645,66.895,39.551,35.156,68.848,0
1484095946.144,30.273,61.035,35.156,40.039,42.480,0
1484095946.147,25.879,61.035,34.668,37.598,-15.625,0
1484095946.151,29.297,70.801,41.504,36.621,2.441,0
1484095946.155,28.809,78.125,43.945,39.062,3.906,0
1484095946.159,25.391,77.148,40.039,36.621,-17.090,0
1484095946.163,25.391,75.684,37.109,33.691,49.316,0
1484095946.167,28.320,78.613,42.969,41.992,50.781,0
1484095946.171,25.879,77.637,46.875,43.457,-0.488,0
1484095946.175,21.484,70.312,42.480,37.109,39.551,0
1484095946.179,21.973,68.848,36.133,37.109,28.809,0
1484095946.183,23.926,68.359,38.086,43.457,29.785,0
1484095946.186,21.973,62.500,40.039,44.922,37.109,0
1484095946.190,18.066,60.547,33.691,41.992,18.555,0
1484095946.194,18.066,62.012,34.180,45.410,36.621,0
1484095946.198,16.602,67.871,36.621,47.363,22.461,0
1484095946.202,18.066,66.406,38.086,43.945,22.949,0
1484095946.206,26.855,59.570,37.598,46.875,0.977,0
1484095946.210,27.344,57.617,39.551,48.340,9.277,0
1484095946.214,22.949,53.223,39.551,45.898,-15.137,0
1484095946.218,26.855,49.316,33.203,48.828,23.926,0
1484095946.222,33.203,46.387,30.273,53.223,132.812,0
1484095946.226,40.039,45.898,35.156,61.523,99.609,0
1484095946.229,41.992,47.852,39.551,65.918,17.578,0
1484095946.233,42.480,52.734,37.109,64.941,51.270,0
1484095946.237,36.133,52.734,33.203,61.523,97.168,0
1484095946.241,33.691,51.270,34.180,59.570,39.551,0
1484095946.245,37.598,53.711,36.133,59.570,6.836,0
1484095946.249,38.574,52.246,33.691,55.664,8.789,0
1484095946.253,36.621,51.270,34.668,52.734,33.691,0
1484095946.257,35.156,51.270,34.180,56.641,34.180,0
1484095946.261,32.227,49.805,33.203,61.035,38.086,0
1484095946.265,32.715,53.223,39.551,63.965,36.621,0
1484095946.269,33.203,56.152,43.457,64.941,23.438,0
1484095946.272,35.156,54.688,41.992,58.594,-22.461,0
1484095946.276,37.598,55.176,37.109,53.223,-39.062,0
1484095946.280,28.809,50.781,33.691,50.293,23.438,0
1484095946.284,25.391,47.363,32.227,48.828,31.250,0
1484095946.288,24.414,49.805,32.227,49.805,35.156,0
1484095946.292,20.996,49.805,31.738,47.852,12.695,0
1484095946.296,19.531,54.199,27.344,48.340,10.254,0
1484095946.300,20.996,57.129,28.320,51.270,15.625,0
1484095946.304,23.438,55.664,35.156,50.781,14.160,0
1484095946.308,26.855,52.734,37.109,56.152,41.992,0
1484095946.311,28.809,51.270,36.621,56.152,43.457,0
1484095946.315,32.715,53.223,36.621,50.781,37.109,0
1484095946.319,40.039,52.246,28.320,55.664,46.387,0
1484095946.323,45.898,52.246,24.414,58.105,45.898,0
1484095946.327,45.898,56.641,29.785,57.129,32.715,0
1484095946.331,43.945,55.176,28.809,54.199,38.086,0
1484095946.335,45.410,54.688,20.508,52.246,50.781,0
1484095946.339,48.340,61.523,20.508,54.688,27.832,0
1484095946.343,49.805,70.312,20.996,52.246,-5.859,0
1484095946.347,45.410,69.824,22.461,47.852,24.414,0
1484095946.351,44.434,79.590,28.809,52.734,52.246,0
1484095946.354,47.363,88.379,27.832,53.711,41.992,0
1484095946.358,40.527,76.660,23.926,47.852,15.137,0
1484095946.362,34.668,67.871,25.391,46.387,-4.883,0
1484095946.366,25.391,63.965,25.391,44.922,49.316,0
1484095946.370,17.578,61.035,26.855,41.504,62.500,0
1484095946.374,16.602,54.688,26.367,38.574,28.320,0
1484095946.378,17.578,53.711,28.809,38.574,4.883,0
1484095946.382,13.672,62.500,35.645,43.457,13.672,0
1484095946.386,9.277,66.406,36.621,46.387,43.945,0
1484095946.390,10.742,64.941,36.133,41.992,16.602,0
1484095946.394,14.648,64.453,37.598,42.480,8.789,0
1484095946.397,15.625,74.219,34.668,45.410,2.441,0
1484095946.401,19.531,85.938,30.273,46.387,7.324,0
1484095946.405,28.809,88.379,36.133,49.805,-16.113,0
1484095946.409,24.902,87.891,38.086,47.852,-18.555,0
1484095946.413,24.414,89.844,33.691,47.363,35.645,0
1484095946.417,30.273,94.727,34.180,49.805,35.645,0
1484095946.421,33.691,95.215,35.645,50.781,48.340,0
1484095946.425,36.621,92.285,34.668,50.781,91.797,0
1484095946.429,35.156,83.008,32.715,54.199,15.137,0
1484095946.433,32.227,68.848,36.621,54.688,-29.785,0
1484095946.436,32.715,64.453,42.969,57.129,12.695,0
1484095946.440,34.180,64.453,41.992,60.059,-3.418,0
1484095946.444,30.273,65.430,37.598,57.617,-81.055,0
1484095946.448,27.832,65.430,32.715,54.199,-50.293,0
1484095946.452,25.879,61.523,34.668,50.293,-0.977,0
1484095946.456,23.926,59.570,41.504,48.828,-13.184,0
1484095946.460,23.438,62.012,44.922,54.199,19.531,0
1484095946.464,22.461,63.477,46.875,57.129,5.859,0
1484095946.468,25.391,62.988,48.340,59.082,-29.297,0
1484095946.472,23.438,59.570,41.016,60.059,31.250,0
1484095946.476,20.508,57.617,35.645,54.199,73.730,0
1484095946.479,16.602,60.059,37.109,54.688,77.637,0
1484095946.483,19.531,62.012,41.992,59.082,42.969,0
1484095946.487,26.855,60.059,43.945,55.664,49.316,0
1484095946.491,22.949,55.176,40.527,54.199,46.387,0
1484095946.495,23.438,56.152,39.062,58.594,-47.852,0
1484095946.499,31.738,58.105,38.574,61.035,-13.184,0
1484095946.503,30.762,56.641,38.574,62.988,53.223,0
1484095946.507,28.809,61.035,38.086,63.477,52.246,0
1484095946.511,35.645,63.477,35.156,58.594,60.059,0
1484095946.515,39.062,67.383,33.203,61.035,0.000,0
1484095946.519,33.203,72.754,35.156,59.570,27.832,0
1484095946.522,29.785,74.707,33.691,61.523,68.359,0
1484095946.526,31.738,76.660,37.109,68.848,12.207,0
1484095946.530,29.785,72.754,43.945,68.359,10.742,0
1484095946.534,28.809,70.312,45.898,65.918,21.484,0
1484095946.538,21.484,68.848,41.992,60.547,22.949,0
1484095946.542,21.973,67.383,40.039,60.059,25.879,0
1484095946.546,33.691,68.359,45.898,61.523,36.621,0
1484095946.550,32.715,68.848,50.293,57.617,80.078,0
1484095946.554,33.203,66.406,43.945,56.641,36.133,0
1484095946.558,39.062,63.477,41.504,59.570,0.488,0
1484095946.561,36.133,62.500,49.316,63.477,25.879,0
1484095946.565,31.250,57.617,50.293,62.500,20.996,0
1484095946.569,41.016,56.152,49.316,61.523,16.113,0
1484095946.573,37.598,56.152,47.363,60.547,-4.883,0
1484095946.577,29.785,52.246,47.363,63.965,8.789,0
1484095946.581,27.344,43.945,49.316,62.012,35.156,0
1484095946.585,25.391,42.969,46.387,54.688,30.762,0
1484095946.589,27.344,45.898,45.410,58.594,38.574,0
1484095946.593,22.949,42.969,42.480,54.688,-11.230,0
1484095946.597,19.531,46.387,37.109,44.434,-47.852,0
1484095946.601,28.320,48.828,40.039,48.828,41.504,0
1484095946.604,31.738,40.527,41.992,48.828,62.012,0
1484095946.608,28.809,39.551,36.621,46.387,6.836,0
1484095946.612,25.879,47.852,39.062,47.852,0.488,0
1484095946.616,24.414,57.617,49.805,50.781,56.152,0
1484095946.620,27.344,67.871,48.828,53.223,53.223,0
1484095946.624,27.832,71.777,39.551,44.434,39.551,0
1484095946.628,26.367,75.195,41.992,40.039,52.246,0
1484095946.632,31.250,78.613,49.316,42.969,39.062,0
1484095946.636,29.785,109.375,46.875,43.945,6.348,0
1484095946.640,21.973,161.621,46.875,41.992,18.555,0
1484095946.644,17.578,190.430,55.664,41.016,70.801,0
1484095946.647,20.996,205.566,62.988,45.898,45.898,0
1484095946.651,28.320,216.797,66.895,45.898,-14.648,0
1484095946.655,27.832,225.098,69.824,43.457,-4.883,0
1484095946.659,26.855,229.004,66.406,45.410,37.598,0
1484095946.663,32.227,231.934,64.941,44.434,20.508,0
1484095946.667,33.203,226.074,67.871,45.898,-3.906,0
1484095946.671,30.762,218.262,63.965,48.828,-29.297,0
1484095946.675,35.156,217.285,58.105,49.805,7.812,0
1484095946.679,36.133,220.703,53.711,51.270,53.223,0
1484095946.683,34.180,219.238,53.711,51.758,49.316,0
1484095946.686,32.715,211.426,57.617,48.340,67.383,0
1484095946.690,32.227,209.961,57.617,46.387,72.754,0
1484095946.694,35.156,207.520,59.570,49.316,26.367,0
1484095946.698,35.645,206.055,60.059,50.781,-35.645,0
1484095946.702,34.180,206.543,59.082,50.781,-20.020,0
1484095946.706,39.551,200.684,58.594,52.734,-13.672,0
1484095946.710,44.434,194.336,58.594,55.664,-27.832,0
1484095946.714,40.039,189.453,56.152,47.852,2.930,0
1484095946.718,38.086,183.594,53.223,41.992,19.531,0
1484095946.722,40.527,174.316,50.293,46.875,55.664,0
1484095946.726,37.598,166.504,48.828,48.340,34.668,0
1484095946.729,32.227,164.551,53.711,50.293,-11.719,0
1484095946.733,31.738,152.832,53.223,49.805,25.391,0
1484095946.737,40.039,139.648,51.270,51.758,54.688,0
1484095946.741,42.969,135.254,51.270,56.641,10.742,0
1484095946.745,43.945,149.902,49.316,59.082,1.465,0
1484095946.749,44.922,174.805,53.223,63.965,20.020,0
1484095946.753,44.922,175.781,54.688,62.988,37.598,0
1484095946.757,47.852,171.875,52.246,64.941,-18.066,0
1484095946.761,43.945,176.270,50.293,68.359,-36.621,0
1484095946.765,38.086,182.617,50.781,60.059,-29.785,0
1484095946.769,34.668,192.383,55.176,54.688,-19.531,0
1484095946.772,34.180,196.289,55.176,56.152,60.059,0
1484095946.776,32.227,203.125,49.316,52.246,38.574,0
1484095946.780,29.785,205.566,51.270,48.340,17.578,0
1484095946.784,23.438,201.172,57.129,47.852,20.020,0
1484095946.788,25.879,195.312,57.617,50.293,-9.277,0
1484095946.792,29.297,186.523,52.246,48.340,8.789,0
1484095946.796,26.855,184.082,51.758,47.852,53.223,0
1484095946.800,31.250,181.152,57.617,50.293,23.438,0
1484095946.804,33.203,177.734,54.688,53.223,22.949,0
1484095946.808,38.086,178.223,51.270,54.199,52.734,0
1484095946.811,43.945,173.828,49.316,57.129,68.359,0
1484095946.815,46.875,167.480,44.922,57.617,34.668,0
1484095946.819,51.270,157.715,45.898,57.617,-0.977,0
1484095946.823,55.176,145.996,47.852,64.941,44.922,0
1484095946.827,55.664,144.531,43.945,66.895,43.457,0
1484095946.831,53.711,141.602,45.898,66.406,-8.789,0
1484095946.835,53.223,133.789,48.828,68.848,-44.434,0
1484095946.839,48.340,131.348,47.852,68.359,-24.414,0
1484095946.843,44.434,129.883,52.734,69.336,13.672,0
1484095946.847,40.039,128.906,53.711,65.430,22.949,0
1484095946.851,37.109,135.742,46.875,62.012,51.270,0
1484095946.854,34.180,139.160,40.039,57.617,37.109,0
1484095946.858,32.715,137.695,38.086,53.223,-9.766,0
1484095946.862,33.691,133.789,44.922,55.176,20.020,0
1484095946.866,30.762,124.023,44.434,57.129,48.828,0
1484095946.870,32.715,115.723,37.598,59.082,-12.695,0
1484095946.874,33.691,112.305,40.527,61.035,-16.602,0
1484095946.878,28.320,113.281,41.016,57.617,17.578,0
1484095946.882,27.344,116.211,37.109,56.641,-23.926,0
1484095946.886,29.297,115.723,37.598,58.105,11.719,0
1484095946.890,29.297,119.141,35.645,56.152,67.383,0
1484095946.894,23.926,119.629,32.227,52.734,61.035,0
1484095946.897,27.832,115.723,23.926,57.617,35.156,0
1484095946.901,33.203,112.305,20.996,60.059,46.387,0
1484095946.905,30.273,109.863,23.926,57.617,30.762,0
1484095946.909,24.902,117.188,21.973,59.570,43.457,0
1484095946.913,28.320,120.117,22.461,59.082,36.133,0
1484095946.917,31.738,115.234,23.926,57.129,37.109,0
1484095946.921,26.367,118.164,28.320,54.688,52.734,0
1484095946.925,26.367,119.141,30.273,51.270,39.551,0
1484095946.929,22.949,108.887,26.855,47.852,3.418,0
1484095946.933,15.137,109.375,24.902,44.922,-26.367,0
1484095946.936,13.184,119.141,26.855,44.434,48.340,0
1484095946.940,11.230,118.652,26.855,50.293,102.539,0
1484095946.944,17.090,114.746,22.949,58.105,69.824,0
1484095946.948,19.043,111.816,22.949,62.500,17.090,0
1484095946.952,18.555,101.074,22.949,59.570,58.594,0
1484095946.956,24.414,100.098,24.414,61.035,76.172,0
1484095946.960,20.020,117.188,25.879,64.941,19.043,0
1484095946.964,20.020,120.605,22.949,57.129,32.227,0
1484095946.968,24.902,109.863,20.020,51.270,59.082,0
1484095946.972,25.391,107.910,22.949,53.711,18.555,0
1484095946.976,28.809,107.422,29.785,53.223,32.227,0
1484095946.979,25.391,103.027,25.391,51.758,71.777,0
1484095946.983,27.832,104.980,20.508,61.035,39.551,0
1484095946.987,37.109,108.887,25.879,68.359,38.086,0
1484095946.991,34.180,106.445,26.855,62.988,84.961,0
1484095946.995,29.297,103.516,26.367,61.035,43.945,0
1484095946.999,28.809,100.098,23.926,60.059,48.340,0
1484095947.003,33.691,102.539,23.926,58.105,81.055,0
1484095947.007,33.691,105.957,32.227,58.594,23.926,0
1484095947.011,32.715,106.445,33.203,61.035,50.293,0
1484095947.015,35.645,104.980,29.785,63.477,41.016,0
1484095947.019,37.109,104.980,30.273,58.594,-23.926,0
1484095947.022,38.086,111.816,31.738,55.664,-14.160,0
1484095947.026,33.203,110.840,25.879,57.617,13.184,0
1484095947.030,32.227,109.863,25.391,58.105,64.453,0
1484095947.034,33.691,108.887,32.227,57.617,74.707,0
1484095947.038,38.086,108.887,34.180,55.664,75.195,0
1484095947.042,35.156,109.375,32.715,49.805,63.965,0
1484095947.046,29.785,93.750,33.691,46.387,-14.160,0
1484095947.050,32.227,85.449,34.180,38.574,-2.441,0
1484095947.054,28.809,79.590,25.391,35.645,16.113,0
1484095947.058,25.879,62.988,20.508,42.480,1.465,0
1484095947.061,20.996,49.805,25.879,36.621,16.113,0
1484095947.065,18.066,44.922,30.273,26.855,-8.789,0
1484095947.069,19.531,42.480,24.902,27.344,-3.418,0
1484095947.073,17.578,41.016,24.414,23.438,-0.977,0
1484095947.077,17.090,42.969,28.809,23.438,-32.227,0
1484095947.081,18.555,47.852,21.484,22.461,17.578,0
1484095947.085,17.578,48.828,16.602,23.926,37.598,0
1484095947.089,19.043,46.875,18.066,32.715,46.387,0
1484095947.093,15.625,54.688,16.113,29.297,54.199,0
1484095947.097,12.695,70.801,12.695,24.414,-3.906,0
1484095947.101,15.625,74.707,13.184,28.809,-47.852,0
1484095947.104,10.742,75.195,15.625,28.809,-37.109,0
1484095947.108,15.137,76.660,20.020,34.180,20.508,0
1484095947.112,29.297,77.148,22.461,42.480,29.785,0
1484095947.116,32.715,73.242,20.996,46.387,1.465,0
1484095947.120,34.668,70.312,20.508,48.828,65.918,0
1484095947.124,35.645,70.312,20.020,47.852,53.223,0
1484095947.128,31.250,71.777,20.020,52.246,14.648,0
1484095947.132,30.762,81.543,24.414,54.688,58.105,0
1484095947.136,30.762,84.473,23.926,51.758,5.859,0
1484095947.140,26.855,81.543,20.508,49.805,-3.418,0
1484095947.144,26.855,83.008,18.555,49.805,21.484,0
1484095947.147,31.250,82.520,19.043,47.363,29.785,0
1484095947.151,31.738,84.961,24.414,48.828,55.176,0
1484095947.155,28.320,83.984,24.414,46.387,39.551,0
1484095947.159,31.250,79.102,21.973,43.945,29.785,0
1484095947.163,32.227,72.266,19.043,44.434,35.156,0
1484095947.167,32.227,69.824,17.090,49.805,29.785,0
1484095947.171,33.203,73.242,24.414,52.246,-0.488,0
1484095947.175,29.297,69.824,33.203,46.875,13.672,0
1484095947.179,29.297,68.848,36.133,48.340,74.707,0
1484095947.183,33.691,72.754,39.551,48.828,36.621,0
1484095947.186,33.203,74.219,37.598,41.992,14.648,0
1484095947.190,33.203,72.266,37.598,43.945,60.059,0
1484095947.194,33.691,78.613,43.457,48.828,6.836,0
1484095947.198,35.645,81.055,43.457,54.688,-6.348,0
1484095947.202,35.645,81.543,38.086,58.105,19.531,0
1484095947.206,32.227,85.938,35.156,59.082,0.000,0
1484095947.210,34.180,82.520,38.574,62.988,11.230,0
1484095947.214,31.250,78.613,37.109,64.453,52.734,0
1484095947.218,32.227,69.336,35.156,64.453,6.836,0
1484095947.222,36.133,65.918,34.180,62.012,0.977,0
1484095947.226,33.203,68.359,32.227,57.617,6.836,0
1484095947.229,29.297,72.754,33.691,48.340,-9.277,0
1484095947.233,28.320,100.586,37.598,41.992,-20.996,0
1484095947.237,25.879,110.352,37.598,42.969,2.441,0
1484095947.241,21.973,89.355,35.156,46.387,26.855,0
1484095947.245,21.973,80.078,36.133,49.316,25.879,0
1484095947.249,23.926,79.102,41.016,46.387,49.316,0
1484095947.253,24.414,66.895,36.621,47.852,31.250,0
1484095947.257,29.297,47.852,27.344,52.246,10.254,0
1484095947.261,28.809,40.039,30.273,54.688,26.367,0
1484095947.265,28.809,45.898,34.668,58.594,55.176,0
1484095947.269,34.668,41.992,28.809,59.570,20.020,0
1484095947.272,37.109,33.203,24.902,54.688,11.719,0
1484095947.276,39.062,34.180,29.297,47.852,25.391,0
1484095947.280,41.504,30.762,31.738,50.781,-44.434,0
1484095947.284,34.668,24.414,28.809,52.734,-47.852,0
1484095947.288,36.133,26.367,29.297,52.246,-2.930,0
1484095947.292,41.016,32.715,31.738,52.734,17.090,0
1484095947.296,34.180,43.945,25.879,51.758,50.293,0
1484095947.300,29.785,52.246,25.391,52.734,53.711,0
1484095947.304,34.180,52.734,33.691,53.223,6.348,0
1484095947.308,34.668,55.176,38.574,54.688,62.012,0
1484095947.311,37.598,61.523,41.504,61.035,92.285,0
1484095947.315,38.086,64.453,36.621,64.453,19.043,0
1484095947.319,34.668,60.059,32.715,63.965,39.551,0
1484095947.323,34.180,56.152,31.250,64.941,62.500,0
1484095947.327,34.180,60.547,34.668,66.895,48.828,0
1484095947.331,34.668,77.637,43.457,64.941,42.969,0
1484095947.335,36.133,95.703,38.086,66.895,10.254,0
1484095947.339,39.551,108.887,29.785,69.336,-23.926,0
1484095947.343,38.574,106.934,28.320,60.547,-29.785,0
1484095947.347,39.551,90.332,31.250,57.617,25.879,0
1484095947.351,44.434,79.102,32.715,62.012,40.527,0
1484095947.354,45.410,80.566,33.691,61.523,21.484,0
1484095947.358,41.016,80.078,36.133,61.523,14.160,0
1484095947.362,37.598,67.383,35.645,64.941,3.418,0
1484095947.366,36.133,59.570,35.156,61.523,36.621,0
1484095947.370,33.691,69.336,35.645,52.246,62.012,0
1484095947.374,29.785,108.398,29.785,47.363,2.930,0
1484095947.378,24.414,130.371,19.043,47.852,29.297,0
1484095947.382,23.926,109.375,21.973,48.828,34.668,0
1484095947.386,17.578,85.938,24.414,43.945,-33.691,0
1484095947.390,15.137,93.262,19.531,36.621,-23.926,0
1484095947.394,19.531,115.234,21.973,32.227,-10.254,0
1484095947.397,24.414,129.395,28.809,32.227,26.855,0
1484095947.401,26.855,133.789,33.691,31.738,31.738,0
1484095947.405,20.508,124.512,33.691,27.344,22.949,0
1484095947.409,18.555,108.398,33.203,24.902,83.496,0
1484095947.413,18.066,108.887,26.367,25.879,83.008,0
1484095947.417,22.949,123.535,23.926,26.367,23.438,0
1484095947.421,27.832,132.324,28.809,21.973,5.371,0
1484095947.425,22.461,135.742,30.273,22.461,-5.859,0
1484095947.429,21.484,147.461,26.367,25.879,-22.949,0
1484095947.433,22.949,152.344,25.391,28.809,7.812,0
1484095947.436,25.391,145.996,28.320,36.133,42.480,0
1484095947.440,25.879,141.113,29.297,36.621,18.555,0
1484095947.444,22.949,140.137,33.203,32.715,22.461,0
1484095947.448,20.996,133.789,37.109,35.156,3.418,0
1484095947.452,20.508,122.070,33.691,33.691,-7.812,0
1484095947.456,21.973,130.371,24.414,33.203,41.016,0
1484095947.460,22.949,139.160,23.926,37.109,18.555,0
1484095947.464,18.555,125.977,23.926,38.574,-11.230,0
1484095947.468,13.184,115.234,23.926,36.133,-9.277,0
1484095947.472,14.160,116.699,25.391,35.156,54.199,0
1484095947.476,21.973,123.535,27.344,37.598,50.781,0
1484095947.479,23.926,128.418,32.715,34.668,-6.348,0
1484095947.483,24.902,124.512,32.227,34.180,9.766,0
1484095947.487,29.297,116.211,33.691,36.133,67.383,0
1484095947.491,25.879,96.680,35.645,36.621,98.633,0
1484095947.495,22.949,82.520,36.621,37.109,65.430,0
1484095947.499,22.461,74.219,37.109,41.504,4.395,0
1484095947.503,26.367,82.031,38.086,47.363,-20.020,0
1484095947.507,31.250,109.863,38.086,48.340,-40.039,0
1484095947.511,31.250,128.906,37.598,45.410,-8.301,0
1484095947.515,36.621,120.605,36.133,52.734,57.129,0
1484095947.519,45.410,114.746,34.180,58.594,33.691,0
1484095947.522,45.410,135.742,38.086,55.176,24.902,0
1484095947.526,42.480,148.926,39.551,54.199,8.789,0
1484095947.530,36.621,145.020,41.504,56.152,17.578,0
1484095947.534,38.086,149.902,42.480,60.059,27.832,0
1484095947.538,40.039,169.434,35.645,58.594,3.906,0
1484095947.542,30.762,185.059,34.180,51.758,30.762,0
1484095947.546,29.297,191.406,34.180,52.246,-11.230,0
1484095947.550,32.227,193.848,33.691,50.293,-27.832,0
1484095947.554,34.668,208.984,36.621,51.270,-10.742,0
1484095947.558,39.551,220.703,38.574,55.664,11.230,0
1484095947.561,41.504,212.402,41.992,56.641,36.621,0
1484095947.565,37.109,201.172,42.480,51.758,-8.789,0
1484095947.569,31.250,195.801,41.992,46.875,30.273,0
1484095947.573,32.227,187.012,46.875,48.340,85.449,0
1484095947.577,32.227,179.688,50.781,45.898,12.695,0
1484095947.581,24.414,172.852,47.852,43.945,20.508,0
1484095947.585,19.531,163.574,45.410,45.898,77.637,0
1484095947.589,16.113,168.457,46.875,43.945,52.734,0
1484095947.593,15.137,172.852,50.293,45.410,39.062,0
1484095947.597,16.113,166.504,50.293,48.828,41.016,0
1484095947.601,23.926,157.715,46.387,58.105,41.504,0
1484095947.604,30.273,156.738,41.016,62.012,63.965,0
1484095947.608,24.902,176.270,36.621,55.176,26.855,0
1484095947.612,25.391,192.871,40.527,57.129,18.555,0
1484095947.616,27.832,191.406,47.363,60.059,9.277,0
1484095947.620,27.344,167.969,43.945,57.617,24.902,0
1484095947.624,33.691,145.996,38.086,56.152,17.090,0
1484095947.628,35.156,139.648,40.527,59.082,48.340,0
1484095947.632,28.320,148.438,41.016,55.176,26.367,0
1484095947.636,28.809,153.809,38.086,53.223,7.324,0
1484095947.640,33.203,162.109,38.086,57.129,50.781,0
1484095947.644,35.645,188.477,39.551,57.129,9.766,0
1484095947.647,34.668,214.355,41.504,54.688,47.363,0
1484095947.651,30.273,226.074,36.133,48.828,35.156,0
1484095947.655,29.297,223.633,36.133,49.805,-2.930,0
1484095947.659,22.949,217.773,39.551,47.852,15.137,0
1484095947.663,20.508,208.008,39.062,45.410,23.438,0
1484095947.667,22.461,209.473,39.062,46.387,12.207,0
1484095947.671,18.555,195.801,39.551,45.410,-11.230,0
1484095947.675,13.184,173.828,40.527,41.992,-10.742,0
1484095947.679,13.672,155.273,42.969,38.086,-26.367,0
1484095947.683,20.020,136.719,42.480,40.039,-14.160,0
1484095947.686,20.996,128.418,41.992,45.898,-22.949,0
1484095947.690,16.602,127.930,36.133,43.457,-49.805,0
1484095947.694,15.625,125.488,32.715,42.480,1.465,0
1484095947.698,16.602,131.348,38.086,41.504,47.852,0
1484095947.702,19.531,144.043,43.457,42.480,82.031,0
1484095947.706,21.973,140.137,43.457,49.805,55.176,0
1484095947.710,21.973,138.184,39.062,47.852,32.715,0
1484095947.714,21.484,145.996,41.992,50.293,64.453,0
1484095947.718,22.461,150.391,45.898,54.199,89.844,0
1484095947.722,24.902,140.625,41.504,50.293,37.598,0
1484095947.726,25.879,138.184,41.016,52.246,12.207,0
1484095947.729,28.320,135.254,48.828,59.570,40.039,0
1484095947.733,26.855,128.418,51.270,61.035,25.879,0
1484095947.737,22.461,132.812,44.922,62.012,-14.160,0
1484095947.741,23.926,131.348,42.480,62.988,29.297,0
1484095947.745,26.855,126.465,44.922,63.477,81.055,0
1484095947.749,32.227,122.070,42.969,65.918,37.598,0
1484095947.753,32.715,117.188,39.062,71.289,-21.484,0
1484095947.757,32.227,120.117,37.109,70.801,-41.504,0
1484095947.761,37.109,127.441,35.156,68.848,-10.254,0
1484095947.765,40.039,132.324,32.715,72.754,-12.207,0
1484095947.769,43.457,142.090,37.598,77.148,-30.273,0
1484095947.772,44.922,144.531,42.969,76.660,57.129,0
1484095947.776,44.434,144.531,42.480,74.219,91.797,0
1484095947.780,45.898,150.391,42.480,69.824,75.684,0
1484095947.784,37.109,145.508,42.969,59.570,50.781,0
1484095947.788,30.273,137.207,39.551,54.688,64.941,0
1484095947.792,30.762,125.488,34.668,54.688,62.988,0
1484095947.796,28.320,115.723,29.785,46.875,21.484,0
1484095947.800,28.320,109.375,30.273,43.457,63.965,0
1484095947.804,32.227,116.699,31.250,48.340,56.641,0
1484095947.808,25.879,127.441,32.715,41.016,29.297,0
1484095947.811,19.043,132.812,32.227,34.668,29.785,0
1484095947.815,18.066,143.066,28.809,38.086,43.945,0
1484095947.819,19.043,151.367,31.738,37.598,36.133,0
1484095947.823,14.160,141.602,32.227,39.551,-43.945,0
1484095947.827,14.648,127.441,29.297,43.945,-13.672,0
1484095947.831,18.066,120.117,27.344,45.898,12.695,0
1484095947.835,15.137,110.840,29.297,48.340,36.621,0
1484095947.839,18.066,111.816,32.715,50.781,38.086,0
1484095947.843,21.484,112.305,33.691,55.176,-1.953,0
1484095947.847,20.020,100.586,34.180,56.641,83.008,0
1484095947.851,21.484,87.891,39.062,58.594,113.281,0
1484095947.854,29.297,85.938,43.945,64.941,81.055,0
1484095947.858,30.762,86.426,46.875,68.359,71.289,0
1484095947.862,28.320,99.609,45.410,63.477,7.812,0
1484095947.866,34.180,119.141,47.852,58.594,35.645,0
1484095947.870,38.086,123.535,50.781,61.035,100.586,0
1484095947.874,36.133,130.859,45.410,60.547,20.996,0
1484095947.878,33.691,143.066,44.434,56.641,11.230,0
1484095947.882,36.621,138.672,48.340,59.570,5.859,0
1484095947.886,34.668,115.234,49.316,58.594,0.977,0
1484095947.890,31.738,97.656,48.828,57.617,18.066,0
1484095947.894,33.691,86.426,42.480,55.664,-0.488,0
1484095947.897,28.809,78.125,41.992,51.758,28.809,0
1484095947.901,28.320,72.754,46.875,49.805,48.828,0
1484095947.905,30.273,71.289,51.758,42.969,4.883,0
1484095947.909,21.484,69.824,53.711,34.180,-60.059,0
1484095947.913,17.090,74.219,52.734,32.227,-27.344,0
1484095947.917,22.461,75.684,55.664,36.621,21.484,0
1484095947.921,19.531,74.219,57.617,37.598,41.016,0
1484095947.925,21.484,83.496,58.105,45.898,48.340,0
1484095947.929,25.391,90.820,58.594,44.922,18.066,0
1484095947.933,26.855,94.238,60.547,42.480,9.766,0
1484095947.936,21.973,89.355,55.664,44.434,2.930,0
1484095947.940,17.578,83.008,46.387,45.898,-3.906,0
1484095947.944,26.367,79.590,47.363,50.781,-14.648,0
1484095947.948,31.738,77.148,41.504,53.223,4.883,0
1484095947.952,33.691,76.172,37.598,54.688,49.316,0
1484095947.956,48.828,82.031,51.758,65.430,9.277,0
1484095947.960,66.895,94.238,59.570,84.961,14.160,0
1484095947.964,72.266,114.258,59.082,92.773,58.594,0
1484095947.968,75.684,125.488,61.523,89.844,41.016,0
1484095947.972,73.242,118.652,61.035,85.449,20.996,0
1484095947.976,70.801,112.305,62.500,85.449,17.578,0
1484095947.979,68.848,111.816,61.523,76.660,20.020,0
1484095947.983,60.547,105.469,55.664,67.383,1.465,0
1484095947.987,52.246,97.656,53.223,63.477,2.441,0
1484095947.991,46.387,98.145,48.828,60.059,49.316,0
1484095947.995,45.898,95.703,44.434,55.664,55.176,0
1484095947.999,40.039,92.285,43.457,50.293,17.578,0
1484095948.003,38.086,86.426,46.387,51.758,46.875,0
1484095948.007,39.062,73.242,52.246,55.664,71.777,0
1484095948.011,31.250,56.152,50.293,56.152,21.484,0
1484095948.015,34.668,58.105,48.828,57.617,42.969,0
1484095948.019,35.645,64.453,48.828,58.594,91.797,0
1484095948.022,34.180,56.152,45.898,57.129,50.293,0
1484095948.026,33.203,50.781,40.039,55.176,-3.906,0
1484095948.030,25.391,48.828,33.691,52.246,-7.324,0
1484095948.034,26.855,48.828,34.668,52.246,-21.973,0
1484095948.038,26.367,46.387,35.645,49.316,-42.480,0
1484095948.042,19.531,42.480,33.691,48.340,32.227,0
1484095948.046,17.578,44.434,33.203,51.270,32.715,0
1484095948.050,17.090,49.316,31.250,54.199,12.207,0
1484095948.054,17.090,51.270,29.785,50.293,8.789,0
1484095948.058,21.484,49.316,33.691,43.945,57.129,0
1484095948.061,27.344,48.828,37.598,44.434,75.195,0
1484095948.065,28.809,42.480,35.156,42.480,4.883,0
1484095948.069,25.879,27.832,34.668,41.992,-46.875,0
1484095948.073,28.809,16.602,38.574,46.875,-15.137,0
1484095948.077,27.344,11.719,37.109,43.945,47.852,0
1484095948.081,24.902,9.766,34.180,39.551,0.977,0
1484095948.085,31.738,1.953,32.715,41.992,-14.160,0
1484095948.089,33.203,-0.488,31.738,43.945,35.156,0
1484095948.093,32.227,1.953,33.691,45.898,-1.953,0
1484095948.097,33.691,2.930,38.574,50.781,-20.996,0
1484095948.101,35.156,3.906,43.945,50.781,35.645,0
1484095948.104,31.250,3.906,47.363,46.875,50.293,0
1484095948.108,22.949,5.859,43.945,42.480,33.691,0
1484095948.112,22.461,6.836,44.922,44.922,34.668,0
1484095948.116,20.020,8.789,48.828,48.828,53.711,0
1484095948.120,17.090,14.648,44.922,49.316,53.711,0
1484095948.124,19.531,20.020,39.062,47.363,67.383,0
1484095948.128,20.996,24.414,35.645,41.992,33.203,0
1484095948.132,24.902,26.367,35.156,43.457,60.059,0
1484095948.136,29.297,30.762,38.574,50.781,88.379,0
1484095948.140,26.855,46.387,34.668,53.223,34.668,0
1484095948.144,30.762,53.223,36.133,52.734,25.879,0
1484095948.147,30.762,42.480,40.527,49.316,9.766,0
1484095948.151,28.320,26.367,36.621,48.340,7.812,0
1484095948.155,32.227,17.578,34.668,50.293,27.832,0
1484095948.159,29.785,15.137,37.109,50.781,38.574,0
1484095948.163,22.461,9.277,38.574,48.340,0.488,0
1484095948.167,13.184,2.930,35.156,38.086,-6.348,0
1484095948.171,8.789,1.465,31.738,32.715,16.113,0
1484095948.175,12.695,6.348,34.180,34.180,27.344,0
1484095948.179,14.160,6.836,38.086,35.156,-37.598,0
1484095948.183,16.113,6.348,38.574,36.621,-10.742,0
1484095948.186,19.043,10.254,36.621,37.598,54.688,0
1484095948.190,20.996,14.648,38.086,35.645,39.062,0
1484095948.194,17.578,15.625,38.574,37.109,49.805,0
1484095948.198,18.066,19.531,41.992,43.945,-4.395,0
1484095948.202,25.879,27.832,42.969,54.199,13.184,0
1484095948.206,26.367,30.762,39.551,52.246,-13.672,0
1484095948.210,30.273,32.715,38.086,48.340,-55.664,0
1484095948.214,28.320,34.668,33.691,48.828,-25.391,0
1484095948.218,24.902,34.668,37.598,50.293,-0.488,0
1484095948.222,28.320,33.691,41.016,56.152,15.625,0
1484095948.226,28.809,28.809,34.668,55.176,17.578,0
1484095948.229,32.715,30.762,37.109,62.012,10.254,0
1484095948.233,39.551,42.969,43.457,71.777,40.039,0
1484095948.237,47.852,47.852,42.480,71.289,46.875,0
1484095948.241,49.805,38.574,41.504,74.707,58.105,0
1484095948.245,41.504,28.320,41.504,76.660,60.547,0
1484095948.249,40.039,30.273,42.480,74.707,50.293,0
1484095948.253,37.598,30.762,43.945,71.777,48.828,0
1484095948.257,32.715,26.367,42.969,67.871,56.641,0
1484095948.261,31.738,21.484,47.363,66.406,51.270,0
1484095948.265,30.762,24.902,52.246,64.941,12.207,0
1484095948.269,33.203,29.785,52.246,64.941,30.762,0
1484095948.272,31.250,23.438,53.711,63.965,67.871,0
1484095948.276,22.461,21.484,48.828,54.688,62.500,0
1484095948.280,22.949,44.922,44.434,49.805,26.367,0
1484095948.284,23.438,51.758,46.387,46.875,45.898,0
1484095948.288,20.508,32.715,47.363,42.969,69.824,0
1484095948.292,23.926,29.785,48.828,46.387,8.789,0
1484095948.296,24.414,30.273,50.781,45.410,8.789,0
1484095948.300,22.949,30.273,55.176,41.992,53.711,0
1484095948.304,25.391,33.691,60.059,41.016,20.996,0
1484095948.308,27.344,39.551,62.012,41.504,-23.926,0
1484095948.311,28.809,37.598,63.965,39.551,20.020,0
1484095948.315,28.809,43.945,58.594,35.645,31.250,0
1484095948.319,23.926,62.500,47.852,36.133,8.789,0
1484095948.323,22.949,71.777,47.852,38.574,-1.465,0
1484095948.327,24.414,65.918,47.852,37.109,6.348,0
1484095948.331,29.297,57.617,46.387,41.504,71.289,0
1484095948.335,29.297,54.688,52.246,46.875,87.891,0
1484095948.339,31.738,57.617,53.711,51.758,-31.738,0
1484095948.343,33.203,61.523,49.316,57.129,-23.438,0
1484095948.347,32.227,62.988,45.410,62.012,56.641,0
1484095948.351,41.016,71.289,50.781,66.406,24.414,0
1484095948.354,46.875,80.566,54.688,66.895,-14.648,0
1484095948.358,45.410,77.148,50.293,62.988,40.527,0
1484095948.362,45.410,58.594,48.828,64.941,67.871,0
1484095948.366,43.457,37.109,48.340,63.965,0.977,0
1484095948.370,41.992,22.949,46.387,59.082,34.180,0
1484095948.374,39.062,25.391,47.363,56.152,20.508,0
1484095948.378,35.645,31.250,48.828,46.875,-7.324,0
1484095948.382,35.645,25.879,53.711,40.039,57.617,0
1484095948.386,31.250,22.461,56.152,31.250,67.383,0
1484095948.390,27.344,23.438,51.758,29.297,19.531,0
1484095948.394,23.438,19.043,49.316,31.738,33.691,0
1484095948.397,18.555,16.602,51.270,29.785,20.020,0
1484095948.401,20.996,14.160,55.664,33.691,5.371,0
1484095948.405,22.461,6.836,52.734,35.645,76.172,0
1484095948.409,20.020,10.742,44.922,37.598,44.922,0
1484095948.413,20.020,17.578,44.434,39.062,-9.277,0
1484095948.417,24.414,19.043,47.363,39.551,-8.301,0
1484095948.421,27.344,21.973,43.457,42.480,0.977,0
1484095948.425,33.691,15.625,39.551,45.898,46.875,0
1484095948.429,41.016,10.742,38.574,51.270,59.082,0
1484095948.433,40.039,12.207,39.062,53.711,15.137,0
1484095948.436,42.480,17.578,45.898,60.059,-19.531,0
1484095948.440,45.410,21.484,53.223,67.383,-23.926,0
1484095948.444,47.363,24.414,48.828,70.312,-42.480,0
1484095948.448,44.922,30.273,47.852,66.406,-6.348,0
1484095948.452,41.016,35.156,51.270,68.359,28.320,0
1484095948.456,45.410,41.016,45.410,72.266,10.254,0
1484095948.460,46.875,35.156,44.922,71.777,21.484,0
1484095948.464,49.316,30.273,46.875,72.266,61.035,0
1484095948.468,48.828,24.414,46.387,63.477,31.250,0
1484095948.472,43.945,16.602,48.828,58.105,-17.578,0
1484095948.476,38.086,24.902,47.852,57.617,2.441,0
1484095948.479,33.203,32.227,49.805,53.223,16.113,0
1484095948.483,29.785,28.320,52.734,50.781,-21.484,0
1484095948.487,28.320,24.902,47.363,44.434,5.371,0
1484095948.491,30.762,25.391,49.316,42.969,5.859,0
1484095948.495,27.344,22.949,52.734,40.527,8.301,0
1484095948.499,24.902,14.648,48.828,33.691,37.109,0
1484095948.503,21.973,17.090,52.246,34.668,0.977,0
1484095948.507,23.926,24.414,53.711,35.156,5.859,0
1484095948.511,25.879,25.879,54.688,38.086,33.691,0
1484095948.515,24.414,26.855,55.176,42.480,11.719,0
1484095948.519,26.367,27.832,49.805,41.504,9.766,0
1484095948.522,24.414,23.438,50.293,41.504,52.734,0
1484095948.526,23.438,24.414,53.223,44.922,35.645,0
1484095948.530,27.344,32.227,57.617,52.246,9.766,0
1484095948.534,26.367,33.691,53.711,58.594,12.207,0
1484095948.538,24.414,29.297,45.898,60.547,33.691,0
1484095948.542,28.320,28.809,49.316,66.895,9.766,0
1484095948.546,28.320,33.203,49.316,72.266,-19.531,0
1484095948.550,31.250,35.156,48.828,79.590,17.578,0
1484095948.554,42.969,36.621,50.781,84.473,60.059,0
1484095948.558,43.945,35.645,52.734,87.891,71.289,0
1484095948.561,43.457,35.156,51.270,89.844,6.836,0
1484095948.565,52.246,39.551,51.758,91.309,10.254,0
1484095948.569,52.734,41.992,50.293,93.262,17.090,0
1484095948.573,52.734,43.457,48.340,90.820,-24.902,0
1484095948.577,51.758,42.969,51.270,85.449,-23.926,0
1484095948.581,47.852,40.527,51.758,84.961,10.742,0
1484095948.585,40.527,43.457,43.945,81.543,42.480,0
1484095948.589,37.109,45.898,38.086,77.148,25.879,0
1484095948.593,39.062,42.480,38.086,72.266,62.012,0
1484095948.597,38.574,41.992,37.109,69.336,18.555,0
1484095948.601,36.133,46.387,31.738,66.895,-29.785,0
1484095948.604,30.762,46.387,31.250,60.059,45.898,0
1484095948.608,22.949,47.363,34.668,55.664,57.129,0
1484095948.612,18.066,46.875,35.645,46.387,25.879,0
1484095948.616,21.973,48.828,35.156,48.340,37.109,0
1484095948.620,30.762,50.293,33.691,54.688,36.133,0
1484095948.624,32.715,52.246,34.180,57.129,-6.348,0
1484095948.628,37.109,58.105,32.715,61.523,14.648,0
1484095948.632,36.621,57.129,28.320,59.570,63.965,0
1484095948.636,35.645,58.105,26.855,58.105,53.223,0
1484095948.640,41.992,56.152,26.367,60.059,-10.254,0
1484095948.644,39.062,56.152,22.949,57.129,1.953,0
1484095948.647,36.133,60.059,26.367,61.035,72.754,0
1484095948.651,36.621,52.734,24.902,64.453,102.051,0
1484095948.655,35.645,50.781,29.785,62.500,84.961,0
1484095948.659,37.598,56.641,35.645,65.918,28.809,0
1484095948.663,37.598,56.641,33.203,61.523,10.742,0
1484095948.667,33.203,56.152,37.109,56.641,31.250,0
1484095948.671,27.344,54.688,33.691,51.758,40.039,0
1484095948.675,28.809,55.176,34.668,49.805,10.254,0
1484095948.679,26.855,55.664,41.504,51.758,52.734,0
1484095948.683,28.320,49.316,44.922,58.594,73.730,0
1484095948.686,32.227,41.016,45.898,62.012,79.590,0
1484095948.690,26.855,43.457,43.457,58.105,55.176,0
1484095948.694,18.066,47.363,40.527,51.758,38.574,0
1484095948.698,11.230,41.504,36.621,42.480,98.633,0
1484095948.702,16.113,40.527,35.645,42.969,71.777,0
1484095948.706,20.020,45.898,33.691,46.387,14.160,0
1484095948.710,19.043,50.781,30.762,44.922,14.648,0
1484095948.714,25.879,52.734,29.785,46.387,8.789,0
1484095948.718,28.809,48.828,21.973,54.688,51.758,0
1484095948.722,24.414,47.363,19.043,54.688,47.363,0
1484095948.726,22.949,49.316,19.531,49.805,40.039,0
1484095948.729,26.367,49.805,20.996,54.688,0.000,0
1484095948.733,27.344,41.504,20.508,54.688,-10.254,0
1484095948.737,29.297,38.086,22.949,58.105,35.645,0
1484095948.741,35.156,44.922,28.809,61.035,-7.812,0
1484095948.745,36.621,47.852,30.273,56.641,8.789,0
1484095948.749,29.297,40.527,23.926,53.223,21.973,0
1484095948.753,26.855,33.203,14.160,42.480,-3.906,0
1484095948.757,26.367,33.691,13.184,33.691,16.113,0
1484095948.761,21.484,38.574,16.113,33.203,17.578,0
1484095948.765,15.625,43.945,13.184,37.109,29.297,0
1484095948.769,15.137,45.898,12.207,41.992,27.832,0
1484095948.772,20.020,42.969,19.043,46.387,42.480,0
1484095948.776,22.461,37.598,21.484,45.898,31.738,0
1484095948.780,20.020,37.598,21.484,43.457,-6.836,0
1484095948.784,18.555,40.039,17.090,47.363,19.043,0
1484095948.788,24.902,41.016,19.531,53.223,31.738,0
1484095948.792,26.367,37.109,25.391,52.734,-3.906,0
1484095948.796,21.484,34.180,24.902,47.852,27.344,0
1484095948.800,14.160,29.785,18.555,42.480,33.203,0
1484095948.804,13.184,24.902,7.812,43.457,51.758,0
1484095948.808,20.020,20.508,6.836,47.363,47.363,0
1484095948.811,23.926,18.555,9.277,49.805,-0.977,0
1484095948.815,27.832,21.973,6.836,50.293,-22.949,0
1484095948.819,25.879,21.484,8.789,43.457,9.766,0
1484095948.823,26.855,23.438,11.230,40.039,100.098,0
1484095948.827,32.715,30.762,11.719,46.387,70.801,0
1484095948.831,33.691,33.203,11.230,51.758,-5.371,0
1484095948.835,37.109,32.715,14.648,53.223,-17.578,0
1484095948.839,37.598,33.203,17.090,47.363,2.441,0
1484095948.843,32.715,33.203,15.625,41.016,22.461,0
1484095948.847,39.062,32.715,11.719,44.434,14.160,0
1484095948.851,36.133,32.227,7.812,44.922,-5.859,0
1484095948.854,24.902,34.668,10.254,38.086,32.227,0
1484095948.858,22.949,34.668,10.742,37.598,15.625,0
1484095948.862,18.555,31.738,0.977,39.551,10.742,0
1484095948.866,15.625,27.344,-0.977,33.203,49.805,0
1484095948.870,15.137,25.391,4.395,29.785,43.457,0
1484095948.874,16.113,26.855,6.348,31.250,26.367,0
1484095948.878,13.184,30.273,5.371,33.203,-12.695,0
1484095948.882,9.766,24.414,4.395,30.273,18.555,0
1484095948.886,6.348,19.043,8.789,27.832,50.781,0
1484095948.890,4.883,23.438,15.137,25.391,-46.875,0
1484095948.894,7.812,25.391,20.996,30.273,-24.902,0
1484095948.897,10.742,24.414,22.949,33.691,14.648,0
1484095948.901,11.719,24.902,23.926,32.227,-1.465,0
1484095948.905,7.812,21.484,22.461,34.668,31.738,0
1484095948.909,7.324,22.949,17.578,30.762,50.781,0
1484095948.913,6.348,23.926,12.207,23.438,44.922,0
1484095948.917,9.766,22.461,4.395,28.320,15.137,0
1484095948.921,17.578,21.484,2.930,36.133,4.395,0
1484095948.925,20.996,16.602,7.324,37.109,-25.879,0
1484095948.929,20.996,17.578,9.277,36.621,-31.250,0
1484095948.933,18.066,21.973,5.859,37.109,-24.902,0
1484095948.936,18.066,21.484,10.742,40.039,18.066,0
1484095948.940,23.926,14.160,16.602,39.062,86.426,0
1484095948.944,22.949,11.719,12.207,35.156,89.844,0
1484095948.948,26.367,15.625,16.602,41.016,46.875,0
1484095948.952,26.855,13.672,20.020,41.992,25.391,0
1484095948.956,21.484,8.301,20.020,36.621,35.645,0
1484095948.960,21.973,4.395,22.949,35.156,20.020,0
1484095948.964,17.090,2.441,16.113,30.273,11.719,0
1484095948.968,17.578,4.395,11.230,26.855,81.055,0
1484095948.972,21.973,9.766,13.184,30.273,65.430,0
1484095948.976,22.461,7.324,11.230,29.785,-10.742,0
1484095948.979,19.531,-1.465,12.207,30.273,-14.648,0
1484095948.983,16.602,-1.465,12.207,31.738,14.648,0
1484095948.987,17.090,6.348,10.254,24.902,61.523,0
1484095948.991,17.090,8.301,9.766,20.996,81.055,0
1484095948.995,14.648,12.695,12.695,20.508,23.438,0
1484095948.999,16.602,17.090,15.625,23.926,-14.648,0
1484095949.003,13.672,20.020,8.301,23.926,0.000,0
1484095949.007,14.160,26.855,4.395,28.320,39.551,0
1484095949.011,18.066,36.621,9.766,39.551,48.828,0
1484095949.015,20.020,46.387,14.160,41.504,31.738,0
1484095949.019,27.344,44.922,20.020,36.621,-3.418,0
1484095949.022,34.668,34.180,20.996,35.156,24.902,0
1484095949.026,32.227,29.297,16.602,30.762,33.691,0
1484095949.030,28.320,32.715,12.695,29.785,0.977,0
1484095949.034,30.762,32.227,10.742,40.039,14.160,0
1484095949.038,33.691,33.691,14.160,43.457,-14.648,0
1484095949.042,34.668,36.133,11.230,41.016,7.324,0
1484095949.046,33.691,36.621,13.672,51.270,-7.812,0
1484095949.050,35.156,37.109,16.113,57.617,-45.898,0
1484095949.054,36.621,31.250,16.602,55.176,-18.066,0
1484095949.058,38.574,30.273,25.879,57.617,39.551,0
1484095949.061,39.551,36.133,25.879,56.641,38.086,0
1484095949.065,39.062,39.551,21.484,55.176,5.859,0
1484095949.069,36.621,43.457,26.855,59.570,-2.441,0
1484095949.073,27.832,41.016,28.320,56.152,20.996,0
1484095949.077,16.602,34.668,25.879,48.828,12.695,0
1484095949.081,16.113,36.621,31.250,48.828,-8.301,0
1484095949.085,15.137,37.109,36.133,50.781,-8.789,0
1484095949.089,6.836,38.086,31.250,47.363,26.367,0
1484095949.093,0.977,44.922,24.902,39.062,30.273,0
1484095949.097,4.395,49.805,25.879,41.016,11.230,0
1484095949.101,10.742,53.223,31.250,49.316,32.227,0
1484095949.104,11.230,48.828,39.062,47.363,14.648,0
1484095949.108,16.113,34.180,38.086,45.410,20.508,0
1484095949.112,22.461,24.414,33.691,49.316,7.812,0
1484095949.116,28.320,21.484,30.273,54.688,28.809,0
1484095949.120,33.203,18.555,26.367,62.988,47.363,0
1484095949.124,39.551,25.879,20.996,66.406,-2.930,0
1484095949.128,44.434,28.809,19.043,68.848,81.055,0
1484095949.132,43.945,19.531,29.297,70.801,46.387,0
1484095949.136,42.480,9.766,32.715,64.453,28.809,0
1484095949.140,40.527,5.859,28.320,57.129,69.824,0
1484095949.144,34.668,6.836,30.762,56.641,58.105,0
1484095949.147,36.621,11.230,31.250,57.129,78.125,0
1484095949.151,31.250,8.789,30.762,48.828,25.879,0
1484095949.155,20.996,5.371,33.691,42.969,3.906,0
1484095949.159,20.020,0.000,30.273,41.504,-8.301,0
1484095949.163,17.578,-10.254,24.414,37.598,-1.953,0
1484095949.167,18.555,-10.254,22.949,37.598,75.684,0
1484095949.171,20.508,-4.883,23.926,39.551,64.941,0
1484095949.175,20.508,-10.254,27.832,38.574,7.324,0
1484095949.179,22.461,-19.531,21.973,34.180,33.203,0
1484095949.183,23.926,-25.391,20.996,32.715,54.688,0
1484095949.186,26.367,-26.855,26.855,34.668,46.875,0
1484095949.190,28.320,-19.531,27.832,37.109,-3.906,0
1484095949.194,23.438,-13.184,25.879,37.598,4.395,0
1484095949.198,17.578,-15.137,19.531,30.762,83.496,0
1484095949.202,19.043,-20.996,20.508,26.367,59.570,0
1484095949.206,21.484,-20.508,26.855,34.180,34.668,0
1484095949.210,20.996,-16.602,25.879,38.086,54.199,0
1484095949.214,21.484,-11.230,25.391,33.691,23.438,0
1484095949.218,23.438,-7.812,21.973,31.250,42.969,0
1484095949.222,22.461,-7.812,10.254,27.832,40.527,0
1484095949.226,23.926,-10.254,3.906,21.973,7.812,0
1484095949.229,27.344,-8.789,5.371,20.996,41.504,0
1484095949.233,25.391,-7.324,5.859,24.902,21.973,0
1484095949.237,23.926,-8.301,8.789,29.785,2.441,0
1484095949.241,25.391,0.000,14.648,34.180,29.785,0
1484095949.245,28.320,4.395,18.555,36.621,19.043,0
1484095949.249,28.320,-2.441,17.578,38.574,22.461,0
1484095949.253,30.273,-5.859,19.043,40.527,11.230,0
1484095949.257,29.785,-5.371,24.414,37.109,19.043,0
1484095949.261,28.809,-3.418,32.715,41.016,-5.859,0
1484095949.265,26.367,0.488,32.715,44.922,-3.418,0
1484095949.269,23.438,3.418,25.391,44.922,28.809,0
1484095949.272,29.785,2.441,26.855,49.805,14.648,0
1484095949.276,33.691,-1.465,26.855,51.758,0.000,0
1484095949.280,32.715,-1.953,29.785,46.875,-5.371,0
1484095949.284,28.809,-4.395,32.715,45.410,-39.062,0
1484095949.288,25.879,-4.883,29.785,43.945,-50.781,0
1484095949.292,26.367,-3.906,25.879,33.203,-39.551,0
1484095949.296,22.949,-2.441,27.832,27.832,-17.090,0
1484095949.300,21.484,7.812,33.691,33.691,61.035,0
1484095949.304,29.297,15.137,33.691,37.109,65.430,0
1484095949.308,35.156,17.578,30.762,42.480,14.160,0
1484095949.311,37.109,19.531,30.273,44.922,-37.598,0
1484095949.315,32.715,26.855,32.715,35.645,-21.973,0
1484095949.319,31.738,32.715,34.668,35.645,51.270,0
1484095949.323,34.668,31.738,33.203,39.551,19.531,0
1484095949.327,30.762,33.203,35.645,39.551,9.766,0
1484095949.331,25.879,29.297,40.039,38.086,57.129,0
1484095949.335,28.320,23.926,40.039,37.109,51.758,0
1484095949.339,31.250,23.926,44.434,45.410,-3.418,0
1484095949.343,27.832,23.926,47.363,43.945,-3.418,0
1484095949.347,25.391,23.926,46.387,40.527,20.508,0
1484095949.351,29.785,22.461,44.922,44.922,29.297,0
1484095949.354,33.691,18.555,41.992,47.852,37.598,0
1484095949.358,24.414,13.184,39.551,40.039,37.109,0
