timestamps,TP9,AF7,AF8,TP10,Right AUX,Marker0
1483986160.958,37.598,41.016,59.082,49.316,-11.719,0
1483986160.962,40.039,41.504,50.293,58.594,-4.883,0
1483986160.966,25.879,37.109,59.570,57.617,27.832,0
1483986160.970,23.438,36.621,63.965,57.617,19.043,0
1483986160.974,43.457,44.922,63.477,64.941,18.555,0
1483986160.977,47.852,49.805,55.664,62.012,29.297,0
1483986160.981,40.039,44.922,41.016,55.176,-0.488,0
1483986160.985,21.973,40.039,46.875,42.969,-40.039,0
1483986160.989,22.949,39.551,68.848,43.945,-37.598,0
1483986160.993,41.016,41.016,65.918,54.199,17.578,0
1483986160.997,31.738,39.551,57.617,51.270,20.020,0
1483986161.001,24.902,36.133,62.988,41.016,-14.648,0
1483986161.005,38.086,35.645,59.570,38.574,9.766,0
1483986161.009,42.969,37.598,53.223,49.805,40.039,0
1483986161.013,30.762,39.062,45.410,53.711,30.273,0
1483986161.017,28.320,46.875,42.969,43.945,-9.766,0
1483986161.020,41.992,55.176,41.016,47.363,-23.926,0
1483986161.024,45.410,48.340,47.363,45.410,-5.859,0
1483986161.028,32.227,32.715,63.477,39.062,-7.812,0
1483986161.032,28.320,34.668,59.570,44.922,-13.184,0
1483986161.036,39.551,44.922,58.105,46.387,11.719,0
1483986161.040,36.621,45.410,64.453,49.316,20.020,0
1483986161.044,30.762,46.875,54.199,46.875,8.789,0
1483986161.048,25.879,44.434,43.945,39.062,16.602,0
1483986161.052,31.250,42.480,45.898,50.781,43.457,0
1483986161.056,46.875,47.363,41.992,57.129,47.363,0
1483986161.059,47.363,44.434,42.480,52.734,21.484,0
1483986161.063,44.922,43.457,46.387,55.664,7.812,0
1483986161.067,44.922,44.434,53.223,58.105,20.508,0
1483986161.071,44.434,46.387,49.805,62.012,4.395,0
1483986161.075,43.945,45.410,40.527,65.430,-31.738,0
1483986161.079,53.223,48.340,51.270,71.777,-22.461,0
1483986161.083,53.711,51.758,44.922,65.918,21.973,0
1483986161.087,37.598,38.574,37.598,50.293,7.324,0
1483986161.091,42.480,33.203,42.480,57.129,-23.438,0
1483986161.095,52.246,37.598,37.598,67.383,4.883,0
1483986161.099,50.781,42.969,43.945,68.359,13.672,0
1483986161.102,53.711,47.363,48.828,75.684,-9.766,0
1483986161.106,56.152,44.922,28.809,73.730,0.977,0
1483986161.110,48.340,43.457,26.855,60.547,20.996,0
1483986161.114,36.133,48.340,36.133,54.688,0.488,0
1483986161.118,30.273,54.199,51.758,60.547,-26.367,0
1483986161.122,39.551,50.781,63.965,60.547,-43.945,0
1483986161.126,44.434,41.992,36.133,53.711,-7.812,0
1483986161.130,30.273,42.480,17.090,48.828,-0.488,0
1483986161.134,18.555,44.434,29.785,45.898,-51.758,0
1483986161.138,27.344,39.551,35.156,35.645,-57.617,0
1483986161.142,39.551,41.504,40.527,32.227,-32.227,0
1483986161.145,34.180,43.457,32.227,39.062,-29.785,0
1483986161.149,25.879,41.016,18.555,36.621,-19.531,0
1483986161.153,35.645,41.504,40.039,36.621,1.953,0
1483986161.157,41.016,45.898,50.293,42.969,-15.137,0
1483986161.161,31.738,46.875,46.875,53.711,-28.809,0
1483986161.165,17.578,41.016,49.805,44.434,-38.574,0
1483986161.169,17.090,44.434,38.086,36.621,-23.438,0
1483986161.173,38.086,56.641,32.227,52.246,-4.883,0
1483986161.177,34.668,55.176,27.344,58.594,-11.230,0
1483986161.181,15.625,48.340,24.902,56.152,-27.344,0
1483986161.184,19.043,42.969,36.133,57.617,-34.180,0
1483986161.188,32.227,34.180,43.945,69.336,9.766,0
1483986161.192,36.133,34.180,43.457,67.383,-12.207,0
1483986161.196,34.668,43.945,39.551,62.012,-8.301,0
1483986161.200,44.922,50.293,42.480,73.730,14.160,0
1483986161.204,49.316,49.805,35.645,70.312,-17.090,0
1483986161.208,49.805,57.129,29.297,77.148,-28.809,0
1483986161.212,50.293,61.523,30.273,76.660,-31.738,0
1483986161.216,47.363,57.129,27.344,63.477,-35.156,0
1483986161.220,56.152,65.430,20.996,68.848,-2.930,0
1483986161.224,49.805,67.383,14.160,76.172,15.625,0
1483986161.227,31.250,57.617,8.301,70.312,-0.977,0
1483986161.231,37.598,52.246,21.973,66.895,2.441,0
1483986161.235,41.992,52.246,26.855,72.266,-10.254,0
1483986161.239,41.016,50.293,24.414,62.988,20.508,0
1483986161.243,49.805,53.711,32.227,55.664,40.039,0
1483986161.247,49.316,56.152,18.066,64.941,37.109,0
1483986161.251,33.691,53.711,10.254,62.988,17.578,0
1483986161.255,41.992,54.688,20.508,63.965,-5.371,0
1483986161.259,47.363,52.734,21.973,64.941,22.949,0
1483986161.263,41.504,53.711,17.090,65.918,23.926,0
1483986161.267,49.805,63.965,16.602,75.195,15.625,0
1483986161.270,51.270,60.059,9.277,62.988,-16.602,0
1483986161.274,56.641,48.828,10.254,55.664,-6.836,0
1483986161.278,64.453,52.246,21.484,62.012,64.453,0
1483986161.282,49.316,58.594,17.090,54.688,35.645,0
1483986161.286,39.551,59.082,12.695,43.457,0.977,0
1483986161.290,46.387,54.199,19.531,40.039,30.762,0
1483986161.294,41.504,52.246,28.809,39.062,48.828,0
1483986161.298,40.527,47.852,27.344,36.621,43.457,0
1483986161.302,44.922,47.363,19.043,37.109,31.738,0
1483986161.306,47.852,53.711,29.785,37.598,21.484,0
1483986161.309,52.734,56.152,33.691,38.574,7.324,0
1483986161.313,39.551,56.152,15.137,45.898,-13.184,0
1483986161.317,39.551,53.223,17.090,54.688,-18.555,0
1483986161.321,54.199,54.199,28.809,53.711,43.457,0
1483986161.325,50.293,48.828,20.020,41.016,84.473,0
1483986161.329,42.969,43.945,14.160,35.645,52.246,0
1483986161.333,46.875,46.875,26.855,45.898,21.484,0
1483986161.337,55.664,51.270,38.574,50.293,33.203,0
1483986161.341,54.688,54.688,43.945,52.734,45.410,0
1483986161.345,52.734,54.688,43.945,59.570,53.711,0
1483986161.349,45.410,53.223,41.504,54.688,54.199,0
1483986161.352,41.992,59.082,46.387,49.805,20.996,0
1483986161.356,51.758,56.641,41.992,56.152,33.691,0
1483986161.360,47.363,46.875,25.391,51.758,51.270,0
1483986161.364,43.457,42.969,23.926,49.316,41.504,0
1483986161.368,49.805,48.828,34.180,61.523,42.969,0
1483986161.372,49.805,52.246,39.551,67.383,12.207,0
1483986161.376,48.340,48.828,52.734,56.641,15.137,0
1483986161.380,46.387,48.340,55.664,45.898,42.480,0
1483986161.384,25.879,43.457,41.992,45.898,55.664,0
1483986161.388,15.625,37.109,49.316,52.734,43.945,0
1483986161.392,25.391,34.668,62.500,70.801,41.016,0
1483986161.395,27.832,32.227,46.875,67.383,55.664,0
1483986161.399,19.531,25.391,44.922,56.641,37.598,0
1483986161.403,20.996,29.297,52.246,66.895,-10.254,0
1483986161.407,34.180,32.227,45.410,69.336,-6.348,0
1483986161.411,36.133,31.250,45.898,62.500,16.113,0
1483986161.415,23.926,33.203,53.223,60.059,16.602,0
1483986161.419,27.832,35.645,63.477,68.359,16.602,0
1483986161.423,35.645,35.645,61.035,75.195,14.160,0
1483986161.427,27.832,22.949,47.363,71.777,28.320,0
1483986161.431,18.066,23.438,24.414,71.289,22.949,0
1483986161.434,21.973,33.691,25.879,74.707,4.395,0
1483986161.438,40.527,35.156,55.664,69.824,17.090,0
1483986161.442,49.805,41.504,61.523,69.336,50.781,0
1483986161.446,43.457,46.387,59.570,74.219,50.781,0
1483986161.450,30.762,45.898,59.082,67.871,6.348,0
1483986161.454,38.086,47.363,50.781,62.012,11.719,0
1483986161.458,46.875,46.387,41.016,62.988,45.898,0
1483986161.462,29.297,39.551,30.273,53.711,51.270,0
1483986161.466,11.230,30.273,20.020,46.387,40.039,0
1483986161.470,13.184,27.832,4.883,44.922,38.086,0
1483986161.474,18.066,31.250,12.695,42.969,44.922,0
1483986161.477,19.043,40.527,42.480,46.387,41.016,0
1483986161.481,22.461,47.363,53.223,54.199,27.832,0
1483986161.485,18.066,41.016,51.270,51.758,34.180,0
1483986161.489,19.531,36.133,52.734,41.992,41.016,0
1483986161.493,20.508,33.691,48.828,40.039,20.996,0
1483986161.497,20.508,35.645,35.645,36.133,13.672,0
1483986161.501,29.297,34.180,20.508,29.785,33.203,0
1483986161.505,28.320,31.738,3.906,34.668,35.645,0
1483986161.509,25.391,37.109,18.066,41.016,22.461,0
1483986161.513,24.902,32.715,34.180,29.297,32.715,0
1483986161.517,22.949,27.344,32.227,20.996,54.688,1
1483986161.520,25.879,29.785,31.250,24.902,48.828,0
1483986161.524,25.391,31.738,26.855,18.555,19.531,0
1483986161.528,26.855,38.574,27.344,27.832,20.508,0
1483986161.532,23.438,41.992,35.156,31.738,29.297,0
1483986161.536,12.207,42.480,33.203,40.039,17.578,0
1483986161.540,14.160,42.480,12.207,45.898,28.809,0
1483986161.544,19.531,42.480,3.906,35.156,50.293,0
1483986161.548,9.766,38.086,19.531,26.855,59.570,0
1483986161.552,4.395,33.203,40.039,25.391,44.922,0
1483986161.556,4.395,36.621,57.129,37.109,-0.977,0
1483986161.559,17.090,36.621,56.641,44.434,24.902,0
1483986161.563,19.043,33.691,42.480,44.434,56.152,0
1483986161.567,-1.953,32.715,31.738,43.945,24.414,0
1483986161.571,-4.883,33.691,24.414,43.945,25.879,0
1483986161.575,9.277,38.574,24.902,54.199,57.617,0
1483986161.579,8.789,40.039,29.785,47.852,50.781,0
1483986161.583,3.418,37.109,33.203,37.109,44.434,0
1483986161.587,3.418,34.668,43.457,39.551,29.297,0
1483986161.591,14.648,33.691,57.129,39.551,25.391,0
1483986161.595,18.555,31.250,55.176,40.039,76.660,0
1483986161.599,0.977,26.367,43.457,37.109,55.664,0
1483986161.602,-0.488,23.438,41.992,38.574,30.273,0
1483986161.606,12.695,26.367,50.293,44.922,40.039,0
1483986161.610,11.719,28.320,35.156,41.992,34.668,0
1483986161.614,3.418,32.227,30.273,39.062,22.461,0
1483986161.618,3.418,32.715,38.086,45.898,-0.488,0
1483986161.622,11.719,36.621,33.691,46.387,9.766,0
1483986161.626,11.230,38.574,39.062,32.227,37.109,0
1483986161.630,6.348,35.156,36.133,27.832,45.898,0
1483986161.634,8.301,37.598,44.434,33.203,43.457,0
1483986161.638,19.531,36.621,57.129,29.785,40.527,0
1483986161.642,25.879,32.227,60.059,39.551,36.621,0
1483986161.645,19.043,43.945,48.828,53.711,12.695,0
1483986161.649,21.484,44.922,38.574,57.129,29.297,0
1483986161.653,26.367,33.203,41.992,55.176,27.832,0
1483986161.657,30.762,34.180,30.273,55.664,24.902,0
1483986161.661,36.133,36.133,26.367,55.664,46.387,0
1483986161.665,36.621,38.574,39.551,56.152,45.410,0
1483986161.669,38.574,43.457,56.641,65.918,38.086,0
1483986161.673,28.320,37.598,58.594,59.570,28.320,0
1483986161.677,17.578,29.785,47.363,49.316,27.344,0
1483986161.681,14.648,35.156,56.641,54.688,38.086,0
1483986161.684,11.230,34.668,62.500,47.363,66.895,0
1483986161.688,3.418,26.855,48.340,30.762,44.434,0
1483986161.692,7.324,27.832,54.199,36.621,4.395,0
1483986161.696,11.719,27.832,56.641,46.875,43.457,0
1483986161.700,4.395,24.414,50.781,51.758,43.457,0
1483986161.704,9.277,27.832,54.199,54.199,16.113,0
1483986161.708,19.531,31.250,56.152,57.617,-4.395,0
1483986161.712,16.602,29.785,57.129,50.781,9.766,0
1483986161.716,11.719,29.785,53.223,51.758,43.457,0
1483986161.720,26.855,41.016,59.570,63.965,43.945,0
1483986161.724,37.109,42.480,59.082,68.848,20.508,0
1483986161.727,28.809,33.203,49.316,73.730,7.324,0
1483986161.731,25.879,30.762,60.547,71.289,-2.441,0
1483986161.735,34.668,34.180,76.172,77.148,-11.719,0
1483986161.739,59.570,41.992,76.172,83.496,10.742,0
1483986161.743,61.523,39.062,67.871,76.172,18.066,0
1483986161.747,30.762,29.297,49.316,71.777,8.789,0
1483986161.751,19.043,24.902,47.852,74.219,7.812,0
1483986161.755,35.645,29.785,51.758,76.660,23.438,0
1483986161.759,40.039,31.250,47.852,77.148,52.734,0
1483986161.763,27.344,23.438,40.527,69.824,35.156,0
1483986161.767,22.461,26.367,44.434,65.918,7.324,0
1483986161.770,32.227,34.180,59.570,72.266,12.695,0
1483986161.774,43.457,41.504,64.941,82.031,25.879,0
1483986161.778,34.180,37.598,51.270,82.520,19.531,0
1483986161.782,25.879,28.320,36.133,66.895,-1.953,0
1483986161.786,40.527,28.320,55.664,65.918,20.020,0
1483986161.790,44.434,23.926,53.711,76.660,51.270,0
1483986161.794,32.715,22.461,36.133,77.637,31.738,0
1483986161.798,37.109,30.762,42.969,78.125,20.996,0
1483986161.802,41.504,36.133,50.781,72.754,43.945,0
1483986161.806,36.133,35.156,48.828,68.359,62.500,0
1483986161.809,35.156,34.180,47.363,77.148,57.129,0
1483986161.813,33.691,35.156,45.410,82.031,21.484,0
1483986161.817,42.969,37.598,39.551,86.914,47.363,0
1483986161.821,46.875,37.598,41.992,96.680,81.055,0
1483986161.825,41.016,33.203,45.410,89.844,25.879,0
1483986161.829,47.852,38.086,48.828,89.355,15.137,0
1483986161.833,51.270,48.340,63.477,95.215,41.504,0
1483986161.837,35.156,40.039,66.895,82.520,32.715,0
1483986161.841,33.203,33.203,54.199,75.684,36.621,0
1483986161.845,42.480,41.504,54.199,74.219,44.922,0
1483986161.849,39.062,50.781,50.293,75.195,43.457,0
1483986161.852,29.297,47.363,37.598,69.824,20.996,0
1483986161.856,30.273,45.410,34.180,63.477,27.344,0
1483986161.860,38.086,48.340,38.086,64.453,56.152,0
1483986161.864,29.785,47.363,40.039,62.500,40.039,0
1483986161.868,11.719,38.574,45.898,50.293,5.371,0
1483986161.872,12.207,24.414,44.922,37.109,4.883,0
1483986161.876,26.855,30.273,36.133,39.551,41.504,0
1483986161.880,26.367,41.016,41.504,46.875,28.320,0
1483986161.884,23.438,33.203,39.062,44.434,-7.324,0
1483986161.888,29.785,29.297,22.461,36.133,16.113,0
1483986161.892,37.598,31.250,21.484,36.621,33.691,0
1483986161.895,41.504,31.250,38.574,42.969,33.691,0
1483986161.899,37.109,29.785,37.109,48.828,-3.906,0
1483986161.903,48.828,33.203,36.133,61.035,-23.438,0
1483986161.907,63.477,34.180,32.715,64.453,18.555,0
1483986161.911,55.664,31.250,27.832,67.871,43.457,0
1483986161.915,33.691,34.180,46.875,75.684,16.113,0
1483986161.919,31.738,36.621,52.734,83.984,-11.230,0
1483986161.923,43.457,33.691,44.922,77.637,21.973,0
1483986161.927,36.133,26.367,37.109,64.453,58.594,0
1483986161.931,36.133,26.855,33.203,65.918,29.297,0
1483986161.934,53.711,37.598,37.109,70.312,40.039,0
1483986161.938,58.594,39.062,38.574,67.383,66.406,0
1483986161.942,48.340,41.504,42.480,64.453,17.090,0
1483986161.946,37.598,45.410,44.434,64.453,-6.836,0
1483986161.950,33.203,42.480,27.344,62.988,20.020,0
1483986161.954,38.574,43.945,30.762,65.430,54.688,0
1483986161.958,37.598,41.992,36.621,66.895,41.504,0
1483986161.962,25.879,27.832,21.973,65.430,-7.324,0
1483986161.966,21.973,23.438,24.414,67.383,4.883,0
1483986161.970,25.879,23.926,38.574,55.664,43.945,0
1483986161.974,17.090,23.926,44.434,46.387,22.461,0
1483986161.977,7.812,24.902,35.156,49.316,15.625,0
1483986161.981,11.719,23.926,37.109,51.758,40.527,0
1483986161.985,17.578,34.668,39.551,61.035,38.574,0
1483986161.989,28.320,41.016,34.180,67.871,27.832,0
1483986161.993,33.691,33.203,45.898,62.012,39.551,0
1483986161.997,25.879,24.414,27.832,56.152,40.039,0
1483986162.001,23.926,17.578,11.719,57.617,18.555,0
1483986162.005,38.086,23.438,21.973,57.617,24.902,0
1483986162.009,40.039,35.156,27.832,51.758,36.621,0
1483986162.013,26.367,37.109,37.598,42.969,28.320,0
1483986162.017,12.695,34.668,37.109,33.691,36.133,0
1483986162.020,14.160,43.945,30.273,40.527,1.953,0
1483986162.024,35.156,51.270,20.996,47.852,-23.926,0
1483986162.028,40.039,44.922,21.484,42.969,9.766,0
1483986162.032,24.414,36.621,25.391,40.527,10.742,0
1483986162.036,20.508,34.180,27.344,45.898,13.672,0
1483986162.040,28.320,33.203,23.926,51.270,52.734,0
1483986162.044,35.156,39.551,8.789,70.801,52.246,0
1483986162.048,35.156,41.016,21.973,72.266,13.184,0
1483986162.052,28.320,29.297,31.738,49.316,15.625,0
1483986162.056,35.645,31.738,27.832,55.176,1.465,0
1483986162.059,49.805,41.992,38.086,71.289,0.488,0
1483986162.063,35.645,38.574,28.809,74.707,13.672,0
1483986162.067,32.715,38.086,20.508,71.289,-11.230,0
1483986162.071,53.223,41.992,26.367,73.730,-1.465,0
1483986162.075,51.270,37.598,28.320,76.172,3.418,0
1483986162.079,34.180,37.109,22.461,70.312,-24.414,0
1483986162.083,31.250,39.062,0.488,65.918,-39.551,0
1483986162.087,38.574,35.645,-9.277,65.430,-3.906,0
1483986162.091,39.062,37.598,14.648,55.176,22.461,0
1483986162.095,39.551,43.945,31.738,53.223,17.578,0
1483986162.099,40.039,50.293,20.508,56.641,0.977,0
1483986162.102,40.039,47.363,14.160,58.105,-7.812,0
1483986162.106,39.062,41.504,18.555,54.199,-21.484,0
1483986162.110,33.203,44.922,9.277,49.316,-48.828,0
1483986162.114,32.227,40.527,6.836,49.805,-30.273,0
1483986162.118,39.062,37.598,3.906,45.410,-8.789,0
1483986162.122,36.133,37.598,-0.977,41.504,-17.090,0
1483986162.126,31.738,40.039,18.555,38.574,-29.785,0
1483986162.130,38.086,44.434,30.762,48.828,-10.254,0
1483986162.134,33.691,43.457,17.090,56.152,27.344,0
1483986162.138,21.484,40.527,21.484,50.781,-5.859,0
1483986162.142,21.484,37.598,25.879,44.434,-38.574,0
1483986162.145,22.949,31.250,8.301,35.156,-23.438,0
1483986162.149,18.555,32.715,23.926,39.062,-40.039,0
1483986162.153,17.090,37.598,30.273,41.016,-23.438,0
1483986162.157,19.531,32.715,15.625,41.016,-1.465,0
1483986162.161,33.203,36.133,7.324,53.711,3.418,0
1483986162.165,30.273,38.574,0.977,59.082,5.371,0
1483986162.169,24.414,35.645,28.320,54.688,-9.766,0
1483986162.173,33.203,39.551,43.945,54.199,-31.250,0
1483986162.177,31.738,40.039,34.180,45.898,25.391,0
1483986162.181,23.438,35.645,35.645,40.527,62.012,0
1483986162.184,27.344,44.434,37.109,50.293,26.367,0
1483986162.188,44.434,52.734,40.527,56.641,7.324,0
1483986162.192,43.457,45.898,35.645,54.199,21.484,0
1483986162.196,26.367,40.527,13.672,55.176,14.648,0
1483986162.200,11.230,39.551,13.672,51.758,-20.996,0
1483986162.204,18.555,36.621,36.133,53.711,-25.391,0
1483986162.208,38.574,46.387,37.598,67.383,0.488,0
1483986162.212,24.902,46.875,32.227,58.105,20.508,0
1483986162.216,14.648,36.133,43.945,41.504,1.953,0
1483986162.220,18.066,34.180,45.898,41.504,4.883,0
1483986162.224,10.742,29.785,27.832,36.133,19.043,0
1483986162.227,6.836,25.879,23.438,26.367,22.461,0
1483986162.231,11.230,35.156,18.066,33.691,2.930,0
1483986162.235,13.672,39.551,5.859,35.645,-18.066,0
1483986162.239,17.578,40.527,17.578,32.715,-12.207,0
1483986162.243,12.695,45.898,34.668,41.992,-25.879,0
1483986162.247,1.465,41.992,33.203,36.133,-12.695,0
1483986162.251,-1.465,32.715,29.785,20.996,24.414,0
1483986162.255,1.465,33.203,42.969,27.344,2.930,0
1483986162.259,3.906,38.574,43.457,35.645,-49.316,0
1483986162.263,-4.395,34.668,24.414,33.691,-36.621,0
1483986162.267,3.906,36.133,10.742,39.551,-14.648,0
1483986162.270,14.648,40.527,16.602,46.875,-33.691,0
1483986162.274,15.137,39.062,34.180,41.504,-18.066,0
1483986162.278,14.160,41.992,39.551,35.645,-11.719,0
1483986162.282,8.789,46.387,47.852,43.457,-7.812,0
1483986162.286,2.441,36.621,41.016,39.551,-21.973,0
1483986162.290,3.418,24.902,19.043,24.902,-52.246,0
1483986162.294,7.324,28.809,20.996,24.902,-53.711,0
1483986162.298,12.207,30.762,16.602,25.391,-30.762,0
1483986162.302,16.602,38.574,8.301,32.715,-25.391,0
1483986162.306,13.184,40.527,25.391,42.969,-48.340,0
1483986162.309,17.090,30.762,46.875,30.762,-64.941,0
1483986162.313,16.113,29.785,53.223,29.297,-50.781,0
1483986162.317,14.160,34.180,38.574,37.598,-55.176,0
1483986162.321,30.273,39.551,35.645,37.109,-79.590,0
1483986162.325,43.945,36.621,35.156,31.738,-52.246,0
1483986162.329,32.715,34.668,23.926,32.227,-27.832,0
1483986162.333,18.066,33.203,29.297,28.320,-35.645,0
1483986162.337,24.902,36.621,26.367,28.809,-54.199,0
1483986162.341,27.344,36.133,30.273,26.855,-30.762,0
1483986162.345,17.578,27.832,47.852,23.438,-12.695,0
1483986162.349,15.625,34.668,60.547,38.086,-54.688,0
1483986162.352,28.320,40.039,47.363,37.109,-65.918,0
1483986162.356,40.527,35.156,28.809,28.809,-44.434,0
1483986162.360,32.227,40.039,36.133,40.039,-48.340,0
1483986162.364,6.348,37.109,38.086,40.527,-69.824,0
1483986162.368,-12.207,25.879,26.367,31.738,-71.289,0
1483986162.372,-8.789,24.414,25.879,26.855,-12.695,0
1483986162.376,-6.348,29.297,41.504,29.297,-11.719,0
1483986162.380,-1.465,34.668,40.527,37.598,-58.105,0
1483986162.384,3.906,32.715,31.738,44.434,-59.082,0
1483986162.388,11.719,40.527,43.945,52.734,-48.828,0
1483986162.392,15.625,44.434,37.109,43.945,-43.457,0
1483986162.395,2.441,34.668,28.320,42.480,-65.918,0
1483986162.399,2.930,29.785,29.297,48.828,-102.539,0
1483986162.403,11.719,32.715,18.066,40.039,-42.969,0
1483986162.407,9.277,34.668,10.742,39.062,-42.969,0
1483986162.411,9.277,30.273,11.230,34.668,-54.199,0
1483986162.415,11.230,28.320,27.344,35.645,-27.832,0
1483986162.419,19.531,34.668,41.504,47.363,-56.641,0
1483986162.423,27.344,39.062,46.875,52.246,-61.035,0
1483986162.427,28.320,40.039,55.664,50.781,-41.504,0
1483986162.431,22.949,36.621,54.688,48.340,-32.227,0
1483986162.434,9.277,23.926,35.156,43.457,-21.484,0
1483986162.438,14.648,21.484,8.301,54.688,-45.898,0
1483986162.442,29.785,31.250,13.184,60.059,-27.344,0
1483986162.446,24.414,38.086,40.527,53.223,9.766,0
1483986162.450,10.254,33.691,42.480,46.387,-27.344,0
1483986162.454,4.395,29.297,45.898,44.922,-30.762,0
1483986162.458,14.160,33.203,45.898,49.316,-49.805,0
1483986162.462,24.414,34.668,37.109,54.199,-58.594,0
1483986162.466,20.508,27.832,34.668,49.805,-47.363,0
1483986162.470,20.508,26.367,32.715,39.062,-42.969,0
1483986162.474,32.715,32.227,30.273,45.898,-28.320,0
1483986162.477,22.949,29.297,23.926,44.922,6.348,0
1483986162.481,1.953,20.996,34.668,28.320,-11.230,0
1483986162.485,0.000,19.043,49.805,26.855,-32.227,0
1483986162.489,19.531,29.297,52.246,41.504,5.371,0
1483986162.493,29.785,28.320,45.898,41.504,7.324,0
1483986162.497,18.066,24.414,38.574,41.016,11.230,0
1483986162.501,19.531,32.715,37.109,43.945,-3.418,0
1483986162.505,33.203,34.180,33.203,39.062,-40.527,0
1483986162.509,33.203,31.738,24.414,41.016,3.906,0
1483986162.513,22.461,33.203,14.648,41.992,22.949,0
1483986162.517,23.438,35.645,25.391,38.574,-27.832,0
1483986162.520,19.531,28.809,28.809,25.391,-50.781,0
1483986162.524,17.578,24.902,36.133,20.996,-38.086,0
1483986162.528,16.602,33.691,43.457,30.273,-6.836,0
1483986162.532,13.184,44.434,43.457,34.668,-23.926,0
1483986162.536,28.809,52.246,44.434,39.551,-23.926,0
1483986162.540,35.645,50.293,40.039,49.805,-31.250,0
1483986162.544,26.367,39.551,26.855,42.969,-13.184,0
1483986162.548,10.742,29.785,0.488,21.973,9.277,0
1483986162.552,8.789,29.297,3.906,17.090,-20.508,0
1483986162.556,24.414,37.598,39.062,25.391,-17.090,0
1483986162.559,23.438,40.527,44.922,25.879,-7.324,0
1483986162.563,20.508,40.039,32.715,25.879,4.395,0
1483986162.567,22.949,41.992,37.109,29.297,47.363,0
1483986162.571,23.438,44.434,43.457,35.156,36.621,0
1483986162.575,26.855,49.805,41.992,51.270,27.344,0
1483986162.579,33.691,48.340,26.855,63.965,47.852,0
1483986162.583,41.504,41.016,19.531,59.082,51.270,0
1483986162.587,35.645,41.504,28.809,51.758,55.664,0
1483986162.591,34.180,37.109,41.504,50.293,31.250,0
1483986162.595,37.598,37.109,34.668,53.223,-13.184,0
1483986162.599,38.086,43.945,23.438,59.082,-40.527,0
1483986162.602,41.504,47.363,40.527,67.383,22.461,0
1483986162.606,37.109,41.992,41.016,67.871,54.199,0
1483986162.610,30.273,41.504,31.738,61.523,4.395,0
1483986162.614,28.320,46.875,37.109,64.941,-36.133,0
1483986162.618,20.020,41.504,20.508,62.988,-76.172,0
1483986162.622,25.391,38.574,16.602,50.293,-29.297,0
1483986162.626,40.527,46.875,46.875,57.129,45.898,0
1483986162.630,38.086,49.316,50.293,65.918,59.570,0
1483986162.634,25.879,48.340,39.551,64.941,54.688,0
1483986162.638,33.203,49.805,36.621,61.523,18.555,0
1483986162.642,47.363,47.852,32.715,47.852,-16.113,0
1483986162.645,39.551,44.434,28.320,44.922,-18.555,0
1483986162.649,32.227,40.527,24.902,44.922,4.395,0
1483986162.653,30.762,38.574,27.344,31.738,-18.066,0
1483986162.657,31.738,41.992,36.133,37.109,-33.203,0
1483986162.661,16.113,40.039,21.484,41.016,-22.461,0
1483986162.665,2.930,41.504,18.066,38.086,-8.789,0
1483986162.669,10.742,45.410,38.086,41.504,18.555,0
1483986162.673,21.973,41.016,45.898,36.621,39.551,0
1483986162.677,28.320,46.875,36.621,38.574,30.273,0
1483986162.681,21.973,46.875,30.762,37.598,7.324,0
1483986162.684,17.090,42.969,24.902,25.879,14.160,0
1483986162.688,25.879,46.875,26.367,9.277,76.172,0
1483986162.692,20.508,43.945,30.273,6.836,72.266,0
1483986162.696,7.812,39.062,11.719,10.254,-1.465,0
1483986162.700,5.859,33.203,13.184,0.977,-41.016,0
1483986162.704,9.766,31.738,30.273,0.000,-22.461,0
1483986162.708,17.090,38.574,33.691,12.207,-0.488,0
1483986162.712,11.719,40.527,38.574,24.414,-54.688,0
1483986162.716,8.301,41.992,31.738,22.461,-50.781,0
1483986162.720,15.137,46.875,24.902,14.648,-14.160,0
1483986162.724,14.648,40.527,29.297,14.648,-2.930,0
1483986162.727,10.254,35.645,20.996,17.090,-34.668,0
1483986162.731,19.531,45.898,23.438,32.715,-41.992,0
1483986162.735,21.484,46.875,30.273,42.480,-6.348,0
1483986162.739,10.254,33.691,33.691,30.273,-35.156,0
1483986162.743,13.184,32.715,52.246,27.344,-19.531,0
1483986162.747,21.484,39.062,41.504,41.016,-7.324,0
1483986162.751,12.207,39.551,19.043,39.062,-22.461,0
1483986162.755,12.207,38.086,25.879,30.762,-17.578,0
1483986162.759,23.438,42.480,32.227,35.645,-26.855,0
1483986162.763,24.902,46.387,42.480,42.480,-17.090,0
1483986162.767,12.207,42.969,34.668,33.691,5.859,0
1483986162.770,9.766,38.086,17.090,38.086,19.531,0
1483986162.774,17.578,35.645,32.227,40.527,-4.395,0
1483986162.778,22.461,35.156,54.199,33.203,6.348,0
1483986162.782,20.020,38.574,41.992,39.062,12.207,2
1483986162.786,15.137,44.922,23.438,41.016,12.207,0
1483986162.790,23.438,40.039,13.184,31.250,31.250,0
1483986162.794,31.738,38.086,16.113,23.926,32.227,0
1483986162.798,26.367,45.410,31.738,33.203,32.715,0
1483986162.802,28.320,49.805,27.344,41.992,51.758,0
1483986162.806,36.133,51.270,25.879,37.598,64.453,0
1483986162.809,32.715,44.434,48.828,29.297,18.555,0
1483986162.813,19.043,34.180,43.945,23.926,22.461,0
1483986162.817,17.578,33.203,27.344,25.391,36.621,0
1483986162.821,38.086,40.039,31.250,33.691,9.766,0
1483986162.825,32.715,42.480,29.785,31.250,-8.789,0
1483986162.829,18.555,41.016,18.555,20.508,20.508,0
1483986162.833,16.602,39.551,27.832,25.391,53.223,0
1483986162.837,20.996,38.086,43.457,31.250,8.301,0
1483986162.841,27.344,38.086,31.738,31.738,6.348,0
1483986162.845,17.090,36.621,19.531,31.738,25.391,0
1483986162.849,7.812,41.504,23.926,39.551,-8.301,0
1483986162.852,11.230,38.086,27.344,45.410,0.000,0
1483986162.856,15.625,32.227,31.738,41.016,-5.371,0
1483986162.860,19.043,37.598,35.645,50.293,24.902,0
1483986162.864,25.879,39.551,39.062,53.223,52.734,0
1483986162.868,28.809,34.668,23.438,37.598,-4.395,0
1483986162.872,31.738,36.133,16.113,47.852,19.531,0
1483986162.876,41.504,43.457,17.578,60.547,20.020,0
1483986162.880,44.434,41.504,12.695,52.734,0.488,0
1483986162.884,28.809,32.715,21.973,45.898,69.824,0
1483986162.888,23.438,31.738,43.945,50.293,82.520,0
1483986162.892,28.320,43.457,46.387,65.430,17.578,0
1483986162.895,20.508,47.363,28.809,62.012,-2.441,0
1483986162.899,6.348,34.180,19.531,45.410,10.254,0
1483986162.903,-0.488,28.809,23.438,39.062,26.367,0
1483986162.907,8.301,32.715,23.438,39.062,40.527,0
1483986162.911,33.203,41.992,10.742,45.410,15.625,0
1483986162.915,37.598,47.852,0.977,44.434,6.836,0
1483986162.919,25.879,44.922,30.762,38.574,20.020,0
1483986162.923,33.203,41.992,52.246,45.898,37.109,0
1483986162.927,40.527,37.109,41.016,42.969,30.273,0
1483986162.931,30.273,36.133,28.320,27.344,-16.113,0
1483986162.934,25.879,38.574,19.043,22.949,-37.598,0
1483986162.938,34.668,35.645,8.301,20.508,-22.461,0
1483986162.942,40.527,39.062,4.883,26.855,-11.230,0
1483986162.946,30.273,44.922,19.043,31.738,33.691,0
1483986162.950,16.113,46.387,24.414,24.414,25.879,0
1483986162.954,30.762,48.828,19.043,27.832,21.973,0
1483986162.958,49.805,46.387,33.691,31.738,78.125,0
1483986162.962,41.504,40.527,34.180,25.879,39.551,0
1483986162.966,28.320,44.922,13.672,23.926,-18.066,0
1483986162.970,36.621,49.805,17.578,20.996,-2.930,0
1483986162.974,52.734,54.688,23.438,30.273,-41.504,0
1483986162.977,50.781,62.012,22.949,34.668,-68.359,0
1483986162.981,39.062,50.781,20.996,21.484,0.488,0
1483986162.985,39.062,39.551,3.906,16.602,34.180,0
1483986162.989,46.387,43.945,6.836,17.090,22.461,0
1483986162.993,47.852,47.852,28.809,15.137,76.660,0
1483986162.997,41.016,43.457,34.180,10.254,104.492,0
1483986163.001,38.086,36.621,31.250,17.578,70.312,0
1483986163.005,43.457,37.109,27.832,27.832,59.082,0
1483986163.009,29.785,41.016,9.277,21.484,23.438,0
1483986163.013,22.461,40.039,15.137,27.344,16.113,0
1483986163.017,39.551,41.504,47.363,41.992,32.715,0
1483986163.020,37.598,37.109,37.109,33.203,67.871,0
1483986163.024,36.621,36.621,24.902,32.227,58.594,0
1483986163.028,41.992,42.969,36.133,39.062,18.555,0
1483986163.032,35.645,37.109,28.809,37.598,16.113,0
1483986163.036,34.180,32.227,22.949,41.016,23.438,0
1483986163.040,22.949,33.203,17.090,40.527,69.824,0
1483986163.044,24.414,33.691,24.414,33.691,47.363,0
1483986163.048,30.762,34.668,39.062,34.180,-2.441,0
1483986163.052,25.879,41.504,41.016,45.410,37.109,0
1483986163.056,32.227,51.758,37.109,45.898,31.250,0
1483986163.059,37.598,46.387,40.527,36.621,20.996,0
1483986163.063,33.691,44.922,30.273,41.504,37.598,0
1483986163.067,25.391,47.363,22.949,49.316,28.809,0
1483986163.071,34.180,43.945,27.344,48.340,54.199,0
1483986163.075,44.434,41.016,33.691,46.387,22.461,0
1483986163.079,39.062,41.504,41.016,46.875,14.648,0
1483986163.083,35.156,45.410,42.969,45.410,30.762,0
1483986163.087,30.273,41.016,38.086,41.992,21.973,0
1483986163.091,28.320,38.574,26.855,37.109,59.570,0
1483986163.095,36.133,43.945,25.879,42.480,75.684,0
1483986163.099,26.855,36.133,12.207,47.852,55.176,0
1483986163.102,28.320,37.109,20.508,45.898,69.336,0
1483986163.106,39.062,44.434,35.645,47.363,64.453,0
1483986163.110,28.809,42.969,37.109,52.246,61.035,0
1483986163.114,7.812,39.551,43.457,44.922,67.383,0
1483986163.118,11.719,42.969,38.574,45.410,35.645,0
1483986163.122,29.785,44.922,32.715,48.828,7.324,0
1483986163.126,26.855,37.598,24.414,47.852,-8.789,0
1483986163.130,10.254,34.180,20.996,52.246,-3.418,0
1483986163.134,17.090,41.504,32.715,55.664,3.418,0
1483986163.138,33.691,47.852,41.992,69.336,-5.371,0
1483986163.142,25.391,42.969,41.992,58.105,18.066,0
1483986163.145,8.789,39.062,53.223,48.340,10.742,0
1483986163.149,9.766,37.109,54.199,56.641,-0.977,0
1483986163.153,14.160,32.715,36.133,53.223,28.809,0
1483986163.157,9.766,30.273,22.949,54.199,32.227,0
1483986163.161,5.371,32.715,22.461,65.430,16.602,0
1483986163.165,9.766,41.504,31.738,65.430,5.859,0
1483986163.169,17.578,44.922,43.457,67.871,40.527,0
1483986163.173,15.625,42.480,55.176,62.500,38.574,0
1483986163.177,16.113,40.039,43.945,53.711,17.578,0
1483986163.181,13.184,36.621,31.738,57.129,10.254,0
1483986163.184,16.113,37.598,35.156,54.199,28.809,0
1483986163.188,27.832,43.457,38.086,58.105,-17.578,0
1483986163.192,32.227,45.898,24.902,62.500,-33.691,0
1483986163.196,31.250,37.598,29.297,58.594,19.043,0
1483986163.200,18.555,34.668,32.715,57.129,21.973,0
1483986163.204,21.973,36.133,27.344,59.570,6.348,0
1483986163.208,42.969,42.969,43.945,66.895,30.762,0
1483986163.212,41.504,46.875,50.293,71.289,27.832,0
1483986163.216,21.973,42.969,41.504,67.871,30.762,0
1483986163.220,14.160,35.156,39.062,66.406,6.836,0
1483986163.224,25.879,31.250,30.762,64.453,13.184,0
1483986163.227,31.738,38.086,26.855,66.895,17.090,0
1483986163.231,26.855,36.621,27.832,63.965,25.391,0
1483986163.235,24.414,38.086,41.016,62.988,55.664,0
1483986163.239,40.527,44.434,36.133,66.406,44.922,0
1483986163.243,55.176,49.316,25.391,75.195,59.570,0
1483986163.247,33.203,46.387,42.969,73.242,11.719,0
1483986163.251,17.090,38.574,40.527,59.082,15.625,0
1483986163.255,33.203,43.457,42.969,62.012,63.477,0
1483986163.259,33.691,38.574,39.551,54.688,52.734,0
1483986163.263,15.625,26.855,23.438,41.504,17.578,0
1483986163.267,20.508,29.785,25.879,45.410,49.805,0
1483986163.270,33.691,35.645,32.715,50.293,77.637,0
1483986163.274,29.785,34.180,28.320,47.363,74.219,0
1483986163.278,23.926,31.250,32.227,51.758,51.270,0
1483986163.282,34.668,35.156,37.109,59.570,42.969,3
1483986163.286,50.293,40.527,32.715,59.082,80.566,0
1483986163.290,48.828,36.133,30.762,49.805,116.211,0
1483986163.294,45.410,34.180,21.973,50.293,116.211,0
1483986163.298,40.527,35.156,11.719,46.875,125.000,0
1483986163.302,32.715,29.297,13.672,43.457,136.230,0
1483986163.306,33.203,36.133,15.137,57.129,148.926,0
1483986163.309,34.668,42.969,29.297,61.035,143.066,0
1483986163.313,32.227,44.434,28.320,57.617,161.133,0
1483986163.317,31.738,46.875,11.230,59.570,181.641,0
1483986163.321,33.203,48.828,16.113,50.293,139.648,0
1483986163.325,27.832,45.898,19.043,48.340,122.559,0
1483986163.329,29.297,41.016,6.836,60.059,133.301,0
1483986163.333,49.805,48.828,6.836,67.383,136.230,0
1483986163.337,56.641,57.129,22.949,74.219,129.395,0
1483986163.341,42.480,43.945,21.973,68.359,99.609,0
1483986163.345,33.203,29.785,9.277,55.176,89.355,0
1483986163.349,38.086,39.551,17.090,57.129,133.301,0
1483986163.352,41.992,47.852,32.715,60.547,116.699,0
1483986163.356,46.387,47.852,25.879,60.059,107.422,0
1483986163.360,42.969,43.945,3.906,57.129,146.973,0
1483986163.364,27.344,35.645,-11.719,44.434,128.418,0
1483986163.368,20.020,31.738,-5.859,40.039,107.422,0
1483986163.372,25.391,36.133,0.977,44.922,100.586,0
1483986163.376,42.480,44.434,5.859,49.805,122.070,0
1483986163.380,50.293,52.734,21.484,53.223,128.906,0
1483986163.384,41.016,53.223,26.367,43.945,95.215,0
1483986163.388,33.691,45.410,14.160,35.645,74.707,0
1483986163.392,35.156,42.969,-2.930,33.691,101.562,0
1483986163.395,31.250,46.875,4.883,33.691,128.906,0
1483986163.399,19.043,40.527,13.184,26.367,103.027,0
1483986163.403,22.949,35.156,8.789,30.273,66.895,0
1483986163.407,31.738,36.621,11.719,45.410,81.055,0
1483986163.411,29.785,36.133,17.578,41.504,116.211,0
1483986163.415,33.203,42.480,19.531,51.758,112.793,0
1483986163.419,39.062,41.016,15.625,55.176,112.793,0
1483986163.423,51.758,40.039,14.160,48.340,89.355,0
1483986163.427,51.758,42.480,7.812,55.664,74.219,0
1483986163.431,33.203,39.551,2.441,48.340,64.941,0
1483986163.434,35.645,39.062,20.508,46.875,68.359,0
1483986163.438,45.410,42.480,34.180,53.223,61.035,0
1483986163.442,48.828,47.363,26.367,54.199,46.387,0
1483986163.446,48.340,49.316,21.484,67.871,65.918,0
1483986163.450,55.664,47.852,15.625,70.312,109.375,0
1483986163.454,61.523,51.758,20.996,58.594,115.234,0
1483986163.458,52.734,49.316,19.043,52.734,83.496,0
1483986163.462,37.109,45.410,-11.230,44.434,94.238,0
1483986163.466,20.508,45.898,-6.348,44.434,93.262,0
1483986163.470,19.531,39.062,23.926,36.621,98.633,0
1483986163.474,20.996,40.039,25.391,30.273,103.516,0
1483986163.477,22.949,45.410,22.461,34.668,53.223,0
1483986163.481,20.996,37.109,13.672,29.297,50.293,0
1483986163.485,19.043,35.156,10.254,31.738,85.938,0
1483986163.489,31.250,47.852,25.879,37.598,88.379,0
1483986163.493,35.645,52.734,25.879,42.969,103.027,0
1483986163.497,26.855,46.875,15.625,45.898,73.242,0
1483986163.501,18.555,37.598,19.043,37.598,54.199,0
1483986163.505,13.184,28.809,18.066,27.832,64.941,0
1483986163.509,17.090,28.320,24.902,23.438,61.035,0
1483986163.513,22.949,35.156,36.621,33.203,64.453,0
1483986163.517,31.250,45.898,41.992,46.387,54.199,0
1483986163.520,32.715,46.875,23.438,46.387,17.090,0
1483986163.524,33.203,39.062,11.719,39.551,24.414,0
1483986163.528,34.668,41.504,35.156,49.805,58.594,0
1483986163.532,27.344,43.457,41.504,55.664,45.410,0
1483986163.536,24.414,34.180,38.086,46.875,62.500,0
1483986163.540,30.273,22.949,34.180,36.621,65.918,0
1483986163.544,39.062,23.926,17.090,39.062,39.062,0
1483986163.548,40.527,36.621,24.414,47.852,21.973,0
1483986163.552,34.668,36.133,42.480,45.898,30.273,0
1483986163.556,31.250,35.645,23.926,44.434,20.020,0
1483986163.559,33.203,40.527,29.297,52.246,5.859,0
1483986163.563,29.297,46.387,50.781,61.035,7.324,0
1483986163.567,32.715,47.363,50.293,55.176,13.672,0
1483986163.571,43.457,36.621,46.875,45.898,34.668,0
1483986163.575,38.086,26.367,41.016,36.133,43.457,0
1483986163.579,25.879,31.250,17.578,37.109,24.414,0
1483986163.583,27.832,41.016,13.184,41.504,10.254,0
1483986163.587,38.574,37.109,34.668,39.062,26.367,0
1483986163.591,41.504,34.180,41.504,39.551,50.781,0
1483986163.595,44.922,40.039,63.477,46.387,54.688,0
1483986163.599,38.574,39.551,66.406,39.062,35.645,0
1483986163.602,24.902,27.344,47.852,23.438,46.875,0
1483986163.606,24.414,22.949,50.293,30.273,46.387,0
1483986163.610,22.461,23.926,46.387,37.109,10.742,0
1483986163.614,22.461,28.809,12.695,40.527,17.578,0
1483986163.618,27.344,38.574,7.812,49.805,61.035,0
1483986163.622,26.855,37.598,40.527,41.992,61.035,0
1483986163.626,25.391,29.785,54.199,33.691,28.320,0
1483986163.630,27.832,30.762,63.477,35.156,40.527,0
1483986163.634,25.391,36.621,56.152,36.133,38.086,0
1483986163.638,18.066,29.785,35.156,28.809,26.855,0
1483986163.642,24.414,18.555,22.949,37.109,45.898,0
1483986163.645,27.832,23.438,16.113,50.293,35.156,0
1483986163.649,22.461,33.691,26.855,42.969,34.668,0
1483986163.653,27.832,38.086,37.598,41.016,25.879,0
1483986163.657,34.668,37.109,35.645,43.945,11.230,0
1483986163.661,42.480,35.156,32.227,41.016,39.551,0
1483986163.665,32.227,32.715,31.738,34.668,41.992,0
1483986163.669,26.367,34.180,45.410,40.527,33.691,0
1483986163.673,31.250,33.691,50.293,43.457,27.344,0
1483986163.677,28.809,32.227,33.203,47.852,32.715,0
1483986163.681,20.020,37.598,22.461,50.781,54.199,0
1483986163.684,10.254,36.133,23.438,37.109,23.926,0
1483986163.688,20.020,28.809,21.973,33.203,30.762,0
1483986163.692,30.273,28.809,24.902,36.621,58.594,0
1483986163.696,29.785,38.086,49.805,52.246,51.758,0
1483986163.700,18.555,37.109,41.016,58.594,29.297,0
1483986163.704,19.043,25.879,19.531,41.504,10.742,0
1483986163.708,26.367,21.973,35.645,43.945,44.922,0
1483986163.712,18.066,24.414,50.293,49.316,31.250,0
1483986163.716,14.160,25.879,62.012,51.270,16.602,0
1483986163.720,21.484,29.785,55.176,55.664,50.293,0
1483986163.724,31.250,33.691,48.828,61.523,51.270,0
1483986163.727,34.180,40.039,58.594,67.383,31.250,0
1483986163.731,23.438,38.574,54.688,66.895,26.367,0
1483986163.735,21.484,29.785,36.621,57.617,35.645,0
1483986163.739,32.227,27.832,23.438,47.852,45.898,0
1483986163.743,25.879,21.484,23.926,45.410,42.480,0
1483986163.747,25.879,24.414,44.922,51.270,22.949,0
1483986163.751,35.156,33.203,66.895,60.059,49.805,0
1483986163.755,39.062,33.691,65.430,57.617,62.012,0
1483986163.759,38.086,33.691,68.359,59.570,40.527,0
1483986163.763,24.414,20.996,67.871,65.918,14.648,0
1483986163.767,15.137,15.625,48.828,54.199,36.621,0
1483986163.770,13.184,23.926,35.156,42.969,55.176,0
1483986163.774,10.254,30.762,37.109,41.016,16.113,0
1483986163.778,-0.977,26.367,36.133,34.668,18.555,0
1483986163.782,-3.418,24.414,35.645,37.598,17.090,4
1483986163.786,0.000,22.949,46.387,35.156,-6.348,0
1483986163.790,0.977,15.137,54.199,33.691,25.391,0
1483986163.794,3.418,13.184,52.246,31.250,42.969,0
1483986163.798,-3.906,13.184,50.781,25.391,13.672,0
1483986163.802,-6.348,17.090,52.734,38.086,0.977,0
1483986163.806,-8.789,17.578,49.316,41.504,-5.859,0
1483986163.809,7.812,19.043,43.945,44.434,12.207,0
1483986163.813,16.113,19.043,33.203,41.504,25.391,0
1483986163.817,4.395,23.926,37.109,46.387,-2.930,0
1483986163.821,6.348,31.738,48.340,52.734,-14.648,0
1483986163.825,11.230,22.461,49.316,38.574,11.719,0
1483986163.829,-5.371,4.883,43.457,29.785,24.902,0
1483986163.833,-11.719,11.230,46.387,33.691,2.441,0
1483986163.837,12.695,32.715,68.359,53.711,-9.277,0
1483986163.841,28.809,33.691,68.848,61.523,-7.812,0
1483986163.845,26.367,27.832,52.734,51.270,-10.254,0
1483986163.849,17.578,31.738,42.480,47.363,-20.996,0
1483986163.852,14.160,31.250,37.109,41.992,-46.875,0
1483986163.856,21.484,26.855,41.992,36.133,-20.508,0
1483986163.860,8.789,23.926,48.340,29.785,9.766,0
1483986163.864,-14.648,20.508,39.551,16.602,-23.926,0
1483986163.868,-13.184,17.578,39.062,8.789,-54.199,0
1483986163.872,3.906,21.484,47.852,18.555,-17.090,0
1483986163.876,9.766,31.250,50.781,31.738,-5.859,0
1483986163.880,10.742,34.180,57.617,41.504,-4.395,0
1483986163.884,10.742,32.227,46.387,50.293,-15.625,0
1483986163.888,18.555,26.855,41.504,44.434,-22.461,0
1483986163.892,20.020,20.508,58.105,40.527,4.395,0
1483986163.895,4.883,21.484,60.059,45.898,-18.066,0
1483986163.899,-2.441,21.973,51.758,40.527,-2.441,0
1483986163.903,-4.883,17.578,44.434,27.344,4.883,0
1483986163.907,-1.953,21.484,57.617,34.668,-7.324,0
1483986163.911,4.883,28.809,70.801,52.734,-16.602,0
1483986163.915,8.789,32.227,55.664,43.457,-37.598,0
1483986163.919,13.672,35.645,45.898,45.898,0.488,0
1483986163.923,16.113,37.598,51.270,49.805,11.230,0
1483986163.927,14.160,32.227,54.199,38.086,-1.465,0
1483986163.931,-1.465,17.090,56.152,30.273,-6.348,0
1483986163.934,-8.301,14.648,56.152,38.086,-27.344,0
1483986163.938,2.930,23.438,61.523,47.852,-15.137,0
1483986163.942,4.883,26.855,64.941,37.109,-0.488,0
1483986163.946,8.301,27.832,66.406,38.086,0.977,0
1483986163.950,2.930,31.738,62.012,48.340,9.766,0
1483986163.954,-0.488,24.902,56.641,43.945,8.301,0
1483986163.958,3.906,20.508,46.875,47.363,-5.371,0
1483986163.962,7.812,23.926,41.016,50.781,37.109,0
1483986163.966,6.836,26.367,54.688,57.617,38.574,0
1483986163.970,2.930,28.320,58.594,57.129,10.254,0
1483986163.974,4.395,31.250,57.617,46.387,0.977,0
1483986163.977,12.695,36.133,49.316,59.082,27.344,0
1483986163.981,14.160,33.691,53.711,64.453,35.645,0
1483986163.985,9.277,27.832,63.477,54.199,-10.742,0
1483986163.989,25.391,33.203,61.035,51.270,7.812,0
1483986163.993,41.016,35.156,48.828,60.547,56.152,0
1483986163.997,32.227,34.180,37.109,66.895,50.293,0
1483986164.001,25.879,40.527,54.688,70.801,27.832,0
1483986164.005,32.715,44.922,61.523,72.266,18.066,0
1483986164.009,31.738,46.875,42.480,61.523,49.805,0
1483986164.013,21.973,43.945,42.480,53.711,62.500,0
1483986164.017,12.695,38.086,48.340,49.316,60.059,0
1483986164.020,11.230,40.039,42.480,44.922,68.848,0
1483986164.024,13.672,40.039,43.945,43.945,65.918,0
1483986164.028,5.859,39.062,35.645,45.410,62.012,0
1483986164.032,8.789,40.039,31.250,49.316,45.410,0
1483986164.036,23.926,37.598,41.992,50.781,63.477,0
1483986164.040,27.344,32.715,38.086,49.805,85.449,0
1483986164.044,22.949,38.574,47.363,52.246,95.215,0
1483986164.048,21.484,42.969,56.641,46.387,80.566,0
1483986164.052,32.715,46.875,47.363,47.852,102.051,0
1483986164.056,34.668,48.340,48.340,48.828,118.164,0
1483986164.059,27.344,42.969,46.875,43.945,107.910,0
1483986164.063,22.949,38.086,33.203,46.387,102.051,0
1483986164.067,21.973,36.133,24.902,46.387,94.727,0
1483986164.071,25.391,37.598,26.855,46.875,97.168,0
1483986164.075,32.715,40.527,33.203,56.152,91.309,0
1483986164.079,34.668,36.133,38.574,55.664,92.773,0
1483986164.083,28.809,30.273,45.898,44.434,109.863,0
1483986164.087,27.832,35.156,46.875,55.664,136.230,0
1483986164.091,44.434,38.086,39.062,75.195,155.762,0
1483986164.095,50.293,41.016,49.316,70.312,129.395,0
1483986164.099,35.156,39.551,46.875,54.199,117.676,0
1483986164.102,24.414,30.273,32.715,47.363,127.930,0
1483986164.106,25.391,35.645,21.484,55.664,110.840,0
1483986164.110,23.926,40.039,10.742,62.012,169.922,0
1483986164.114,10.742,33.203,26.367,57.129,208.984,0
1483986164.118,8.789,35.156,52.734,55.664,187.012,0
1483986164.122,24.414,31.250,47.363,47.852,208.008,0
1483986164.126,40.039,32.715,36.621,39.062,222.168,0
1483986164.130,33.203,39.551,48.828,47.363,228.516,0
1483986164.134,16.602,37.109,46.875,51.270,224.121,0
1483986164.138,17.090,35.645,40.039,41.504,234.375,0
1483986164.142,18.066,28.809,16.602,32.715,279.785,0
1483986164.145,18.066,29.297,11.230,45.410,296.875,0
1483986164.149,14.160,31.738,41.016,41.992,326.660,0
1483986164.153,17.090,33.691,39.062,41.992,333.984,0
1483986164.157,28.809,37.598,41.016,59.570,366.699,0
1483986164.161,26.855,28.809,41.992,49.805,418.457,0
1483986164.165,28.809,32.715,36.133,49.805,417.969,0
1483986164.169,43.945,42.969,45.898,60.059,418.457,0
1483986164.173,47.363,39.551,41.992,49.316,438.965,0
1483986164.177,34.180,33.691,38.574,47.363,425.781,0
1483986164.181,22.949,31.250,34.668,58.105,360.840,0
1483986164.184,19.043,29.785,28.809,53.223,354.980,0
1483986164.188,26.855,34.668,38.086,50.781,379.883,0
1483986164.192,34.668,37.109,52.734,56.641,349.609,0
1483986164.196,30.273,37.598,62.012,60.059,311.035,0
1483986164.200,22.949,35.156,32.715,57.129,272.949,0
1483986164.204,31.738,36.133,28.320,50.781,277.832,0
1483986164.208,32.227,37.598,35.645,42.480,255.371,0
1483986164.212,14.648,31.738,28.320,39.062,210.938,0
1483986164.216,17.578,31.738,34.668,42.480,221.680,0
1483986164.220,24.414,33.203,37.598,32.715,233.887,0
1483986164.224,24.414,39.062,46.875,38.574,205.566,0
1483986164.227,31.250,48.828,49.805,48.828,145.996,0
1483986164.231,34.180,47.363,42.480,46.387,118.164,0
1483986164.235,24.902,36.621,25.879,41.504,127.441,0
1483986164.239,23.438,36.621,27.344,42.480,71.289,0
1483986164.243,22.949,40.527,33.203,46.387,36.621,0
1483986164.247,19.531,41.016,34.180,52.734,69.824,0
1483986164.251,12.207,39.062,47.852,52.734,40.527,0
1483986164.255,16.602,41.016,48.340,48.828,-12.207,0
1483986164.259,23.926,46.875,40.527,44.922,-20.020,0
1483986164.263,24.414,45.410,41.992,44.922,4.395,0
1483986164.267,32.715,38.086,42.969,50.781,-20.508,0
1483986164.270,47.363,39.062,38.574,62.012,-48.340,0
1483986164.274,49.316,41.504,36.621,58.105,-39.551,0
1483986164.278,39.062,36.133,36.621,42.969,-42.969,0
1483986164.282,20.020,26.855,37.109,34.668,-65.918,5
1483986164.286,18.555,31.738,43.457,32.715,-75.684,0
1483986164.290,36.621,38.086,32.715,30.762,-42.969,0
1483986164.294,35.645,36.621,33.691,32.715,-37.598,0
1483986164.298,22.461,45.410,42.969,34.668,-49.805,0
1483986164.302,24.414,46.387,36.621,45.410,-38.574,0
1483986164.306,33.691,41.016,38.574,47.363,-8.789,0
1483986164.309,31.250,35.645,39.551,36.621,-19.043,0
1483986164.313,19.531,33.203,39.551,39.551,-43.457,0
1483986164.317,13.184,35.156,39.062,40.039,-62.012,0
1483986164.321,21.973,34.180,31.738,31.738,-44.434,0
1483986164.325,31.738,38.574,32.227,40.527,-30.273,0
1483986164.329,28.809,45.410,29.297,57.617,-51.758,0
1483986164.333,23.438,41.504,37.109,51.270,-59.570,0
1483986164.337,26.855,38.086,48.340,49.316,-54.199,0
1483986164.341,32.227,35.645,46.387,54.199,-51.758,0
1483986164.345,34.180,38.086,37.598,50.781,-28.809,0
1483986164.349,27.344,40.039,26.367,47.363,-52.246,0
1483986164.352,21.973,34.180,30.762,40.527,-82.520,0
1483986164.356,27.832,30.762,30.273,37.109,-75.195,0
1483986164.360,28.320,34.180,35.156,39.062,-60.059,0
1483986164.364,28.809,40.039,24.902,45.410,-68.848,0
1483986164.368,37.598,39.062,28.809,57.617,-73.730,0
1483986164.372,34.668,33.691,43.945,50.781,-109.375,0
1483986164.376,29.785,38.574,40.039,49.316,-155.273,0
1483986164.380,36.133,39.551,36.133,51.270,-96.680,0
1483986164.384,26.367,29.297,23.438,36.621,-77.637,0
1483986164.388,18.066,25.879,22.949,32.227,-107.422,0
1483986164.392,20.508,27.344,45.898,36.621,-95.703,0
1483986164.395,21.973,31.250,41.504,43.945,-102.051,0
1483986164.399,19.043,35.156,34.668,47.852,-111.328,0
1483986164.403,13.184,29.297,41.016,46.875,-103.027,0
1483986164.407,19.043,24.902,36.621,41.016,-126.465,0
1483986164.411,32.227,29.297,39.551,43.457,-125.488,0
1483986164.415,26.855,29.785,32.715,51.758,-96.191,0
1483986164.419,19.531,23.926,22.949,44.922,-109.863,0
1483986164.423,26.855,27.344,36.133,42.480,-153.320,0
1483986164.427,33.203,37.598,47.852,47.363,-156.250,0
1483986164.431,34.668,41.992,44.434,51.270,-114.258,0
1483986164.434,32.715,37.109,41.016,49.316,-110.840,0
1483986164.438,32.227,29.785,38.574,49.805,-104.492,0
1483986164.442,39.062,30.762,42.969,44.434,-112.305,0
1483986164.446,32.227,33.203,42.969,37.598,-148.926,0
1483986164.450,14.648,38.086,31.738,37.598,-129.883,0
1483986164.454,26.367,40.527,15.625,28.320,-123.535,0
1483986164.458,38.086,42.480,17.090,23.438,-110.840,0
1483986164.462,22.949,44.922,22.949,26.855,-91.309,0
1483986164.466,15.137,43.945,13.672,35.645,-105.957,0
1483986164.470,24.414,44.922,36.621,41.016,-109.863,0
1483986164.474,35.156,43.945,56.152,36.621,-105.957,0
1483986164.477,25.391,29.785,37.109,21.484,-101.562,0
1483986164.481,18.066,21.484,29.297,21.484,-93.750,0
1483986164.485,21.973,24.902,26.367,30.762,-70.312,0
1483986164.489,19.531,23.438,21.973,31.738,-80.078,0
1483986164.493,17.578,29.297,24.902,47.852,-83.984,0
1483986164.497,17.090,38.086,35.156,59.082,-76.172,0
1483986164.501,13.184,33.203,42.969,53.223,-107.910,0
1483986164.505,17.090,27.832,48.340,41.992,-98.145,0
1483986164.509,21.973,27.832,57.129,42.969,-80.566,0
1483986164.513,12.695,23.438,42.969,43.457,-117.676,0
1483986164.517,19.043,26.367,29.297,40.527,-111.816,0
1483986164.520,34.668,33.203,39.062,48.828,-59.082,0
1483986164.524,39.551,35.156,32.715,49.805,-42.480,0
1483986164.528,41.016,36.133,15.625,44.922,-56.641,0
1483986164.532,34.180,26.855,19.531,46.387,-60.547,0
1483986164.536,24.902,23.926,35.156,40.039,-51.758,0
1483986164.540,26.367,37.109,42.969,34.668,-78.613,0
1483986164.544,30.762,37.598,40.039,30.762,-79.590,0
1483986164.548,25.879,30.273,28.809,20.508,-34.668,0
1483986164.552,24.902,35.645,17.090,21.484,-51.270,0
1483986164.556,25.879,39.062,20.020,20.996,-58.105,0
1483986164.559,27.832,36.133,24.902,26.367,-40.527,0
1483986164.563,22.461,38.086,32.715,23.926,-42.969,0
1483986164.567,1.953,34.668,44.434,13.184,-57.617,0
1483986164.571,-1.953,26.855,43.945,3.418,-34.180,0
1483986164.575,8.789,23.926,41.504,0.000,-25.391,0
1483986164.579,4.395,23.438,31.738,2.441,-58.594,0
1483986164.583,-0.977,30.273,28.320,11.230,-84.473,0
1483986164.587,4.395,35.156,30.273,22.461,-101.562,0
1483986164.591,24.902,39.062,40.039,27.344,-80.078,0
1483986164.595,26.855,37.109,43.457,28.809,-90.820,0
1483986164.599,4.395,27.344,45.410,28.320,-101.074,0
1483986164.602,4.395,22.949,60.059,36.621,-97.168,0
1483986164.606,20.508,20.508,55.664,37.598,-104.004,0
1483986164.610,17.578,22.949,39.551,33.203,-54.688,0
1483986164.614,14.160,30.273,28.809,39.062,-72.266,0
1483986164.618,19.043,30.762,32.715,39.062,-84.473,0
1483986164.622,29.785,30.762,56.152,41.992,-76.660,0
1483986164.626,37.598,38.574,75.684,41.992,-81.543,0
1483986164.630,23.438,37.109,56.641,36.621,-84.961,0
1483986164.634,6.348,27.344,45.898,30.762,-77.637,0
1483986164.638,10.254,28.809,53.711,28.320,-27.832,0
1483986164.642,26.367,34.180,44.434,31.250,-34.180,0
1483986164.645,13.184,29.297,24.902,32.227,-95.703,0
1483986164.649,14.648,31.250,25.391,39.062,-97.656,0
1483986164.653,30.762,35.156,53.711,32.715,-49.316,0
1483986164.657,23.926,30.273,62.500,21.973,-45.898,0
1483986164.661,21.973,29.297,57.617,24.414,-79.102,0
1483986164.665,26.855,35.156,54.688,33.691,-104.980,0
1483986164.669,30.273,36.133,54.688,42.480,-78.125,0
1483986164.673,26.367,32.227,38.086,37.598,-74.707,0
1483986164.677,25.879,33.203,27.832,30.273,-61.035,0
1483986164.681,25.879,34.668,22.461,26.855,-48.340,0
1483986164.684,28.320,39.062,25.879,26.855,-62.500,0
1483986164.688,25.879,43.945,41.016,31.250,-66.406,0
1483986164.692,21.973,44.922,41.016,33.691,-78.125,0
1483986164.696,31.250,41.504,43.457,24.902,-48.340,0
1483986164.700,26.367,33.203,53.711,25.391,-27.344,0
1483986164.704,21.973,30.273,41.016,22.461,-39.551,0
1483986164.708,23.438,32.715,31.250,13.672,-62.500,0
1483986164.712,14.648,29.297,36.133,13.184,-34.180,0
1483986164.716,8.301,31.738,27.344,19.043,-30.273,0
1483986164.720,18.555,41.992,25.391,32.715,-30.762,0
1483986164.724,22.949,38.574,24.902,31.738,-40.039,0
1483986164.727,17.090,36.133,23.926,29.297,-30.762,0
1483986164.731,16.113,43.457,48.340,37.109,-23.926,0
1483986164.735,12.207,45.410,50.781,41.016,-49.805,0
1483986164.739,20.508,41.016,32.227,45.898,-55.176,0
1483986164.743,28.320,30.762,41.992,41.992,-39.062,0
1483986164.747,11.719,20.508,44.434,35.645,-33.203,0
1483986164.751,1.465,16.602,26.855,31.738,-41.504,0
1483986164.755,11.719,15.137,11.719,29.785,-21.973,0
1483986164.759,24.902,19.043,24.414,45.410,-40.527,0
1483986164.763,18.066,21.484,41.992,51.270,-71.289,0
1483986164.767,25.391,30.273,42.480,57.129,-75.684,0
1483986164.770,47.363,37.598,37.598,68.359,-46.875,0
1483986164.774,46.875,39.551,35.156,68.848,-32.715,0
1483986164.778,33.203,34.180,37.598,55.664,-63.477,0
1483986164.782,31.738,28.809,40.039,43.457,-63.965,0
1483986164.786,41.016,29.297,22.461,41.504,-65.430,0
1483986164.790,49.805,32.715,-2.441,40.039,-50.293,0
1483986164.794,49.805,41.504,4.883,44.434,-30.762,0
1483986164.798,44.434,43.945,10.254,38.086,-64.453,0
1483986164.802,53.711,39.551,9.277,39.551,-44.434,0
1483986164.806,62.012,40.039,20.508,49.316,-14.648,0
1483986164.809,56.641,45.410,-3.418,39.062,-18.555,0
1483986164.813,52.246,47.852,-10.742,33.203,-1.465,0
1483986164.817,46.387,44.922,8.301,36.133,-8.789,0
1483986164.821,44.922,47.852,9.277,46.387,-21.973,0
1483986164.825,46.875,50.293,-2.930,43.945,-31.738,0
1483986164.829,45.898,50.781,1.465,41.016,-20.020,0
1483986164.833,40.527,43.457,3.418,39.062,-18.066,0
1483986164.837,37.109,40.527,-10.254,41.504,-26.855,0
1483986164.841,44.434,44.434,-15.625,48.340,2.441,0
1483986164.845,47.363,41.992,-0.488,41.992,23.926,0
1483986164.849,44.922,41.016,0.977,44.922,27.832,0
1483986164.852,44.922,42.969,-20.996,49.316,52.734,0
1483986164.856,36.621,36.133,-5.859,39.551,37.109,0
1483986164.860,24.902,26.367,11.719,37.109,10.742,0
1483986164.864,15.137,29.297,-2.441,45.898,41.992,0
1483986164.868,13.672,36.621,-5.371,55.664,50.781,0
1483986164.872,25.391,39.062,5.371,57.129,33.203,0
1483986164.876,42.480,41.992,9.277,65.430,40.527,0
1483986164.880,40.527,46.875,17.578,72.754,70.801,0
1483986164.884,17.090,43.457,19.531,56.641,57.129,0
1483986164.888,21.973,32.227,-3.906,41.992,49.316,0
1483986164.892,42.969,33.691,-14.160,41.504,97.656,0
1483986164.895,43.945,39.551,-4.395,46.875,102.539,0
1483986164.899,38.574,38.086,3.418,55.176,83.008,0
1483986164.903,38.574,36.133,17.090,55.664,71.289,0
1483986164.907,44.922,31.738,16.113,42.969,88.379,0
1483986164.911,42.480,33.203,9.766,40.527,119.141,0
1483986164.915,37.598,36.621,24.414,44.922,123.047,0
1483986164.919,36.133,34.180,25.391,41.016,93.262,0
1483986164.923,46.387,30.273,13.672,44.434,82.031,0
1483986164.927,49.316,26.855,12.695,47.852,93.262,0
1483986164.931,38.086,27.832,27.344,47.852,74.219,0
1483986164.934,38.086,29.785,30.762,47.363,82.031,0
1483986164.938,35.645,28.320,25.879,34.180,120.605,0
1483986164.942,23.926,27.832,26.855,20.996,126.953,0
1483986164.946,20.020,34.180,32.227,24.414,88.867,0
1483986164.950,21.484,38.086,38.086,24.414,93.750,0
1483986164.954,21.973,34.668,39.062,18.066,129.883,0
1483986164.958,18.066,35.645,37.598,18.066,118.652,0
1483986164.962,9.277,35.645,30.273,19.043,96.191,0
1483986164.966,12.207,33.691,6.348,14.160,92.285,0
1483986164.970,15.137,35.156,6.348,8.789,96.191,0
1483986164.974,3.418,30.762,19.531,11.230,93.262,0
1483986164.977,0.488,26.855,26.367,7.812,91.797,0
1483986164.981,19.043,32.715,42.480,10.254,117.676,0
1483986164.985,20.996,34.180,50.293,20.996,120.605,0
1483986164.989,18.066,34.180,41.016,19.043,124.023,0
1483986164.993,25.391,35.156,24.902,23.926,149.414,0
1483986164.997,24.414,28.320,17.578,25.879,153.809,0
1483986165.001,23.926,23.438,21.973,19.531,143.555,0
1483986165.005,29.297,26.367,26.367,34.180,141.113,0
1483986165.009,35.156,25.879,24.414,41.992,142.578,0
1483986165.013,36.133,28.320,31.738,36.621,146.973,0
1483986165.017,38.086,36.621,42.969,41.016,156.250,0
1483986165.020,32.227,36.621,51.270,35.156,137.207,0
1483986165.024,32.227,32.715,44.922,23.438,120.605,0
1483986165.028,33.691,33.203,24.414,24.414,152.832,0
1483986165.032,19.531,33.203,21.973,31.738,136.719,0
1483986165.036,12.695,28.809,40.527,25.391,115.234,0
1483986165.040,18.555,27.344,39.551,23.926,123.535,0
1483986165.044,12.207,27.832,37.598,29.297,134.277,0
1483986165.048,-1.953,30.762,24.414,30.273,115.234,0
1483986165.052,0.488,35.645,26.367,31.250,106.934,0
1483986165.056,13.672,37.598,53.223,29.785,118.652,0
1483986165.059,17.090,35.645,61.035,29.785,89.844,0
1483986165.063,3.906,31.738,51.758,27.832,91.797,0
1483986165.067,-2.441,30.762,44.922,30.762,93.750,0
1483986165.071,3.906,27.832,41.016,24.902,103.516,0
1483986165.075,9.277,29.785,43.945,24.902,119.141,0
1483986165.079,3.906,31.738,43.945,35.645,82.031,0
1483986165.083,9.766,33.203,19.043,40.527,57.617,0
1483986165.087,34.180,41.504,10.254,44.434,72.754,0
1483986165.091,30.762,38.574,32.227,34.180,89.844,0
1483986165.095,13.672,33.203,47.852,36.133,100.098,0
1483986165.099,13.672,34.180,46.875,48.828,81.055,0
1483986165.102,10.742,30.273,36.621,43.457,33.691,0
1483986165.106,15.137,28.809,47.852,47.363,44.434,0
1483986165.110,12.207,28.320,51.758,49.316,43.945,0
1483986165.114,11.719,24.414,33.203,45.898,25.391,0
1483986165.118,21.973,31.738,22.461,50.293,30.762,0
1483986165.122,22.461,36.621,26.855,50.781,18.066,0
1483986165.126,20.996,32.227,24.902,45.898,12.695,0
1483986165.130,26.367,40.039,28.809,52.246,54.688,0
1483986165.134,23.438,36.133,36.621,57.129,49.805,0
1483986165.138,14.648,27.832,38.574,49.805,1.465,0
1483986165.142,27.832,27.344,40.527,55.176,3.906,0
1483986165.145,29.785,26.855,49.316,60.059,28.320,0
1483986165.149,18.555,26.855,41.016,62.988,25.391,0
1483986165.153,20.508,31.738,25.391,68.848,11.230,0
1483986165.157,26.855,36.621,27.832,62.500,-15.625,0
1483986165.161,34.668,34.180,28.809,54.688,3.418,0
1483986165.165,32.715,38.086,33.691,57.617,37.109,0
1483986165.169,21.973,41.016,37.109,53.223,12.695,0
1483986165.173,19.043,32.227,23.926,41.992,-23.438,0
1483986165.177,25.879,28.809,33.203,51.758,1.953,0
1483986165.181,21.484,32.715,50.293,51.270,34.180,0
1483986165.184,26.367,41.016,35.156,45.410,46.387,0
1483986165.188,34.180,43.457,28.320,48.340,57.617,0
1483986165.192,33.203,37.598,37.109,52.734,42.969,0
1483986165.196,23.926,36.621,45.410,53.711,34.180,0
1483986165.200,14.160,38.086,44.922,42.480,0.000,0
1483986165.204,29.297,41.992,41.992,46.387,-21.484,0
1483986165.208,45.898,44.922,37.109,51.270,30.273,0
1483986165.212,34.180,40.039,26.367,44.434,30.273,0
1483986165.216,24.414,33.691,38.086,45.898,12.695,0
1483986165.220,36.621,37.109,38.086,48.340,24.414,0
1483986165.224,41.016,37.109,20.020,40.527,38.574,0
1483986165.227,28.809,34.180,41.992,39.551,49.805,0
1483986165.231,24.902,36.621,56.152,40.527,32.715,0
1483986165.235,28.320,33.691,48.340,39.551,41.992,0
1483986165.239,26.367,38.086,51.758,45.410,28.809,0
1483986165.243,25.391,45.898,44.922,51.270,7.324,0
1483986165.247,22.461,43.457,39.062,46.387,24.414,0
1483986165.251,20.996,37.109,37.598,37.598,39.062,0
1483986165.255,20.508,35.156,34.180,33.691,40.039,0
1483986165.259,25.879,36.621,31.250,42.969,57.617,0
1483986165.263,25.391,32.715,31.738,38.574,42.480,0
1483986165.267,28.320,33.691,54.688,37.598,36.133,0
1483986165.270,38.086,47.363,76.660,51.758,55.664,0
1483986165.274,47.852,53.711,66.895,56.641,21.484,0
1483986165.278,58.105,57.129,59.082,59.082,39.551,0
1483986165.282,51.270,57.617,58.594,58.105,79.590,0
1483986165.286,32.715,47.363,45.898,50.293,60.059,0
1483986165.290,29.297,41.992,35.156,53.711,60.059,0
1483986165.294,40.527,47.363,35.645,60.059,59.570,0
1483986165.298,41.016,52.246,40.527,62.500,59.082,0
1483986165.302,36.133,56.641,56.641,65.918,58.105,0
1483986165.306,38.574,53.223,63.477,65.918,62.012,0
1483986165.309,32.227,41.992,51.758,55.664,79.102,0
1483986165.313,21.484,38.574,41.992,52.246,89.355,0
1483986165.317,23.438,47.852,35.645,58.105,67.871,0
1483986165.321,25.391,44.434,37.598,58.105,13.184,0
1483986165.325,35.645,35.156,59.082,50.781,60.059,0
1483986165.329,31.738,41.016,63.965,41.992,103.516,0
1483986165.333,33.203,45.898,43.457,50.293,63.965,0
1483986165.337,44.434,49.316,41.992,56.641,35.156,0
1483986165.341,43.945,50.293,50.781,52.246,43.945,0
1483986165.345,43.945,47.852,46.875,55.176,80.078,0
1483986165.349,30.273,46.387,50.781,52.734,55.176,0
1483986165.352,27.344,44.434,49.316,51.270,13.672,0
1483986165.356,50.293,43.457,53.223,56.152,54.688,0
1483986165.360,45.898,39.062,56.152,42.969,62.988,0
1483986165.364,33.691,43.945,50.293,32.715,20.996,0
1483986165.368,31.738,48.340,39.062,30.762,31.738,0
1483986165.372,27.832,41.016,38.574,24.414,54.688,0
1483986165.376,25.391,37.598,56.152,24.902,41.504,0
1483986165.380,18.555,37.109,50.293,25.391,51.270,0
1483986165.384,12.695,37.598,46.387,26.855,59.082,0
1483986165.388,15.625,41.016,55.176,39.062,47.852,0
1483986165.392,17.578,42.969,55.176,36.133,26.367,0
1483986165.395,17.090,47.852,64.453,34.180,40.527,0
1483986165.399,16.113,46.875,62.012,38.086,81.055,0
1483986165.403,17.578,36.133,47.852,30.762,77.637,0
1483986165.407,20.508,32.227,44.434,32.227,46.875,0
1483986165.411,18.066,39.062,48.340,47.852,33.203,0
1483986165.415,25.391,41.504,42.480,47.363,53.223,0
1483986165.419,30.273,39.551,40.527,32.715,47.363,0
1483986165.423,23.926,37.109,45.410,34.180,35.156,0
1483986165.427,27.832,39.062,41.504,39.551,29.297,0
1483986165.431,29.297,40.039,37.598,32.715,48.828,0
1483986165.434,34.180,41.016,48.828,35.156,46.387,0
1483986165.438,41.504,42.969,56.152,45.898,38.086,0
1483986165.442,35.156,29.785,50.781,46.875,39.062,0
1483986165.446,32.227,25.391,39.551,41.016,48.828,0
1483986165.450,30.762,35.156,32.715,28.809,48.340,0
1483986165.454,37.109,42.969,29.785,33.203,13.672,0
1483986165.458,55.176,49.805,36.621,43.457,8.789,0
1483986165.462,60.059,45.410,39.551,41.504,32.227,0
1483986165.466,40.527,38.086,34.180,35.156,41.016,0
1483986165.470,38.574,44.922,44.922,31.738,13.672,0
1483986165.474,44.434,46.875,50.293,40.039,6.348,0
1483986165.477,41.016,40.527,35.645,43.457,26.367,0
1483986165.481,37.598,42.480,33.203,39.551,29.785,0
1483986165.485,38.086,46.387,41.504,34.668,55.664,0
1483986165.489,41.504,42.969,41.992,25.879,32.715,0
1483986165.493,40.527,39.062,32.227,21.484,30.273,0
1483986165.497,32.227,40.527,27.832,22.949,53.223,0
1483986165.501,24.902,44.434,49.805,30.762,-21.973,0
1483986165.505,39.551,47.852,62.012,36.621,-6.836,0
1483986165.509,53.711,48.828,44.922,42.969,55.664,0
1483986165.513,49.805,49.805,36.621,45.410,38.574,0
1483986165.517,39.551,49.805,45.410,47.852,18.555,0
1483986165.520,33.203,43.457,38.086,45.410,14.648,0
1483986165.524,31.250,37.598,39.062,40.527,57.617,0
1483986165.528,29.785,39.062,43.457,50.293,53.223,0
1483986165.532,30.273,38.086,48.340,59.570,-11.230,0
1483986165.536,38.086,30.762,52.734,54.688,-10.254,0
1483986165.540,45.410,34.180,44.922,52.246,30.273,0
1483986165.544,42.969,39.062,41.504,54.199,54.199,0
1483986165.548,33.691,35.645,46.875,47.363,29.785,0
1483986165.552,41.992,44.434,60.547,50.293,20.996,0
1483986165.556,54.199,49.805,61.523,54.199,18.066,0
1483986165.559,50.293,44.434,35.156,45.898,36.621,0
1483986165.563,40.527,39.551,13.184,39.062,49.316,0
1483986165.567,39.062,38.574,29.297,37.598,37.598,0
1483986165.571,36.133,40.527,57.129,35.156,31.250,0
1483986165.575,30.273,43.945,65.430,29.297,19.531,0
1483986165.579,32.715,45.898,49.316,28.320,37.109,0
1483986165.583,31.738,46.387,37.598,25.879,67.871,0
1483986165.587,31.250,45.898,37.598,25.391,70.312,0
1483986165.591,22.949,41.992,35.645,24.414,12.207,0
1483986165.595,25.879,40.039,22.949,25.879,23.438,0
1483986165.599,20.020,31.250,10.742,22.461,61.523,0
1483986165.602,8.789,31.250,28.320,18.066,13.672,0
1483986165.606,22.461,39.551,46.875,30.762,5.371,0
1483986165.610,39.062,46.387,53.711,43.457,67.383,0
1483986165.614,36.133,50.293,50.293,37.598,70.312,0
1483986165.618,22.461,48.828,53.711,29.785,24.902,0
1483986165.622,23.438,43.457,52.246,18.555,21.973,0
1483986165.626,37.109,40.039,41.504,15.137,57.129,0
1483986165.630,39.062,46.387,29.785,28.320,68.359,0
1483986165.634,19.043,48.828,23.926,32.227,28.809,0
1483986165.638,7.324,41.992,32.227,26.855,16.602,0
1483986165.642,18.555,40.527,41.016,22.949,49.805,0
1483986165.645,19.531,36.621,36.621,14.648,48.340,0
1483986165.649,19.043,39.551,38.086,18.555,20.508,0
1483986165.653,28.320,48.828,45.898,26.855,22.949,0
1483986165.657,33.203,43.457,36.621,23.438,36.133,0
1483986165.661,30.273,41.504,28.809,18.066,40.039,0
1483986165.665,20.508,42.969,39.062,19.043,35.156,0
1483986165.669,20.996,45.410,35.156,16.602,28.320,0
1483986165.673,32.715,47.852,35.645,12.695,62.988,0
1483986165.677,31.250,46.387,41.504,15.137,56.152,0
1483986165.681,14.648,42.969,37.598,15.625,19.043,0
1483986165.684,9.277,39.062,39.551,16.602,20.508,0
1483986165.688,10.254,35.645,41.016,16.602,50.781,0
1483986165.692,0.488,33.691,38.086,14.160,45.410,0
1483986165.696,-0.977,40.039,47.852,27.344,5.371,0
1483986165.700,7.324,44.922,51.270,26.855,46.387,0
1483986165.704,7.324,34.668,35.156,22.461,82.520,0
1483986165.708,12.695,33.691,31.738,31.738,46.387,0
1483986165.712,13.184,38.086,42.969,36.621,41.504,0
1483986165.716,8.301,37.598,36.621,31.738,40.527,0
1483986165.720,20.020,38.086,27.832,35.645,42.969,0
1483986165.724,29.785,40.527,47.363,47.363,60.059,0
1483986165.727,30.762,44.434,52.246,56.152,40.527,0
1483986165.731,38.574,46.875,44.434,55.176,60.059,0
1483986165.735,41.016,39.551,43.457,49.316,77.148,0
1483986165.739,38.574,31.250,26.855,49.805,79.102,0
1483986165.743,34.180,36.133,20.020,52.246,67.871,0
1483986165.747,35.156,44.434,24.414,47.852,54.688,0
1483986165.751,28.809,41.504,9.277,43.457,59.570,0
1483986165.755,28.809,38.574,11.719,38.086,83.984,0
1483986165.759,38.086,46.875,36.621,43.457,85.449,0
1483986165.763,37.109,51.758,34.180,48.340,59.082,0
1483986165.767,29.785,48.340,22.949,39.551,59.570,0
1483986165.770,27.832,45.410,30.273,35.156,64.453,0
1483986165.774,36.621,44.434,20.508,30.762,81.543,0
1483986165.778,35.645,47.363,23.438,24.414,86.426,0
1483986165.782,18.555,46.387,26.855,24.902,64.453,0
1483986165.786,10.742,42.480,6.348,21.484,22.461,0
1483986165.790,24.414,42.480,8.301,21.973,41.992,0
1483986165.794,29.297,44.922,23.926,33.203,72.754,0
1483986165.798,23.926,47.852,25.391,38.086,42.969,0
1483986165.802,20.508,46.387,24.902,29.785,33.691,0
1483986165.806,23.438,44.434,23.926,24.414,52.246,0
1483986165.809,22.949,43.945,28.320,25.879,96.191,0
1483986165.813,13.184,45.410,39.551,21.484,82.520,0
1483986165.817,18.555,43.945,33.691,22.949,21.973,0
1483986165.821,39.062,40.039,21.484,25.391,41.016,0
1483986165.825,48.340,34.180,25.879,25.391,62.500,0
1483986165.829,42.480,36.621,26.855,32.227,57.129,0
1483986165.833,40.039,40.527,28.320,43.945,47.852,0
1483986165.837,49.316,37.109,20.020,52.734,84.473,0
1483986165.841,48.340,40.527,14.160,54.688,60.547,0
1483986165.845,39.062,41.016,22.949,44.922,34.180,0
1483986165.849,29.297,35.156,32.227,32.715,81.543,0
1483986165.852,29.785,32.715,38.086,38.574,60.059,0
1483986165.856,42.480,35.156,48.340,51.758,31.250,0
1483986165.860,41.016,38.574,52.734,58.105,33.691,0
1483986165.864,34.180,37.598,41.016,52.246,33.203,0
1483986165.868,43.457,34.180,33.203,46.875,48.828,0
1483986165.872,48.828,35.645,35.645,51.270,8.301,0
1483986165.876,45.410,34.668,30.273,51.270,-14.160,0
1483986165.880,41.992,33.691,20.996,55.176,10.254,0
1483986165.884,27.344,28.320,41.504,51.270,6.348,0
1483986165.888,27.832,28.809,53.711,48.340,-16.602,0
1483986165.892,33.691,33.203,48.340,56.152,-17.578,0
1483986165.895,22.949,29.785,48.340,50.293,-2.441,0
1483986165.899,20.508,33.203,53.711,52.734,26.855,0
1483986165.903,23.926,34.180,44.434,53.711,0.977,0
1483986165.907,31.250,33.691,17.578,51.270,-26.855,0
1483986165.911,43.945,35.156,15.137,59.570,3.906,0
1483986165.915,33.203,28.320,19.531,56.641,-12.695,0
1483986165.919,26.367,24.902,23.438,42.480,-36.133,0
1483986165.923,36.621,31.250,45.898,47.363,-8.789,0
1483986165.927,43.945,35.645,57.129,60.059,15.137,0
1483986165.931,44.922,39.551,53.711,64.453,-10.742,0
1483986165.934,45.898,36.133,48.340,61.523,-30.762,0
1483986165.938,60.059,36.621,37.598,57.129,-7.324,0
1483986165.942,50.781,37.109,13.672,52.246,-7.812,0
1483986165.946,33.691,34.180,14.648,61.523,-21.484,0
1483986165.950,31.250,35.645,44.434,62.988,-30.273,0
1483986165.954,35.156,27.832,54.688,54.199,-42.969,0
1483986165.958,44.434,24.414,42.480,61.035,-3.418,0
1483986165.962,40.039,28.320,47.363,62.988,19.043,0
1483986165.966,38.574,33.203,53.223,62.988,11.719,0
1483986165.970,44.922,36.621,39.062,60.547,-12.695,0
1483986165.974,36.621,34.668,22.461,47.852,-17.090,0
1483986165.977,23.438,30.762,22.949,42.969,2.930,0
1483986165.981,18.066,30.273,52.246,50.781,-3.418,0
1483986165.985,19.043,26.855,58.105,53.223,2.441,0
1483986165.989,20.996,25.879,37.109,40.039,2.441,0
1483986165.993,22.461,38.574,26.367,46.387,-5.371,0
1483986165.997,21.484,43.945,43.457,56.152,-25.391,0
1483986166.001,18.555,33.691,54.199,52.734,-28.320,0
1483986166.005,23.438,26.855,45.898,49.805,3.418,0
1483986166.009,23.926,29.297,41.504,48.828,10.254,0
1483986166.013,17.090,29.297,21.973,54.688,-14.648,0
1483986166.017,14.160,23.926,38.086,47.363,3.906,0
1483986166.020,17.090,27.344,61.523,36.621,26.855,0
1483986166.024,25.391,30.273,43.945,33.691,-9.766,0
1483986166.028,25.391,30.273,42.969,36.133,1.465,0
1483986166.032,29.785,38.574,53.711,49.805,20.508,0
1483986166.036,38.574,46.875,47.852,57.617,22.949,0
1483986166.040,42.969,45.410,45.410,60.059,-6.348,0
1483986166.044,32.715,34.180,49.316,61.523,-22.949,0
1483986166.048,17.090,21.973,41.016,61.523,17.578,0
1483986166.052,16.602,24.414,50.293,57.617,35.156,0
1483986166.056,14.160,29.785,60.059,50.293,-26.855,0
1483986166.059,20.508,31.250,46.387,48.828,-27.832,0
1483986166.063,27.344,33.203,32.227,48.340,37.598,0
1483986166.067,34.180,39.062,37.109,58.594,-0.488,0
1483986166.071,49.805,46.875,35.645,62.012,-22.949,0
1483986166.075,45.410,38.086,24.414,50.781,5.859,0
1483986166.079,35.645,33.203,31.250,59.570,23.926,0
1483986166.083,29.297,41.016,53.223,66.895,15.137,0
1483986166.087,20.996,33.691,62.500,54.199,1.465,0
1483986166.091,40.039,32.715,52.246,55.176,17.090,0
1483986166.095,48.828,37.598,40.527,63.965,21.973,0
1483986166.099,35.156,41.016,25.879,63.477,-11.719,0
1483986166.102,37.598,38.574,21.973,67.383,-6.836,0
1483986166.106,48.340,39.551,23.926,70.312,14.648,0
1483986166.110,41.016,44.434,30.273,64.941,9.277,0
1483986166.114,29.785,39.551,44.922,64.453,15.137,0
1483986166.118,35.156,36.133,63.965,68.359,-2.441,0
1483986166.122,41.016,31.250,65.430,62.500,14.648,0
1483986166.126,32.227,30.762,54.199,57.617,30.762,0
1483986166.130,29.785,38.574,45.410,76.660,7.324,0
1483986166.134,27.832,40.527,23.438,77.637,16.113,0
1483986166.138,22.461,37.598,21.484,50.293,23.438,0
1483986166.142,28.320,40.527,34.668,48.340,26.367,0
1483986166.145,19.043,41.504,46.387,56.641,-2.441,0
1483986166.149,12.695,33.691,52.246,45.410,-19.531,0
1483986166.153,24.902,35.156,57.617,46.387,22.949,0
1483986166.157,21.484,37.598,50.293,47.852,30.273,0
1483986166.161,17.578,32.227,39.062,44.922,24.414,0
1483986166.165,16.113,32.227,23.926,52.246,10.742,0
1483986166.169,13.672,34.180,16.113,51.270,13.672,0
1483986166.173,13.672,39.062,36.621,54.688,7.324,0
1483986166.177,16.113,42.969,61.035,55.664,-18.555,0
1483986166.181,13.184,33.203,56.152,48.828,15.625,0
1483986166.184,16.602,31.250,36.133,52.734,29.297,0
1483986166.188,25.879,37.109,35.156,59.570,-2.441,0
1483986166.192,29.297,40.527,43.457,56.641,-13.672,0
1483986166.196,26.367,36.621,39.551,51.758,8.789,0
1483986166.200,18.555,40.039,39.062,54.688,25.391,0
1483986166.204,29.785,57.617,48.828,67.871,10.742,0
1483986166.208,42.480,59.082,51.270,68.359,3.906,0
1483986166.212,28.320,45.410,56.152,43.945,0.977,0
1483986166.216,8.301,39.551,52.246,41.504,-9.277,0
1483986166.220,14.160,42.480,37.109,48.828,-1.465,0
1483986166.224,23.926,41.016,37.109,45.410,22.949,0
1483986166.227,18.555,37.598,40.527,46.387,57.617,0
1483986166.231,23.926,41.016,28.809,48.340,50.293,0
1483986166.235,29.297,44.922,31.738,51.758,15.625,0
1483986166.239,35.645,43.457,46.875,49.316,1.465,0
1483986166.243,32.715,42.480,56.152,40.527,21.484,0
1483986166.247,23.926,45.898,50.293,42.480,13.672,0
1483986166.251,23.926,44.922,35.645,47.363,26.367,0
1483986166.255,29.785,37.598,31.250,42.969,35.156,0
1483986166.259,34.668,31.738,33.203,35.156,27.832,0
1483986166.263,28.809,33.203,37.109,35.156,41.504,0
1483986166.267,29.297,41.504,45.898,44.922,27.832,0
1483986166.270,46.875,49.316,49.316,49.316,27.344,0
1483986166.274,48.828,46.875,30.762,45.898,34.668,0
1483986166.278,30.273,47.363,24.902,48.828,24.414,0
1483986166.282,24.414,48.340,41.504,59.570,7.324,0
1483986166.286,39.062,38.086,43.457,58.105,31.250,0
1483986166.290,42.969,38.086,38.574,55.664,48.828,0
1483986166.294,32.227,40.527,38.574,62.012,42.969,0
1483986166.298,22.949,34.180,45.410,60.059,33.691,0
1483986166.302,31.738,36.133,64.453,51.270,42.480,0
1483986166.306,42.480,42.480,53.711,54.199,35.156,0
1483986166.309,36.621,38.086,43.945,59.082,27.344,0
1483986166.313,28.809,33.203,41.992,56.641,63.965,0
1483986166.317,30.762,37.598,20.996,57.617,62.012,0
1483986166.321,27.832,44.434,31.250,61.523,43.457,0
1483986166.325,29.785,48.340,51.758,58.594,23.926,0
1483986166.329,33.203,49.316,48.340,49.805,3.906,0
1483986166.333,23.926,45.410,34.668,46.387,21.484,0
1483986166.337,18.555,40.527,27.832,40.527,30.762,0
1483986166.341,22.461,36.133,23.438,35.156,21.973,0
1483986166.345,30.762,41.504,39.062,42.969,25.879,0
1483986166.349,29.297,45.410,53.223,52.734,21.484,0
1483986166.352,25.879,42.480,57.129,50.781,23.438,0
1483986166.356,27.344,39.551,42.480,40.039,29.785,0
1483986166.360,24.414,36.621,40.527,39.551,23.926,0
1483986166.364,14.160,29.785,48.340,41.504,28.320,0
1483986166.368,5.371,27.344,45.898,43.945,-16.113,0
1483986166.372,13.672,31.250,32.715,41.016,-4.395,0
1483986166.376,28.320,33.203,31.250,42.969,27.832,0
1483986166.380,21.484,34.668,41.992,48.340,6.348,0
1483986166.384,11.230,38.086,40.527,39.062,0.488,0
1483986166.388,24.414,39.551,37.109,38.574,-36.133,0
1483986166.392,30.273,39.551,39.062,37.598,-43.457,0
1483986166.395,24.902,38.086,55.664,32.227,-12.695,0
1483986166.399,20.996,38.086,59.570,31.738,-41.016,0
1483986166.403,25.879,36.133,49.805,28.320,-43.945,0
1483986166.407,38.086,35.645,37.109,27.344,-3.906,0
1483986166.411,34.668,33.203,28.320,27.344,-11.230,0
1483986166.415,32.227,35.156,36.133,45.410,-37.109,0
1483986166.419,33.691,40.527,51.758,52.246,-38.574,0
1483986166.423,42.480,39.551,50.293,37.109,-20.020,0
1483986166.427,45.898,38.086,47.363,31.250,-50.781,0
1483986166.431,35.645,39.062,42.969,31.250,-57.617,0
1483986166.434,42.969,39.551,32.227,36.133,-48.340,0
1483986166.438,46.387,41.016,31.738,38.574,-50.293,0
1483986166.442,35.156,41.016,52.246,42.480,-53.223,0
1483986166.446,25.879,36.621,40.039,42.969,-58.105,0
1483986166.450,24.414,36.621,20.508,39.551,-25.391,0
1483986166.454,37.109,45.898,37.109,49.316,-25.879,0
1483986166.458,34.668,41.504,40.039,49.316,-25.879,0
1483986166.462,22.949,30.273,41.016,40.039,-0.977,0
1483986166.466,24.414,36.621,33.691,44.922,-31.738,0
1483986166.470,30.762,45.410,31.250,60.547,-16.113,0
1483986166.474,27.344,45.898,54.199,58.105,-21.973,0
1483986166.477,16.113,47.852,46.387,41.992,-59.570,0
1483986166.481,12.695,43.457,24.902,33.691,-30.762,0
1483986166.485,2.930,38.086,32.715,32.227,-8.789,0
1483986166.489,-4.395,37.598,42.480,36.133,5.371,0
1483986166.493,-9.766,32.227,31.738,29.297,17.578,0
1483986166.497,-17.090,28.320,20.508,24.902,-6.836,0
1483986166.501,-15.137,33.691,18.066,31.250,-29.297,0
1483986166.505,0.488,36.621,31.738,36.621,-22.461,0
1483986166.509,1.465,31.250,45.410,40.527,-12.207,0
1483986166.513,5.859,38.574,43.457,54.688,-29.785,0
1483986166.517,26.367,59.082,38.086,67.383,6.348,0
1483986166.520,28.809,59.082,37.598,62.988,-5.859,0
1483986166.524,28.320,44.434,42.480,48.340,-43.945,0
1483986166.528,21.973,36.621,14.648,46.387,7.324,0
1483986166.532,1.953,35.156,6.836,39.551,-10.254,0
1483986166.536,3.906,35.645,29.785,36.621,-28.809,0
1483986166.540,33.203,46.387,43.945,48.828,21.484,0
1483986166.544,39.062,51.758,44.922,57.617,20.996,0
1483986166.548,23.438,52.734,31.738,57.129,3.906,0
1483986166.552,29.297,57.129,25.879,58.105,14.648,0
1483986166.556,37.598,53.711,23.438,68.848,4.395,0
1483986166.559,40.039,45.898,33.203,58.594,-15.137,0
1483986166.563,36.621,48.828,30.273,47.852,-42.480,0
1483986166.567,31.738,51.270,21.973,48.828,-46.875,0
1483986166.571,41.992,51.758,38.574,51.758,5.859,0
1483986166.575,40.527,48.340,37.109,54.199,30.273,0
1483986166.579,27.832,45.410,23.926,51.270,1.953,0
1483986166.583,32.715,52.246,22.949,53.711,-17.090,0
1483986166.587,47.852,51.758,22.949,58.594,17.090,0
1483986166.591,50.293,49.805,41.016,62.988,22.949,0
1483986166.595,45.898,53.711,23.438,54.688,15.625,0
1483986166.599,42.480,54.199,17.090,53.711,13.184,0
1483986166.602,35.156,46.875,47.363,58.105,12.207,0
1483986166.606,30.762,43.457,52.734,56.641,17.578,0
1483986166.610,26.367,52.246,44.922,56.641,22.949,0
1483986166.614,21.973,55.664,34.180,61.523,25.879,0
1483986166.618,19.531,49.805,34.668,62.012,26.367,0
1483986166.622,17.578,43.457,39.062,52.246,29.785,0
1483986166.626,20.020,38.574,21.484,48.828,53.223,0
1483986166.630,14.648,40.527,13.184,50.293,55.176,0
1483986166.634,13.672,40.527,32.227,52.246,-0.977,0
1483986166.638,24.414,38.574,43.945,56.152,0.000,0
1483986166.642,36.133,42.969,41.992,64.453,24.902,0
1483986166.645,39.062,47.363,41.504,66.895,37.598,0
1483986166.649,30.273,49.805,52.734,66.406,47.363,0
1483986166.653,29.785,52.734,50.781,66.406,27.344,0
1483986166.657,35.156,43.457,31.738,62.988,20.020,0
1483986166.661,32.227,31.738,14.160,50.293,33.691,0
1483986166.665,27.832,38.574,20.996,48.828,35.156,0
1483986166.669,32.715,45.410,33.691,53.223,23.926,0
1483986166.673,33.691,43.945,37.598,54.688,28.809,0
1483986166.677,28.809,41.504,48.340,48.340,65.918,0
1483986166.681,16.113,39.062,47.852,44.922,47.363,0
1483986166.684,10.254,42.969,59.082,46.387,41.016,0
1483986166.688,6.836,39.551,41.016,53.711,58.594,0
1483986166.692,4.395,35.156,9.277,51.758,41.016,0
1483986166.696,3.906,35.156,28.809,39.062,30.762,0
1483986166.700,-2.930,34.668,46.875,41.504,16.602,0
1483986166.704,10.254,31.250,41.992,43.457,29.297,0
1483986166.708,28.320,28.320,40.039,37.598,81.543,0
1483986166.712,15.625,29.297,46.387,30.273,74.707,0
1483986166.716,-0.977,33.691,46.387,31.250,40.527,0
1483986166.720,4.395,35.156,34.668,37.109,51.758,0
1483986166.724,13.672,32.227,31.250,39.551,63.477,0
1483986166.727,9.766,35.156,40.039,33.691,54.688,0
1483986166.731,15.137,42.969,42.969,33.203,37.598,0
1483986166.735,36.133,52.246,44.922,36.133,59.082,0
1483986166.739,41.504,50.293,44.922,35.645,41.992,0
1483986166.743,27.344,41.016,42.969,34.180,36.133,0
1483986166.747,28.320,47.852,41.992,42.480,61.523,0
1483986166.751,36.133,52.246,42.480,46.387,39.062,0
1483986166.755,41.992,45.410,20.020,33.203,46.875,0
1483986166.759,34.180,45.410,5.859,30.762,28.320,0
1483986166.763,21.484,47.363,24.902,30.762,0.488,0
1483986166.767,30.762,48.340,35.645,33.203,34.180,0
1483986166.770,41.992,54.199,38.574,43.457,50.293,0
1483986166.774,36.621,51.758,41.016,41.992,33.203,0
1483986166.778,27.344,43.945,44.922,41.016,33.203,0
1483986166.782,22.949,37.109,32.227,37.109,42.969,0
1483986166.786,17.090,39.062,30.273,44.434,55.176,0
1483986166.790,21.973,41.504,34.668,50.293,58.594,0
1483986166.794,19.043,40.039,30.273,29.785,44.922,0
1483986166.798,15.137,43.457,40.527,30.273,27.832,0
1483986166.802,20.020,45.898,49.805,42.480,23.438,0
1483986166.806,24.414,49.805,43.945,49.316,29.297,0
1483986166.809,23.926,41.504,39.551,48.340,20.020,0
1483986166.813,20.508,35.156,37.598,39.551,46.387,0
1483986166.817,7.812,36.621,34.668,28.809,48.340,0
1483986166.821,6.836,41.504,45.410,34.180,21.484,0
1483986166.825,12.207,35.156,42.969,27.344,37.598,0
1483986166.829,6.348,24.902,32.715,9.766,61.035,0
1483986166.833,10.254,34.668,36.133,16.602,59.082,0
1483986166.837,18.555,43.457,38.086,22.949,27.344,0
1483986166.841,20.508,37.109,39.551,27.832,31.738,0
1483986166.845,18.555,35.645,37.598,23.438,55.664,0
1483986166.849,12.695,37.109,28.320,25.391,22.949,0
1483986166.852,14.648,35.156,36.621,35.156,0.977,0
1483986166.856,32.227,34.668,43.457,31.250,43.945,0
1483986166.860,30.273,37.598,31.250,29.297,62.988,0
1483986166.864,9.766,31.738,21.973,23.438,28.809,0
1483986166.868,13.672,30.762,29.785,21.484,27.344,0
1483986166.872,31.738,41.016,44.434,29.785,58.105,0
1483986166.876,26.367,32.227,36.133,26.367,49.316,0
1483986166.880,13.184,25.879,26.855,24.902,19.531,0
1483986166.884,13.672,28.809,23.438,25.879,9.277,0
1483986166.888,26.855,33.691,28.320,25.879,29.785,0
1483986166.892,34.180,36.621,42.480,26.367,34.180,0
1483986166.895,23.926,37.109,37.598,32.227,-0.977,0
1483986166.899,24.414,36.133,33.203,40.527,27.344,0
1483986166.903,31.250,27.832,23.438,37.109,61.523,0
1483986166.907,31.738,25.391,26.855,40.527,23.438,0
1483986166.911,27.832,26.367,24.902,39.551,9.766,0
1483986166.915,20.996,27.832,30.762,35.645,33.203,0
1483986166.919,26.367,36.621,57.617,53.711,27.344,0
1483986166.923,23.926,30.762,58.105,49.316,33.691,0
1483986166.927,20.508,24.414,57.617,36.621,54.688,0
1483986166.931,21.484,25.391,44.434,42.480,33.203,0
1483986166.934,21.484,26.855,32.715,43.457,38.574,0
1483986166.938,20.996,29.785,31.738,41.504,11.719,0
1483986166.942,21.973,37.109,22.949,45.410,-10.254,0
1483986166.946,16.113,37.598,27.344,49.805,28.320,0
1483986166.950,4.883,23.438,44.922,45.410,32.227,0
1483986166.954,0.977,19.531,56.152,34.668,25.391,0
1483986166.958,7.812,26.855,49.805,35.156,29.297,0
1483986166.962,18.555,30.762,43.457,43.945,22.461,0
1483986166.966,15.137,32.715,46.387,49.316,30.762,0
1483986166.970,17.090,30.762,60.547,43.945,23.438,0
1483986166.974,27.344,31.250,44.434,40.039,24.902,0
1483986166.977,35.156,35.645,28.320,46.875,41.992,0
1483986166.981,32.715,36.133,39.062,48.828,60.547,0
1483986166.985,22.461,27.832,40.527,43.945,23.438,0
1483986166.989,34.668,23.438,43.457,45.410,-14.160,0
1483986166.993,53.223,30.273,41.504,52.246,18.555,0
1483986166.997,42.480,37.109,40.039,55.664,33.203,0
1483986167.001,36.621,41.016,41.016,59.570,9.766,0
1483986167.005,44.434,39.551,32.227,51.270,29.297,0
1483986167.009,37.598,34.180,23.438,42.480,65.918,0
1483986167.013,18.066,28.809,32.715,46.387,37.598,0
1483986167.017,19.531,31.250,45.410,52.734,26.367,0
1483986167.020,32.715,34.668,38.574,48.828,32.715,0
1483986167.024,28.809,34.180,29.785,43.945,28.320,0
1483986167.028,15.625,36.133,26.855,48.340,38.574,0
1483986167.032,8.301,37.109,26.367,55.176,24.902,0
1483986167.036,19.531,38.086,32.715,53.711,27.832,0
1483986167.040,19.043,31.738,27.344,43.945,63.477,0
1483986167.044,11.230,28.809,17.578,37.598,60.547,0
1483986167.048,16.113,39.062,29.785,44.922,47.852,0
1483986167.052,18.555,37.598,32.227,47.852,54.688,0
1483986167.056,23.438,38.086,24.902,50.781,59.570,0
1483986167.059,26.855,41.992,21.973,51.270,41.016,0
1483986167.063,32.227,41.016,9.277,41.992,40.039,0
1483986167.067,40.527,44.434,20.020,43.457,38.574,0
1483986167.071,39.062,46.387,26.855,47.363,5.859,0
1483986167.075,35.156,44.434,24.902,46.875,3.418,0
1483986167.079,31.738,43.945,24.902,47.852,19.043,0
1483986167.083,26.855,41.992,17.090,43.457,23.438,0
1483986167.087,23.926,43.945,20.020,41.504,22.461,0
1483986167.091,39.062,54.688,26.855,53.711,34.180,0
1483986167.095,49.805,56.641,20.020,54.688,35.156,0
1483986167.099,42.969,51.270,14.160,54.688,27.832,0
1483986167.102,39.551,49.805,13.672,55.176,6.836,0
1483986167.106,46.875,51.270,18.066,55.176,23.438,0
1483986167.110,53.223,53.223,24.414,60.059,31.738,0
1483986167.114,44.922,51.270,24.902,54.199,21.484,0
1483986167.118,32.227,54.688,32.227,45.898,26.855,0
1483986167.122,39.062,48.828,30.273,43.945,22.949,0
1483986167.126,53.223,44.922,11.719,52.246,34.668,0
1483986167.130,54.199,52.246,1.465,56.641,32.715,0
1483986167.134,47.852,52.734,14.160,47.363,28.320,0
1483986167.138,49.805,52.734,22.461,46.387,18.555,0
1483986167.142,57.129,56.152,15.625,43.945,17.090,0
1483986167.145,42.969,53.223,9.766,43.945,10.254,0
1483986167.149,35.156,55.664,22.949,54.199,-3.418,0
1483986167.153,32.715,53.711,34.180,54.688,8.301,0
1483986167.157,24.902,40.527,22.949,49.316,20.996,0
1483986167.161,32.227,48.828,13.672,61.035,44.434,0
1483986167.165,31.250,53.711,17.578,55.176,34.668,0
1483986167.169,29.785,46.387,37.598,47.363,-12.207,0
1483986167.173,39.062,42.969,51.270,55.664,-23.926,0
1483986167.177,37.109,42.969,39.062,61.035,-12.207,0
1483986167.181,19.531,41.992,18.555,64.453,-21.484,0
1483986167.184,20.020,43.457,23.438,62.988,-38.086,0
1483986167.188,44.434,45.898,41.016,72.754,10.742,0
1483986167.192,44.434,46.387,39.551,63.477,20.020,0
1483986167.196,26.367,36.621,46.875,46.387,-2.441,0
1483986167.200,23.438,28.809,41.504,52.246,8.789,0
1483986167.204,28.320,34.180,18.066,53.711,18.066,0
1483986167.208,36.133,37.109,30.762,45.898,29.297,0
1483986167.212,37.109,41.992,33.691,48.828,28.320,0
1483986167.216,25.879,48.828,18.066,50.293,15.625,0
1483986167.220,21.973,45.898,18.066,51.758,31.738,0
1483986167.224,21.484,41.992,30.273,53.711,32.715,0
1483986167.227,17.090,41.016,35.156,62.012,12.207,0
1483986167.231,19.043,40.527,39.062,54.199,2.441,0
1483986167.235,19.043,37.598,28.809,30.273,28.320,0
1483986167.239,16.602,41.016,8.301,24.414,25.879,0
1483986167.243,22.949,45.410,9.277,22.949,7.812,0
1483986167.247,31.738,50.781,18.066,29.785,49.316,0
1483986167.251,23.438,52.246,20.020,27.832,42.480,0
1483986167.255,26.367,48.828,33.203,34.180,16.602,0
1483986167.259,32.227,47.363,41.016,41.504,38.574,0
1483986167.263,25.879,43.457,40.527,28.320,45.410,0
1483986167.267,21.484,38.574,26.855,26.367,32.227,0
1483986167.270,18.066,37.109,12.207,28.809,-6.348,0
1483986167.274,32.227,44.434,22.461,30.762,-1.465,0
1483986167.278,39.062,48.828,18.555,30.273,56.152,0
1483986167.282,21.973,41.504,21.484,29.297,49.805,0
1483986167.286,16.113,35.156,35.156,34.668,19.043,0
1483986167.290,24.902,35.156,32.227,40.039,45.410,0
1483986167.294,23.438,31.738,23.926,35.645,72.266,0
1483986167.298,5.859,25.879,22.949,31.250,43.945,0
1483986167.302,9.277,26.367,29.785,42.969,39.062,0
1483986167.306,22.949,33.691,32.227,47.852,18.066,0
1483986167.309,21.484,30.273,35.645,38.574,17.578,0
1483986167.313,13.184,31.250,36.621,52.246,17.090,0
1483986167.317,5.371,28.809,35.156,51.758,-0.977,0
1483986167.321,16.602,23.438,41.504,41.016,55.176,0
1483986167.325,25.391,30.762,36.133,54.688,60.547,0
1483986167.329,22.949,37.598,32.715,53.711,32.227,0
1483986167.333,19.043,39.551,42.480,49.316,26.855,0
1483986167.337,10.742,32.227,48.340,40.527,59.570,0
1483986167.341,13.672,31.738,46.387,41.504,57.129,0
1483986167.345,14.160,35.645,50.293,51.758,26.367,0
1483986167.349,3.418,33.203,38.574,36.621,22.949,0
1483986167.352,8.301,36.621,29.297,33.203,25.391,0
1483986167.356,18.555,38.574,38.086,43.945,33.691,0
1483986167.360,16.602,35.645,37.598,39.551,-5.371,0
1483986167.364,25.391,36.133,44.434,38.574,-11.719,0
1483986167.368,36.621,34.180,47.852,38.574,30.273,0
1483986167.372,33.691,35.156,44.922,41.992,15.137,0
1483986167.376,24.902,36.133,39.551,41.992,8.301,0
1483986167.380,16.113,33.691,33.203,37.598,40.039,0
1483986167.384,12.695,32.227,20.996,39.062,30.762,0
1483986167.388,12.695,29.785,22.461,39.062,17.578,0
1483986167.392,18.066,32.715,43.457,37.598,9.766,0
1483986167.395,21.973,40.527,43.945,34.668,1.465,0
1483986167.399,20.508,42.969,42.480,27.344,1.465,0
1483986167.403,28.320,46.387,41.504,25.879,6.348,0
1483986167.407,31.738,41.992,41.016,25.879,14.160,0
1483986167.411,30.273,32.715,38.086,19.531,59.570,0
1483986167.415,28.320,32.227,19.043,21.973,68.359,0
1483986167.419,24.414,38.574,7.324,35.156,19.531,0
1483986167.423,38.086,42.969,38.086,39.551,22.461,0
1483986167.427,40.039,37.598,53.711,34.180,43.945,0
1483986167.431,17.578,29.785,43.457,31.250,34.668,0
1483986167.434,9.277,26.367,48.340,31.250,30.273,0
1483986167.438,7.324,21.973,42.969,35.156,55.176,0
1483986167.442,6.348,20.020,38.086,33.691,96.680,0
1483986167.446,4.395,23.926,32.715,37.109,59.082,0
1483986167.450,-6.836,25.879,21.973,39.551,16.113,0
1483986167.454,-9.766,22.461,27.344,42.969,28.320,0
1483986167.458,-10.742,16.113,36.133,37.598,59.570,0
1483986167.462,-13.672,17.578,31.738,30.273,57.617,0
1483986167.466,-11.230,25.879,49.805,37.109,32.227,0
1483986167.470,-8.789,26.367,60.059,34.668,31.738,0
1483986167.474,-0.488,24.414,37.598,36.133,56.641,0
1483986167.477,0.488,20.020,23.926,37.109,38.574,0
1483986167.481,-1.465,20.996,38.086,37.598,24.902,0
1483986167.485,5.859,23.926,37.109,37.598,56.641,0
1483986167.489,13.184,24.414,21.484,35.645,79.590,0
1483986167.493,10.742,31.250,24.902,39.062,46.387,0
1483986167.497,8.789,32.227,35.156,40.039,24.414,0
1483986167.501,11.719,28.320,39.062,37.109,37.598,0
1483986167.505,9.766,19.043,29.785,29.785,34.180,0
1483986167.509,9.766,17.578,32.715,21.973,38.574,0
1483986167.513,13.672,28.320,45.410,26.367,56.152,0
1483986167.517,10.254,34.180,46.875,39.062,56.152,0
1483986167.520,0.977,23.926,11.230,24.414,29.785,0
1483986167.524,-0.488,13.184,-20.508,3.906,26.367,0
1483986167.528,4.883,17.578,-2.930,10.254,44.922,0
1483986167.532,0.488,20.508,26.367,1.953,30.762,0
1483986167.536,-11.719,12.695,22.461,-13.184,31.250,0
1483986167.540,-4.883,17.090,7.812,0.000,59.570,0
1483986167.544,0.000,24.902,22.461,7.812,29.785,0
1483986167.548,-1.465,24.902,34.668,6.836,31.738,0
1483986167.552,3.906,24.414,27.344,11.230,41.504,0
1483986167.556,11.719,26.855,17.578,21.484,-10.254,0
1483986167.559,21.973,24.414,20.996,20.508,8.301,0
1483986167.563,18.555,20.996,30.273,9.766,6.348,0
1483986167.567,8.789,19.043,38.574,16.113,-11.230,0
1483986167.571,10.254,20.020,44.922,25.879,1.953,0
1483986167.575,3.906,22.461,38.086,16.602,4.395,0
1483986167.579,1.953,21.484,26.367,18.066,27.344,0
1483986167.583,-1.953,19.531,36.133,27.344,-12.207,0
1483986167.587,-6.836,17.578,39.062,15.625,-25.391,0
1483986167.591,3.906,18.066,29.297,12.207,36.621,0
1483986167.595,7.812,16.602,22.949,19.531,63.477,0
1483986167.599,0.000,23.926,35.156,34.668,2.441,0
1483986167.602,3.906,32.227,43.457,45.898,-26.855,0
1483986167.606,9.766,24.902,36.621,40.527,31.250,0
1483986167.610,-0.977,19.531,38.086,38.086,55.176,0
1483986167.614,-10.742,17.090,37.109,28.320,22.949,0
1483986167.618,-3.418,19.531,26.855,27.344,10.254,0
1483986167.622,15.137,22.461,33.203,33.691,39.551,0
1483986167.626,11.719,20.508,32.227,33.691,21.484,0
1483986167.630,7.812,30.273,26.367,45.898,27.832,0
1483986167.634,13.672,41.504,41.016,56.641,42.969,0
1483986167.638,15.137,38.574,41.504,60.059,14.160,0
1483986167.642,14.160,29.785,41.504,54.688,33.203,0
1483986167.645,0.488,26.367,47.363,42.969,-0.488,0
1483986167.649,3.906,27.832,41.016,49.805,9.766,0
1483986167.653,16.602,23.926,23.438,47.852,53.711,0
1483986167.657,18.066,25.879,13.184,41.504,19.531,0
1483986167.661,14.648,33.691,29.297,45.898,21.973,0
1483986167.665,14.648,38.086,40.527,41.992,48.340,0
1483986167.669,19.531,32.227,32.227,39.062,53.223,0
1483986167.673,25.879,27.344,33.691,50.781,45.410,0
1483986167.677,37.598,35.645,35.645,56.641,72.266,0
1483986167.681,29.297,44.922,34.180,49.805,66.406,0
1483986167.684,13.184,40.039,23.926,44.434,47.852,0
1483986167.688,12.207,34.180,17.578,43.457,38.086,0
1483986167.692,10.742,36.133,23.926,40.039,19.043,0
1483986167.696,12.695,36.621,30.273,47.852,21.973,0
1483986167.700,7.812,31.738,33.691,48.828,19.043,0
1483986167.704,1.953,27.344,35.156,33.203,-8.301,0
1483986167.708,2.441,27.344,17.090,28.809,-6.348,0
1483986167.712,2.930,25.879,7.324,40.527,41.992,0
1483986167.716,3.906,36.133,25.879,57.617,34.180,0
1483986167.720,5.859,40.527,23.926,53.711,24.902,0
1483986167.724,9.766,36.621,26.855,51.758,49.316,0
1483986167.727,8.789,32.715,41.992,53.223,49.805,0
1483986167.731,-4.395,23.438,33.691,43.457,18.555,0
1483986167.735,-11.230,20.020,10.742,39.551,-13.672,0
1483986167.739,1.953,20.996,9.766,50.781,11.230,0
1483986167.743,12.207,22.949,14.160,50.293,33.203,0
1483986167.747,-0.488,18.555,14.648,46.387,10.742,0
1483986167.751,-12.695,14.160,22.949,41.992,10.254,0
1483986167.755,-7.812,18.066,23.438,32.227,16.113,0
1483986167.759,-1.465,19.531,22.949,30.762,27.832,0
1483986167.763,-10.254,21.973,28.809,33.691,29.785,0
1483986167.767,-9.766,26.367,23.926,42.969,9.766,0
1483986167.770,3.906,28.809,17.090,37.109,15.625,0
1483986167.774,0.488,26.855,18.555,27.344,9.277,0
1483986167.778,-14.648,22.461,2.930,28.320,-3.906,0
1483986167.782,-21.973,19.531,-8.789,28.320,-9.277,0
1483986167.786,-14.160,11.719,9.277,21.484,27.832,0
1483986167.790,-3.906,10.254,24.902,23.438,53.223,0
1483986167.794,0.488,15.137,28.320,33.203,51.758,0
1483986167.798,-9.766,10.254,21.973,24.902,26.367,0
1483986167.802,-7.812,16.602,27.832,26.855,10.254,0
1483986167.806,2.441,23.926,35.156,36.621,9.766,0
1483986167.809,2.930,17.578,9.277,32.227,18.555,0
1483986167.813,1.953,17.578,-12.207,35.156,8.301,0
1483986167.817,2.930,20.508,-9.277,37.598,-23.926,0
1483986167.821,6.836,23.438,12.695,36.133,-10.254,0
1483986167.825,0.000,24.414,30.273,32.227,-1.953,0
1483986167.829,1.465,27.344,32.715,32.715,-0.977,0
1483986167.833,13.184,34.180,35.156,30.762,34.180,0
1483986167.837,10.742,33.691,36.621,38.574,29.785,0
1483986167.841,10.254,34.180,33.691,41.992,-0.488,0
1483986167.845,7.324,30.762,10.254,27.344,15.137,0
1483986167.849,1.465,22.461,-6.348,17.578,49.316,0
1483986167.852,-1.953,22.949,3.418,20.996,30.762,0
1483986167.856,1.953,27.832,10.742,29.297,23.926,0
1483986167.860,6.836,29.297,16.113,25.391,30.273,0
1483986167.864,-3.418,22.949,16.113,21.484,38.574,0
1483986167.868,-13.184,20.996,19.531,19.043,38.574,0
1483986167.872,-3.906,27.344,29.297,22.461,20.020,0
1483986167.876,5.371,24.414,23.926,25.391,24.414,0
1483986167.880,5.859,27.344,19.531,28.809,42.480,0
1483986167.884,10.254,37.598,18.555,43.457,25.391,0
1483986167.888,16.113,34.668,19.531,38.086,23.438,0
1483986167.892,26.367,32.227,19.043,35.156,70.801,0
1483986167.895,22.949,36.621,17.090,41.992,69.336,0
1483986167.899,18.066,33.691,16.602,34.180,43.945,0
1483986167.903,16.602,31.250,2.930,25.391,22.949,0
1483986167.907,18.066,34.668,-0.977,28.809,19.531,0
1483986167.911,22.949,36.621,13.184,29.297,19.043,0
1483986167.915,12.695,36.133,26.367,25.391,32.227,0
1483986167.919,8.301,34.180,23.438,30.762,43.945,0
1483986167.923,27.832,37.109,21.973,41.504,65.918,0
1483986167.927,30.273,38.086,19.043,42.969,79.590,0
1483986167.931,14.648,37.109,18.555,42.969,36.133,0
1483986167.934,10.254,37.109,25.879,41.016,-3.418,0
1483986167.938,19.043,34.180,26.367,34.180,18.066,0
1483986167.942,13.184,32.227,10.742,40.527,38.574,0
1483986167.946,-2.441,24.414,1.465,38.086,-8.301,0
1483986167.950,-4.395,21.484,5.859,25.391,2.441,0
1483986167.954,-0.977,26.855,2.930,21.484,33.691,0
1483986167.958,-0.977,27.344,-2.441,18.555,13.184,0
1483986167.962,-8.789,23.926,-4.395,14.648,0.977,0
1483986167.966,-11.230,25.879,9.766,16.113,-2.930,0
1483986167.970,-6.348,25.879,4.883,21.973,5.859,0
1483986167.974,-16.602,11.719,-6.836,12.695,0.000,0
1483986167.977,-22.949,1.953,6.836,12.207,-13.672,0
1483986167.981,-13.184,8.789,-0.977,16.602,12.207,0
1483986167.985,-7.812,18.066,5.371,18.066,15.625,0
1483986167.989,1.465,14.160,12.207,18.555,4.395,0
1483986167.993,1.953,10.254,11.230,19.531,-20.996,0
1483986167.997,-3.418,18.555,20.508,19.531,2.441,0
1483986168.001,-3.418,26.367,20.996,20.996,16.602,0
1483986168.005,-9.277,20.508,12.207,27.344,-2.441,0
1483986168.009,-15.625,13.184,-5.371,23.926,-3.418,0
1483986168.013,-11.230,17.090,-6.348,16.113,-0.488,0
1483986168.017,-1.465,23.926,12.695,18.066,-27.832,0
1483986168.020,3.418,21.973,19.531,15.625,-45.410,0
1483986168.024,13.672,23.438,16.113,18.066,-12.207,0
1483986168.028,19.531,26.855,4.395,22.461,3.418,0
1483986168.032,17.090,32.227,12.207,25.879,-3.418,0
1483986168.036,27.344,45.410,19.531,29.785,-1.953,0
1483986168.040,36.621,42.969,5.371,22.949,7.812,0
1483986168.044,35.156,29.785,3.418,23.438,-5.859,0
1483986168.048,23.926,29.785,4.883,23.438,-11.719,0
1483986168.052,20.508,30.273,-4.395,20.508,-18.066,0
1483986168.056,34.668,28.809,7.812,28.320,-11.230,0
1483986168.059,28.320,25.391,26.855,23.438,2.930,0
1483986168.063,10.742,23.926,29.785,20.508,-37.109,0
1483986168.067,14.648,26.855,27.344,26.855,-46.875,0
1483986168.071,23.438,22.949,8.789,21.973,-11.230,0
1483986168.075,22.461,20.996,4.395,30.273,3.418,0
1483986168.079,7.324,20.020,9.277,41.992,-8.789,0
1483986168.083,5.371,19.043,13.184,39.062,-22.461,0
1483986168.087,17.578,17.578,21.973,41.504,1.953,0
1483986168.091,10.254,13.184,3.906,34.180,18.555,0
1483986168.095,2.930,17.578,-2.930,25.391,-0.977,0
1483986168.099,0.977,25.391,20.508,30.273,-7.324,0
1483986168.102,3.418,34.668,31.250,43.945,7.324,0
1483986168.106,5.859,36.133,29.785,41.016,25.879,0
1483986168.110,-10.254,26.367,26.367,35.645,9.277,0
1483986168.114,-9.766,23.438,26.855,36.621,-14.648,0
1483986168.118,8.301,26.367,24.902,30.762,28.809,0
1483986168.122,10.742,23.438,10.742,30.762,59.570,0
1483986168.126,23.926,31.250,1.465,46.387,32.227,0
1483986168.130,36.133,36.133,6.836,57.617,36.621,0
1483986168.134,35.156,33.691,11.230,59.082,56.641,0
1483986168.138,36.133,34.180,11.230,60.547,24.414,0
1483986168.142,38.086,24.902,4.883,57.617,13.184,0
1483986168.145,35.156,21.484,8.301,55.176,10.742,0
1483986168.149,27.832,25.391,17.578,45.410,3.418,0
1483986168.153,28.320,26.855,15.625,51.270,8.789,0
1483986168.157,42.969,37.598,25.391,63.965,-3.418,0
1483986168.161,43.945,39.551,21.484,55.176,17.578,0
1483986168.165,24.902,33.203,0.977,54.199,32.227,0
1483986168.169,15.625,34.180,7.324,42.480,48.828,0
1483986168.173,24.414,40.527,16.113,35.156,60.059,0
1483986168.177,19.531,40.527,4.395,42.480,41.992,0
1483986168.181,1.465,34.668,-4.883,25.879,59.570,0
1483986168.184,-5.859,37.109,10.742,18.555,62.500,0
1483986168.188,8.301,40.527,23.438,22.949,72.754,0
1483986168.192,18.066,40.039,16.602,20.996,69.824,0
1483986168.196,8.789,45.898,14.648,25.879,33.203,0
1483986168.200,5.371,48.340,22.949,33.691,33.203,0
1483986168.204,5.371,42.480,18.066,27.344,29.785,0
1483986168.208,13.184,45.410,17.578,19.043,61.523,0
1483986168.212,6.836,48.828,20.508,26.855,46.387,0
1483986168.216,-5.371,38.086,12.695,30.762,20.508,0
1483986168.220,2.441,40.039,20.508,33.203,7.324,0
1483986168.224,17.090,48.828,53.223,47.852,30.762,0
1483986168.227,9.766,47.363,60.547,47.852,20.996,0
1483986168.231,-1.465,44.434,46.387,41.992,5.371,0
1483986168.235,8.301,42.480,41.504,53.711,55.176,0
1483986168.239,11.230,47.852,27.832,60.547,41.016,0
1483986168.243,-4.395,46.875,23.438,61.523,25.879,0
1483986168.247,-10.742,44.434,35.645,62.500,24.414,0
1483986168.251,7.812,41.504,35.645,58.105,23.926,0
1483986168.255,21.973,42.480,37.598,66.895,28.320,0
1483986168.259,17.578,43.457,42.480,71.777,1.465,0
1483986168.263,22.461,45.410,44.434,76.660,-3.906,0
1483986168.267,25.391,50.781,51.758,78.613,-1.953,0
1483986168.270,25.879,53.711,58.105,80.566,8.301,0
1483986168.274,37.598,56.641,44.434,89.844,5.859,0
1483986168.278,35.645,52.734,28.320,86.426,-8.301,0
1483986168.282,33.691,51.758,33.203,90.332,14.160,0
1483986168.286,32.227,42.480,25.391,83.496,14.160,0
1483986168.290,29.297,41.992,24.902,77.637,-6.836,0
1483986168.294,32.227,48.340,37.109,75.195,-3.906,0
1483986168.298,31.738,43.457,27.832,62.500,41.016,0
1483986168.302,29.297,48.340,23.926,58.594,36.621,0
1483986168.306,33.203,57.129,41.016,60.059,16.113,0
1483986168.309,43.457,61.523,41.504,68.359,12.695,0
1483986168.313,36.621,57.129,30.273,63.477,36.133,0
1483986168.317,18.066,44.434,39.062,48.340,22.949,0
1483986168.321,16.602,44.922,43.945,45.410,10.254,0
1483986168.325,29.297,49.316,35.156,47.852,36.621,0
1483986168.329,27.832,50.293,35.156,45.410,44.434,0
1483986168.333,12.695,51.758,35.645,44.434,35.645,0
1483986168.337,6.348,50.781,18.555,44.434,3.418,0
1483986168.341,17.090,54.199,23.926,50.781,2.930,0
1483986168.345,24.902,58.105,37.598,52.246,47.852,0
1483986168.349,10.742,53.223,30.762,41.992,30.762,0
1483986168.352,4.883,46.387,30.762,41.992,20.020,0
1483986168.356,20.508,47.363,36.133,40.527,51.270,0
1483986168.360,21.973,53.711,47.852,41.992,92.285,0
1483986168.364,11.230,53.223,46.875,48.340,92.285,0
1483986168.368,15.625,46.875,39.062,49.316,61.035,0
1483986168.372,30.273,44.434,34.180,57.617,64.941,0
1483986168.376,38.086,50.781,37.598,62.500,70.801,0
1483986168.380,37.109,47.363,39.551,56.152,78.125,0
1483986168.384,31.738,43.457,21.484,49.316,62.012,0
1483986168.388,39.062,53.223,27.832,52.734,34.668,0
1483986168.392,42.480,46.387,47.363,55.176,103.027,0
1483986168.395,28.320,39.062,31.738,46.387,75.195,0
1483986168.399,39.551,48.828,34.180,53.711,41.992,0
1483986168.403,55.176,49.316,44.434,58.105,90.820,0
1483986168.407,48.340,49.805,40.527,67.383,68.359,0
1483986168.411,41.016,54.688,43.945,71.289,33.691,0
1483986168.415,44.922,56.641,41.504,57.617,36.621,0
1483986168.419,41.016,49.316,21.973,50.293,73.242,0
1483986168.423,34.180,41.016,17.090,48.828,65.430,0
1483986168.427,27.832,41.504,33.203,51.270,60.059,0
1483986168.431,20.508,44.434,37.598,57.617,54.688,0
1483986168.434,24.902,49.316,35.645,63.965,77.637,0
1483986168.438,30.762,52.246,40.527,61.035,97.656,0
1483986168.442,30.273,47.852,32.227,54.199,29.297,0
1483986168.446,41.016,47.363,35.156,47.363,54.199,0
1483986168.450,36.621,43.457,40.039,43.457,65.430,0
1483986168.454,33.203,37.109,21.973,43.945,13.184,0
1483986168.458,37.598,31.738,10.254,46.387,27.832,0
1483986168.462,21.484,24.414,12.207,44.922,46.387,0
1483986168.466,15.137,26.855,36.133,45.410,42.480,0
1483986168.470,26.855,31.738,46.387,55.664,47.852,0
1483986168.474,32.227,33.691,41.504,50.781,33.203,0
1483986168.477,41.992,36.133,45.898,47.363,32.227,0
1483986168.481,45.410,41.504,45.898,59.082,36.621,0
1483986168.485,33.691,35.645,32.715,56.152,26.367,0
1483986168.489,29.785,28.320,34.180,52.734,68.848,0
1483986168.493,22.949,30.762,40.039,50.781,79.102,0
1483986168.497,5.859,32.715,29.785,50.293,32.715,0
1483986168.501,9.766,41.504,29.785,49.805,13.184,0
1483986168.505,33.691,41.992,33.691,50.781,14.160,0
1483986168.509,40.039,38.086,30.273,55.176,8.301,0
1483986168.513,25.879,41.016,26.855,50.781,14.160,0
1483986168.517,16.602,40.527,27.344,45.410,19.043,0
1483986168.520,26.367,41.016,37.109,45.410,37.598,0
1483986168.524,25.391,37.598,45.898,43.457,30.273,0
1483986168.528,9.766,35.645,51.758,47.363,-13.184,0
1483986168.532,10.254,37.598,41.992,45.898,-37.598,0
1483986168.536,34.668,42.969,29.785,50.781,-27.832,0
1483986168.540,54.688,56.152,33.691,68.359,20.508,0
1483986168.544,40.527,53.711,38.086,64.453,26.855,0
1483986168.548,28.809,47.363,34.668,61.035,-5.371,0
1483986168.552,35.645,45.898,21.973,57.617,11.719,0
1483986168.556,35.645,38.574,16.113,47.363,29.297,0
1483986168.559,26.367,29.785,23.438,41.992,19.531,0
1483986168.563,15.625,33.203,38.086,45.898,3.418,0
1483986168.567,16.602,38.086,43.945,56.641,-15.625,0
1483986168.571,27.832,42.969,35.156,56.641,19.043,0
1483986168.575,35.645,37.598,20.020,43.945,29.297,0
1483986168.579,29.785,32.227,30.762,46.387,21.973,0
1483986168.583,26.367,39.551,49.316,55.664,22.949,0
1483986168.587,33.691,44.434,46.875,57.617,31.250,0
1483986168.591,24.902,41.504,27.344,48.828,21.484,0
1483986168.595,23.438,36.133,21.484,44.434,10.254,0
1483986168.599,30.273,39.062,32.715,42.969,41.992,0
1483986168.602,26.367,42.480,32.715,51.270,42.480,0
1483986168.606,21.484,40.039,34.180,49.805,43.945,0
1483986168.610,26.855,41.016,21.973,42.480,41.016,0
1483986168.614,21.973,39.062,16.602,42.480,48.828,0
1483986168.618,11.230,33.691,34.180,38.086,24.902,0
1483986168.622,27.344,37.598,43.945,38.574,20.996,0
1483986168.626,44.434,43.945,36.621,35.156,57.129,0
1483986168.630,28.320,41.504,19.531,41.992,41.016,0
1483986168.634,9.766,28.809,25.391,43.457,38.574,0
1483986168.638,10.254,27.344,26.367,28.809,55.176,0
1483986168.642,18.555,34.668,20.996,22.949,23.926,0
1483986168.645,17.578,33.203,21.973,21.484,50.293,0
1483986168.649,10.742,30.762,21.973,20.508,61.035,0
1483986168.653,15.137,31.250,20.996,29.297,23.926,0
1483986168.657,28.320,36.133,17.090,39.551,39.062,0
1483986168.661,28.809,42.480,21.973,49.805,24.902,0
1483986168.665,14.648,38.574,25.879,47.852,23.926,0
1483986168.669,11.719,35.645,22.461,43.945,1.465,0
1483986168.673,24.414,39.062,16.602,46.875,-2.930,0
1483986168.677,29.297,40.039,18.555,42.480,41.016,0
1483986168.681,17.578,39.062,30.273,39.062,46.875,0
1483986168.684,13.184,25.879,15.625,31.738,19.043,0
1483986168.688,23.438,21.484,4.883,36.621,37.598,0
1483986168.692,27.832,33.203,13.184,36.621,37.109,0
1483986168.696,20.020,37.109,25.391,32.715,18.555,0
1483986168.700,6.348,27.344,24.414,25.391,24.902,0
1483986168.704,8.789,16.602,-2.441,18.555,36.621,0
1483986168.708,9.277,18.555,5.859,23.438,7.812,0
1483986168.712,-3.906,22.949,20.996,24.414,4.883,0
1483986168.716,-3.418,20.996,15.625,28.320,42.969,0
1483986168.720,0.977,21.484,12.695,34.668,37.109,0
1483986168.724,-4.883,20.996,5.371,30.273,2.930,0
1483986168.727,-14.648,12.695,16.602,18.066,-42.969,0
1483986168.731,-4.395,14.648,25.391,18.555,7.812,0
1483986168.735,9.766,32.227,24.414,44.922,24.414,0
1483986168.739,4.883,35.645,34.180,50.781,5.371,0
1483986168.743,9.766,22.461,39.062,53.223,17.578,0
1483986168.747,18.066,25.879,46.875,63.477,12.695,0
1483986168.751,15.625,34.668,39.551,58.105,-11.719,0
1483986168.755,11.230,27.832,20.020,50.781,-14.160,0
1483986168.759,0.488,22.461,14.648,41.016,20.996,0
1483986168.763,-2.930,23.438,31.738,37.109,31.250,0
1483986168.767,0.977,30.762,41.992,52.734,19.043,0
1483986168.770,8.789,40.527,46.875,66.406,-29.297,0
1483986168.774,24.414,45.898,56.641,63.477,-41.016,0
1483986168.778,26.367,39.551,51.758,59.570,22.949,0
1483986168.782,14.648,38.086,52.734,56.641,25.879,0
1483986168.786,9.277,35.156,49.316,37.109,-36.133,0
1483986168.790,18.555,31.738,40.039,30.762,-13.672,0
1483986168.794,20.508,34.668,37.598,39.551,15.625,0
1483986168.798,13.184,38.574,31.738,37.109,10.254,0
1483986168.802,12.695,39.551,39.551,34.180,-17.578,0
1483986168.806,23.438,36.133,50.781,43.457,-14.648,0
1483986168.809,24.414,33.203,50.781,40.039,-0.488,0
1483986168.813,14.160,37.598,39.062,31.250,-6.836,0
1483986168.817,17.578,46.875,37.598,40.039,1.953,0
1483986168.821,28.809,46.387,39.062,44.434,38.574,0
1483986168.825,30.273,37.598,25.391,39.551,30.762,0
1483986168.829,21.973,32.227,20.996,41.504,-11.719,0
1483986168.833,29.297,38.086,20.996,53.711,21.484,0
1483986168.837,39.062,38.086,25.391,61.035,37.598,0
1483986168.841,35.645,38.086,41.016,56.641,27.832,0
1483986168.845,24.902,36.621,49.805,45.410,35.156,0
1483986168.849,21.484,29.297,44.434,46.387,41.016,0
1483986168.852,29.297,36.133,29.785,51.270,63.965,0
1483986168.856,34.180,36.133,22.461,48.340,77.637,0
1483986168.860,32.715,33.203,40.527,46.387,46.387,0
1483986168.864,28.809,33.691,39.062,52.734,39.062,0
1483986168.868,26.367,31.250,28.320,65.430,62.012,0
1483986168.872,21.484,29.297,37.109,59.570,74.219,0
1483986168.876,16.113,26.855,36.621,42.969,69.336,0
1483986168.880,11.719,26.855,26.855,41.016,64.453,0
1483986168.884,16.113,30.273,32.227,44.434,84.473,0
1483986168.888,12.695,32.227,25.879,42.969,93.262,0
1483986168.892,6.348,27.344,10.254,39.062,63.477,0
1483986168.895,10.254,25.879,18.066,41.504,91.797,0
1483986168.899,8.301,27.344,36.133,46.387,88.867,0
1483986168.903,7.812,30.273,59.570,43.945,51.758,0
1483986168.907,11.230,28.320,55.664,30.762,30.762,0
1483986168.911,13.672,18.555,18.066,20.996,58.594,0
1483986168.915,12.695,17.578,11.719,23.438,70.312,0
1483986168.919,21.484,30.273,28.809,37.109,51.758,0
1483986168.923,24.414,36.133,31.250,41.992,62.012,0
1483986168.927,16.113,29.785,27.832,27.832,57.129,0
1483986168.931,11.719,27.344,23.438,27.344,76.172,0
1483986168.934,5.859,26.367,26.367,29.297,57.617,0
1483986168.938,13.184,23.926,34.180,13.184,14.160,0
1483986168.942,21.484,29.785,41.016,14.160,46.875,0
1483986168.946,7.812,30.762,47.363,17.578,51.270,0
1483986168.950,3.906,26.855,40.039,19.043,-7.324,0
1483986168.954,16.113,29.297,34.180,20.508,15.137,0
1483986168.958,28.809,27.344,28.809,26.855,53.711,0
1483986168.962,17.578,23.926,15.137,25.391,50.293,0
1483986168.966,8.789,20.508,15.625,21.484,41.504,0
1483986168.970,21.973,22.949,27.344,22.949,7.812,0
1483986168.974,36.621,32.715,41.992,29.297,20.020,0
1483986168.977,36.133,33.203,43.945,32.715,21.973,0
1483986168.981,31.250,25.391,37.109,37.598,25.391,0
1483986168.985,46.387,34.668,40.527,52.734,5.859,0
1483986168.989,59.570,42.969,38.086,53.223,-21.484,0
1483986168.993,44.434,37.598,27.344,48.828,-11.719,0
1483986168.997,32.715,36.133,25.879,51.758,-41.016,0
1483986169.001,37.109,35.156,34.668,44.922,-32.715,0
1483986169.005,33.691,27.344,34.668,33.203,-9.277,0
1483986169.009,22.461,20.020,21.973,29.297,-36.133,0
1483986169.013,14.648,23.438,26.367,32.715,-23.438,0
1483986169.017,22.461,29.785,40.527,38.574,10.254,0
1483986169.020,25.879,28.320,39.551,38.574,2.930,0
1483986169.024,22.461,30.762,41.992,51.270,-2.441,0
1483986169.028,20.020,36.133,43.457,51.270,-21.484,0
1483986169.032,16.113,35.645,27.344,39.551,-21.484,0
1483986169.036,23.926,41.992,30.762,43.945,-15.625,0
1483986169.040,25.879,38.086,34.180,45.410,-21.973,0
1483986169.044,26.367,28.320,34.668,37.598,-20.508,0
1483986169.048,36.133,29.785,32.227,41.504,-13.184,0
1483986169.052,29.297,33.203,21.973,43.457,-28.809,0
1483986169.056,27.832,37.109,28.809,45.898,-41.992,0
1483986169.059,37.598,34.668,35.156,46.387,-36.621,0
1483986169.063,29.297,29.785,26.855,46.387,-19.531,0
1483986169.067,17.090,29.785,12.207,49.805,-18.066,0
1483986169.071,19.531,34.180,24.902,44.434,-58.594,0
1483986169.075,26.855,30.273,40.527,39.551,-63.965,0
1483986169.079,14.648,25.879,27.832,42.969,-8.301,0
1483986169.083,-1.953,22.949,27.344,41.016,-25.391,0
1483986169.087,-5.859,20.508,22.949,27.344,-53.223,0
1483986169.091,-0.977,22.949,18.066,19.531,-12.695,0
1483986169.095,4.883,24.902,35.156,16.602,9.766,0
1483986169.099,-6.348,24.414,44.922,25.879,-6.348,0
1483986169.102,-11.230,20.020,41.504,25.879,-25.391,0
1483986169.106,3.418,18.555,30.273,22.949,10.254,0
1483986169.110,15.625,25.879,31.250,39.062,-4.395,0
1483986169.114,11.230,33.203,28.320,47.363,-22.461,0
1483986169.118,1.465,29.785,20.996,39.062,-24.902,0
1483986169.122,10.742,24.902,15.137,39.062,-33.203,0
1483986169.126,12.207,23.438,14.160,41.504,-9.766,0
1483986169.130,5.859,23.926,37.109,41.504,-5.859,0
1483986169.134,1.465,20.508,48.828,46.875,-20.020,0
1483986169.138,7.812,17.578,34.668,44.922,-33.691,0
1483986169.142,14.648,18.555,26.367,36.133,4.883,0
1483986169.145,-1.465,10.254,20.508,39.062,-6.348,0
1483986169.149,-1.953,13.672,18.066,39.551,-28.809,0
1483986169.153,13.672,20.508,15.137,38.086,-24.902,0
1483986169.157,7.324,15.625,8.789,42.969,-33.203,0
1483986169.161,-3.418,12.695,29.785,36.621,-22.949,0
1483986169.165,-1.953,15.625,46.875,36.621,-23.438,0
1483986169.169,5.859,14.160,32.227,41.016,-11.230,0
1483986169.173,6.348,13.672,24.902,43.457,-11.230,0
1483986169.177,-1.465,13.672,21.973,37.109,-25.879,0
1483986169.181,-11.719,12.695,13.672,43.457,-17.090,0
1483986169.184,-10.254,18.066,18.555,48.340,-1.953,0
1483986169.188,0.000,25.879,28.320,37.598,-18.066,0
1483986169.192,-0.977,24.902,29.785,39.062,-59.570,0
1483986169.196,5.371,20.020,24.414,44.922,-38.574,0
1483986169.200,16.602,23.438,30.762,46.387,-17.090,0
1483986169.204,15.137,24.414,36.621,42.969,-29.785,0
1483986169.208,19.043,22.461,46.387,40.527,-20.508,0
1483986169.212,23.926,24.902,40.527,41.504,-1.465,0
1483986169.216,19.043,32.227,22.461,47.363,0.000,0
1483986169.220,19.531,32.715,33.203,40.527,-12.207,0
1483986169.224,21.484,29.297,40.039,36.133,-37.109,0
1483986169.227,10.742,29.785,19.043,36.621,-33.203,0
1483986169.231,9.277,25.879,23.926,37.598,-42.969,0
1483986169.235,10.742,25.391,35.156,31.738,-84.473,0
1483986169.239,16.602,25.879,36.133,26.367,-74.707,0
1483986169.243,36.133,29.297,60.547,32.715,-17.578,0
1483986169.247,26.855,32.227,59.082,35.156,-0.977,0
1483986169.251,20.508,32.227,36.133,29.297,-9.766,0
1483986169.255,37.109,32.227,30.762,23.926,-6.836,0
1483986169.259,43.945,30.762,42.969,23.926,15.137,0
1483986169.263,27.344,30.273,40.527,21.973,32.227,0
1483986169.267,16.113,28.809,32.227,26.855,15.625,0
1483986169.270,25.391,26.855,41.992,32.715,23.438,0
1483986169.274,22.949,21.484,43.457,22.949,21.973,0
1483986169.278,16.602,25.879,52.734,26.855,3.418,0
1483986169.282,18.555,38.086,62.012,42.969,0.977,0
1483986169.286,21.484,38.086,52.734,40.039,24.414,0
1483986169.290,6.348,31.738,40.527,38.574,39.062,0
1483986169.294,-5.859,29.297,24.414,45.898,10.254,0
1483986169.298,-0.488,38.574,29.297,52.246,1.465,0
1483986169.302,7.812,39.551,51.758,55.176,15.137,0
1483986169.306,11.230,23.438,56.152,47.852,50.293,0
1483986169.309,7.812,20.020,59.082,53.223,71.289,0
1483986169.313,-3.906,21.484,54.688,58.594,54.688,0
1483986169.317,-1.953,21.973,42.969,55.176,47.852,0
1483986169.321,9.277,23.438,53.223,53.223,44.434,0
1483986169.325,13.184,23.438,49.805,51.270,49.805,0
1483986169.329,19.531,24.902,25.391,53.711,53.223,0
1483986169.333,17.578,28.809,26.855,52.246,70.312,0
1483986169.337,3.418,22.461,37.109,51.270,75.195,0
1483986169.341,1.953,15.137,38.574,50.781,55.176,0
1483986169.345,8.789,19.043,47.852,55.176,76.172,0
1483986169.349,9.766,23.438,50.293,51.758,83.496,0
1483986169.352,6.836,19.531,32.715,40.527,39.062,0
1483986169.356,11.230,7.812,14.648,33.203,40.039,0
1483986169.360,18.555,10.742,1.953,35.645,77.637,0
1483986169.364,10.254,18.555,12.695,39.551,83.008,0
1483986169.368,4.883,22.461,37.109,40.039,61.523,0
1483986169.372,3.906,14.160,26.367,34.668,41.992,0
1483986169.376,10.742,7.812,13.672,34.180,63.965,0
1483986169.380,10.254,16.602,20.508,28.809,76.172,0
1483986169.384,7.812,20.508,27.832,23.926,57.129,0
1483986169.388,10.254,18.066,26.367,31.250,65.430,0
1483986169.392,14.160,17.090,19.043,31.738,82.031,0
1483986169.395,13.184,14.160,9.277,24.414,85.938,0
1483986169.399,15.137,18.066,25.879,25.391,59.570,0
1483986169.403,25.391,26.367,42.969,37.109,43.457,0
1483986169.407,30.273,26.855,41.016,40.039,78.125,0
1483986169.411,22.949,27.832,37.598,33.203,72.266,0
1483986169.415,3.906,28.320,28.320,24.902,41.992,0
1483986169.419,0.977,23.438,27.832,18.555,27.832,0
1483986169.423,13.184,18.555,26.367,21.484,55.176,0
1483986169.427,17.578,23.438,25.391,30.273,89.355,0
1483986169.431,11.719,27.832,27.344,26.855,45.898,0
1483986169.434,13.672,25.879,26.367,26.367,16.113,0
1483986169.438,24.902,26.855,44.434,35.645,47.363,0
1483986169.442,24.414,29.297,38.574,37.598,57.617,0
1483986169.446,17.090,29.785,19.531,40.039,59.082,0
1483986169.450,14.160,22.949,22.949,31.250,64.453,0
1483986169.454,22.461,20.996,30.273,27.832,58.594,0
1483986169.458,25.391,22.461,35.156,39.062,58.594,0
1483986169.462,15.625,20.020,39.062,39.551,59.082,0
1483986169.466,13.184,19.043,31.250,44.922,41.016,0
1483986169.470,22.461,20.996,37.109,62.988,55.664,0
1483986169.474,18.555,21.484,42.480,55.176,54.688,0
1483986169.477,14.648,22.949,32.227,41.016,8.301,0
1483986169.481,26.367,25.879,34.180,44.434,22.949,0
1483986169.485,27.344,23.438,33.691,38.574,62.012,0
1483986169.489,18.066,17.090,30.273,30.273,43.945,0
1483986169.493,15.137,14.160,25.391,39.551,29.297,0
1483986169.497,9.766,12.695,33.203,41.016,68.848,0
1483986169.501,-1.465,14.160,50.781,41.016,32.227,0
1483986169.505,1.465,15.625,40.527,39.062,3.906,0
1483986169.509,3.906,7.324,20.996,27.832,29.297,0
1483986169.513,8.301,9.277,31.738,30.273,41.992,0
1483986169.517,13.672,21.484,42.969,36.621,48.828,0
1483986169.520,9.277,20.020,29.297,34.668,32.715,0
1483986169.524,6.348,14.160,18.555,26.855,32.227,0
1483986169.528,-4.395,7.324,21.973,17.578,56.641,0
1483986169.532,-18.555,6.348,35.645,20.508,25.879,0
1483986169.536,-20.020,9.766,41.016,21.484,-5.859,0
1483986169.540,-4.395,13.184,31.250,19.531,30.762,0
1483986169.544,7.324,21.973,24.902,25.391,85.938,0
1483986169.548,6.836,29.297,34.668,34.668,60.059,0
1483986169.552,4.395,26.855,35.156,37.598,47.852,0
1483986169.556,2.930,17.090,17.090,32.715,48.828,0
1483986169.559,4.883,13.184,5.859,33.691,48.828,0
1483986169.563,-1.953,20.508,14.648,42.480,50.293,0
1483986169.567,-6.348,22.461,34.668,45.410,9.277,0
1483986169.571,10.254,21.484,44.922,44.922,51.270,0
1483986169.575,10.742,18.555,23.926,42.480,73.730,0
1483986169.579,-8.301,13.184,15.625,36.621,22.461,0
1483986169.583,-17.578,13.672,30.762,39.062,26.855,0
1483986169.587,-0.488,18.066,42.969,52.734,41.016,0
1483986169.591,17.090,28.320,47.363,48.340,53.223,0
1483986169.595,14.160,29.297,23.926,36.621,65.918,0
1483986169.599,1.953,18.066,1.953,41.016,33.203,0
1483986169.602,-6.348,12.695,17.090,43.457,42.480,0
1483986169.606,-6.348,11.719,29.297,40.527,68.848,0
1483986169.610,-9.766,14.648,38.574,40.527,42.969,0
1483986169.614,-8.789,16.602,58.105,43.457,2.441,0
1483986169.618,-0.488,14.648,53.223,41.992,35.156,0
1483986169.622,-4.395,8.301,32.227,32.227,73.730,0
1483986169.626,-1.953,12.695,32.715,28.809,54.688,0
1483986169.630,1.953,17.578,23.438,27.344,29.297,0
1483986169.634,-8.789,7.812,-1.953,22.461,31.738,0
1483986169.638,-3.418,4.883,14.160,22.461,31.250,0
1483986169.642,12.695,14.160,31.250,24.902,31.250,0
1483986169.645,14.160,20.508,41.016,25.391,2.930,0
1483986169.649,11.719,20.508,52.734,27.344,2.441,0
1483986169.653,6.348,16.602,39.062,24.902,8.301,0
1483986169.657,6.348,16.602,22.461,23.438,12.207,0
1483986169.661,9.766,19.531,18.555,18.555,26.855,0
1483986169.665,8.301,22.461,13.184,15.625,17.090,0
1483986169.669,11.230,16.602,16.113,20.996,-1.465,0
1483986169.673,14.648,12.695,24.902,12.695,-16.602,0
1483986169.677,18.555,17.090,42.480,6.348,35.645,0
1483986169.681,13.184,18.555,56.152,6.836,59.570,0
1483986169.684,8.301,18.555,41.504,7.812,29.785,0
1483986169.688,16.113,25.879,27.344,13.184,22.949,0
1483986169.692,24.902,32.227,21.484,18.555,34.668,0
1483986169.696,16.602,29.297,10.742,21.973,20.996,0
1483986169.700,14.160,26.367,16.113,17.090,0.000,0
1483986169.704,27.832,29.297,33.203,28.320,6.836,0
1483986169.708,30.762,25.391,26.855,36.621,30.273,0
1483986169.712,11.719,14.648,18.555,24.902,8.789,0
1483986169.716,-2.441,18.066,26.367,27.832,6.836,0
1483986169.720,8.789,22.461,46.387,36.133,25.391,0
1483986169.724,19.043,27.832,49.316,40.039,19.531,0
1483986169.727,19.531,38.086,35.156,42.969,33.691,0
1483986169.731,17.090,35.645,27.344,40.527,32.715,0
1483986169.735,16.602,26.367,31.738,35.156,23.926,0
1483986169.739,21.484,26.855,42.480,41.016,29.785,0
1483986169.743,10.254,23.926,34.180,38.086,24.902,0
1483986169.747,-1.465,17.090,19.043,40.039,-19.043,0
1483986169.751,11.230,16.113,20.996,43.945,21.973,0
1483986169.755,26.855,23.926,42.969,42.969,53.711,0
1483986169.759,22.949,30.273,54.688,41.992,29.297,0
1483986169.763,12.207,24.902,39.062,41.504,48.828,0
1483986169.767,13.184,29.297,34.668,51.270,43.945,0
1483986169.770,20.508,32.227,34.668,47.363,56.152,0
1483986169.774,24.414,29.785,34.668,50.293,49.316,0
1483986169.778,26.367,40.039,35.156,53.711,33.203,0
1483986169.782,23.926,37.109,24.414,37.598,42.480,0
1483986169.786,22.461,27.832,37.598,32.227,31.250,0
1483986169.790,23.438,24.902,45.410,32.715,8.789,0
1483986169.794,18.555,19.531,24.414,34.180,-3.906,0
1483986169.798,13.672,21.484,26.855,39.062,18.555,0
1483986169.802,11.719,24.902,40.039,37.598,44.434,0
1483986169.806,18.066,25.879,41.992,38.086,2.930,0
1483986169.809,39.062,35.156,35.156,52.246,-27.832,0
1483986169.813,42.969,41.504,21.484,41.992,31.250,0
1483986169.817,29.785,40.527,26.367,34.180,40.039,0
1483986169.821,22.461,32.715,28.809,32.227,20.996,0
1483986169.825,29.785,34.180,33.203,28.320,32.715,0
1483986169.829,30.273,37.109,51.270,30.762,7.324,0
1483986169.833,9.277,26.855,32.715,24.414,-15.137,0
1483986169.837,4.395,18.555,20.996,16.602,-17.090,0
1483986169.841,21.484,21.973,34.180,23.438,2.441,0
1483986169.845,18.066,21.973,25.391,20.020,21.973,0
1483986169.849,0.000,19.531,4.883,14.160,-9.766,0
1483986169.852,9.766,30.762,15.625,29.785,-18.066,0
1483986169.856,28.320,36.133,25.879,35.156,20.996,0
1483986169.860,22.949,23.926,28.320,29.297,63.477,0
1483986169.864,15.625,20.996,32.227,32.227,41.016,0
1483986169.868,23.926,29.785,36.133,35.645,6.836,0
1483986169.872,21.973,23.926,40.527,35.156,16.602,0
1483986169.876,15.137,20.996,29.785,39.062,26.367,0
1483986169.880,11.719,21.484,29.785,29.297,34.668,0
1483986169.884,10.254,20.020,26.855,14.160,12.695,0
1483986169.888,21.484,20.996,7.324,23.438,7.812,0
1483986169.892,27.832,25.391,14.160,29.785,13.184,0
1483986169.895,15.625,29.785,24.902,30.273,-23.926,0
1483986169.899,15.625,28.320,34.180,35.156,-9.766,0
1483986169.903,31.738,30.273,43.457,35.156,35.156,0
1483986169.907,32.227,30.273,33.203,35.645,7.812,0
1483986169.911,26.367,27.832,39.062,47.852,-31.250,0
1483986169.915,21.973,29.785,33.203,45.898,-12.207,0
1483986169.919,16.113,26.367,11.719,31.250,0.488,0
1483986169.923,16.113,20.996,7.812,31.250,8.301,0
1483986169.927,17.090,20.996,17.578,38.574,21.973,0
1483986169.931,9.277,26.367,28.320,36.133,-2.930,0
1483986169.934,12.207,24.414,33.691,24.902,-16.602,0
1483986169.938,12.695,16.113,32.715,21.484,-1.465,0
1483986169.942,15.137,23.438,44.922,26.855,-14.648,0
1483986169.946,23.926,30.762,62.988,32.715,2.441,0
1483986169.950,17.090,25.879,48.828,31.738,12.207,0
1483986169.954,13.672,17.090,20.020,30.273,2.441,0
1483986169.958,18.555,14.648,12.207,32.227,9.766,0
