timestamps,TP9,AF7,AF8,TP10,Right AUX,Marker0
1483999008.339,53.711,51.758,56.641,42.969,47.363,0
1483999008.343,35.156,28.809,34.668,25.879,8.301,0
1483999008.347,29.297,26.855,24.902,21.973,42.969,0
1483999008.351,30.762,25.391,45.898,25.879,71.777,0
1483999008.355,37.109,30.762,50.781,34.668,34.668,0
1483999008.358,36.621,26.855,44.434,33.691,33.691,0
1483999008.362,31.738,13.672,37.598,22.949,6.836,0
1483999008.366,43.457,27.832,42.480,34.180,9.277,0
1483999008.370,52.734,43.457,61.035,46.875,49.316,0
1483999008.374,42.969,30.273,53.223,35.156,-4.395,0
1483999008.378,31.250,24.414,30.762,22.461,-1.465,0
1483999008.382,24.414,27.344,20.020,17.090,44.434,0
1483999008.386,25.391,22.461,29.297,20.508,27.344,0
1483999008.390,23.926,13.672,38.574,21.484,-7.324,0
1483999008.394,23.926,15.137,46.387,20.508,22.949,0
1483999008.397,25.391,25.391,54.688,21.484,56.641,0
1483999008.401,16.602,18.555,35.645,16.602,47.852,0
1483999008.405,19.043,14.160,28.809,18.066,38.086,0
1483999008.409,30.762,29.785,54.688,29.297,15.137,0
1483999008.413,31.250,38.086,62.012,34.180,43.457,0
1483999008.417,21.973,32.227,41.992,24.414,31.250,0
1483999008.421,12.695,17.578,35.156,6.836,36.133,0
1483999008.425,11.719,16.113,21.484,3.418,64.453,0
1483999008.429,26.855,30.273,27.344,22.461,37.109,0
1483999008.433,27.344,22.461,32.227,24.414,33.203,0
1483999008.437,15.137,13.672,19.531,12.207,45.410,0
1483999008.440,37.109,33.203,45.410,33.203,78.125,0
1483999008.444,54.199,43.945,68.359,49.805,40.039,0
1483999008.448,52.246,33.691,60.547,48.828,22.461,0
1483999008.452,35.156,21.484,44.434,31.250,42.969,0
1483999008.456,18.555,12.207,41.504,15.625,53.223,0
1483999008.460,21.973,6.348,41.016,20.508,46.387,0
1483999008.464,33.203,22.949,37.598,29.297,27.344,0
1483999008.468,24.902,26.855,44.434,17.090,40.039,0
1483999008.472,11.719,11.230,42.969,5.859,49.316,0
1483999008.476,19.043,19.531,44.434,20.508,68.359,0
1483999008.480,24.414,26.855,46.875,29.297,62.988,0
1483999008.483,9.277,15.137,40.039,15.625,53.223,0
1483999008.487,0.000,10.742,37.598,5.859,77.148,0
1483999008.491,27.832,28.809,46.387,26.367,76.660,0
1483999008.495,34.180,39.551,48.340,33.203,57.129,0
1483999008.499,19.043,25.879,44.434,24.414,64.453,0
1483999008.503,16.602,13.672,50.781,23.926,65.918,0
1483999008.507,17.090,20.508,43.945,20.996,33.203,0
1483999008.511,23.926,23.926,37.598,23.438,24.414,0
1483999008.515,24.414,20.020,43.945,24.902,46.875,0
1483999008.519,17.090,15.137,40.527,20.020,55.176,0
1483999008.522,11.230,7.324,32.715,10.254,57.129,0
1483999008.526,20.996,11.230,40.039,20.508,68.359,0
1483999008.530,31.738,19.043,45.410,34.668,80.566,0
1483999008.534,41.016,24.414,49.805,39.062,92.773,0
1483999008.538,39.062,19.043,48.828,36.133,74.219,0
1483999008.542,15.137,1.465,22.949,15.137,20.020,0
1483999008.546,9.766,2.441,30.762,12.695,17.578,0
1483999008.550,25.391,16.602,58.105,30.273,33.203,0
1483999008.554,31.738,20.508,61.035,38.086,12.207,0
1483999008.558,24.414,8.789,41.992,25.879,23.438,0
1483999008.562,15.625,2.930,30.273,15.625,15.625,0
1483999008.565,17.578,9.277,38.574,17.578,0.000,0
1483999008.569,31.738,18.555,51.758,32.227,24.902,0
1483999008.573,28.809,12.695,41.016,32.715,35.156,0
1483999008.577,28.320,11.719,39.551,37.598,27.344,0
1483999008.581,21.973,8.789,53.711,30.273,8.301,0
1483999008.585,14.648,8.789,59.570,19.043,18.066,0
1483999008.589,17.578,19.043,59.082,19.043,20.996,0
1483999008.593,15.625,14.648,43.945,13.672,20.996,0
1483999008.597,14.648,7.324,34.180,13.672,25.879,0
1483999008.601,16.602,10.254,38.574,16.113,35.156,0
1483999008.605,22.461,15.625,44.434,20.996,46.387,0
1483999008.608,22.461,17.090,50.293,26.855,16.113,0
1483999008.612,20.996,17.578,47.852,24.902,20.020,0
1483999008.616,21.973,12.695,58.594,24.414,23.926,0
1483999008.620,19.531,2.930,71.289,24.414,29.297,0
1483999008.624,21.484,12.695,52.734,26.855,29.785,0
1483999008.628,25.879,20.508,32.715,30.762,-4.395,0
1483999008.632,21.484,3.418,37.109,24.902,-3.906,0
1483999008.636,29.297,11.719,59.570,36.133,35.645,0
1483999008.640,27.344,20.508,54.688,34.180,19.043,0
1483999008.644,29.297,27.832,53.711,39.551,-11.719,0
1483999008.647,35.645,33.203,68.359,49.805,37.598,0
1483999008.651,8.301,0.488,43.945,15.137,49.805,0
1483999008.655,12.695,-0.977,45.898,14.160,19.531,0
1483999008.659,37.109,34.668,70.801,41.992,24.902,0
1483999008.663,30.762,21.484,59.082,37.598,61.035,0
1483999008.667,24.902,2.930,43.457,28.809,49.316,0
1483999008.671,26.855,20.508,39.551,32.227,23.926,0
1483999008.675,19.531,21.973,44.434,31.250,40.039,0
1483999008.679,12.695,13.672,69.336,29.785,44.922,0
1483999008.683,14.648,23.438,75.195,30.762,36.621,0
1483999008.687,15.625,30.762,69.336,28.809,5.859,0
1483999008.690,0.000,11.230,49.805,12.207,9.766,0
1483999008.694,-4.395,0.488,37.109,7.324,45.410,0
1483999008.698,20.508,20.020,55.664,34.668,7.812,0
1483999008.702,32.227,33.203,67.871,49.316,11.719,0
1483999008.706,26.367,28.320,68.848,40.527,62.500,0
1483999008.710,20.508,13.672,60.059,30.273,64.453,0
1483999008.714,26.367,12.695,61.035,35.645,34.180,0
1483999008.718,36.133,28.809,66.406,46.875,21.973,0
1483999008.722,27.344,19.531,48.340,35.645,38.574,0
1483999008.726,28.320,19.043,46.875,35.156,12.207,0
1483999008.730,24.414,18.066,42.969,33.691,13.672,0
1483999008.733,15.625,-1.953,29.785,21.484,31.738,0
1483999008.737,29.785,5.859,45.410,33.691,19.531,0
1483999008.741,38.086,24.414,56.641,46.387,47.852,0
1483999008.745,43.945,32.715,62.012,52.246,12.207,0
1483999008.749,38.574,22.949,69.824,42.480,-28.320,0
1483999008.753,34.180,25.391,59.570,38.574,21.973,0
1483999008.757,38.086,41.504,54.199,45.898,57.617,0
1483999008.761,28.320,24.902,53.223,35.645,18.066,0
1483999008.765,18.066,4.883,38.574,27.832,-21.484,0
1483999008.769,5.371,-6.348,31.738,20.508,-0.488,0
1483999008.772,7.324,-2.441,38.086,18.066,9.766,0
1483999008.776,20.996,11.230,45.898,29.785,24.414,0
1483999008.780,32.715,16.113,56.152,42.480,33.691,0
1483999008.784,33.691,22.949,72.266,46.387,26.367,0
1483999008.788,29.785,24.902,64.453,41.992,33.203,0
1483999008.792,21.484,24.414,49.805,32.715,16.113,0
1483999008.796,9.766,11.719,29.785,19.531,15.625,0
1483999008.800,15.137,10.254,25.391,17.578,63.965,0
1483999008.804,29.785,21.973,57.617,34.180,54.199,0
1483999008.808,30.273,17.090,60.547,38.574,3.418,0
1483999008.812,31.738,13.184,49.316,40.039,27.344,0
1483999008.815,39.551,18.555,57.129,47.852,34.180,0
1483999008.819,46.875,29.785,69.336,56.152,36.133,0
1483999008.823,47.852,35.156,76.172,57.129,22.461,0
1483999008.827,41.992,37.598,66.406,44.922,8.301,0
1483999008.831,36.133,31.250,44.922,39.062,38.574,0
1483999008.835,34.668,14.648,43.945,41.992,47.363,0
1483999008.839,38.086,18.555,54.199,41.016,2.930,0
1483999008.843,33.203,23.438,52.734,38.086,15.137,0
1483999008.847,27.832,12.207,51.270,35.645,64.941,0
1483999008.851,41.016,22.949,56.152,45.898,25.879,0
1483999008.855,46.875,35.645,59.570,55.176,14.648,0
1483999008.858,35.156,17.578,43.945,41.992,39.062,0
1483999008.862,35.156,16.602,40.527,38.574,37.598,0
1483999008.866,43.457,30.762,58.594,49.316,19.531,0
1483999008.870,40.039,28.809,66.406,47.852,13.184,0
1483999008.874,24.414,12.695,51.758,31.738,34.668,0
1483999008.878,22.949,20.508,49.316,26.855,39.062,0
1483999008.882,28.809,29.297,59.082,31.250,15.137,0
1483999008.886,16.113,7.812,41.504,21.973,18.066,0
1483999008.890,18.066,17.578,40.527,23.438,55.176,0
1483999008.894,36.133,28.809,60.059,33.691,25.879,0
1483999008.897,35.156,17.090,53.711,33.203,-24.414,0
1483999008.901,18.066,8.301,25.391,17.090,2.930,0
1483999008.905,9.277,10.742,36.133,5.371,40.039,0
1483999008.909,21.484,28.320,61.035,22.461,19.531,0
1483999008.913,30.762,39.062,60.547,34.668,18.066,0
1483999008.917,23.438,28.320,51.270,25.391,45.410,0
1483999008.921,19.043,12.695,30.762,18.555,17.090,0
1483999008.925,28.809,14.648,25.391,26.855,-3.906,0
1483999008.929,28.809,20.508,27.832,26.855,0.977,0
1483999008.933,29.785,21.484,39.062,25.879,0.977,0
1483999008.937,26.367,18.555,44.434,20.020,25.391,0
1483999008.940,25.391,27.344,49.805,17.090,-7.812,0
1483999008.944,26.367,27.832,53.223,19.043,-36.133,0
1483999008.948,27.344,19.531,31.250,20.508,26.367,0
1483999008.952,34.180,23.438,29.785,31.738,31.250,0
1483999008.956,44.434,27.832,48.828,41.504,8.789,0
1483999008.960,39.062,21.973,43.945,33.203,4.395,1
1483999008.964,38.574,25.391,34.668,32.227,17.090,0
1483999008.968,41.016,28.809,41.992,33.203,7.324,0
1483999008.972,19.043,3.418,24.414,15.137,4.883,0
1483999008.976,30.762,35.156,40.527,33.203,0.000,0
1483999008.980,37.109,53.223,51.270,40.527,6.348,0
1483999008.983,15.625,20.996,30.273,17.578,5.371,0
1483999008.987,29.785,26.367,41.992,25.879,-13.184,0
1483999008.991,48.340,35.156,45.410,38.574,16.602,0
1483999008.995,30.762,19.531,27.832,24.414,25.391,0
1483999008.999,16.602,6.836,17.578,12.695,9.766,0
1483999009.003,29.297,31.738,29.297,25.879,10.742,0
1483999009.007,41.016,44.434,44.922,38.086,19.043,0
1483999009.011,49.316,39.551,47.852,44.922,18.066,0
1483999009.015,44.434,37.598,37.598,39.062,22.949,0
1483999009.019,31.738,18.555,25.879,30.762,31.738,0
1483999009.022,34.668,18.066,24.414,36.133,38.574,0
1483999009.026,48.340,31.250,28.320,48.828,65.430,0
1483999009.030,54.199,31.738,37.109,50.293,58.105,0
1483999009.034,56.152,36.621,44.434,52.734,4.883,0
1483999009.038,51.270,38.574,39.062,52.246,31.738,0
1483999009.042,45.410,27.832,32.227,43.945,52.246,0
1483999009.046,44.434,27.832,41.016,43.457,23.438,0
1483999009.050,40.527,34.668,37.598,40.527,14.648,0
1483999009.054,27.344,38.574,23.926,30.273,31.738,0
1483999009.058,21.484,31.250,34.668,23.926,15.625,0
1483999009.062,20.020,11.230,28.809,20.996,16.602,0
1483999009.065,31.250,23.438,16.113,29.297,36.133,0
1483999009.069,37.598,30.762,42.480,33.203,43.457,0
1483999009.073,26.367,24.414,46.875,25.879,32.227,0
1483999009.077,30.762,29.297,38.086,32.227,5.371,0
1483999009.081,40.039,36.133,45.898,40.039,5.859,0
1483999009.085,33.691,28.809,48.340,36.621,25.391,0
1483999009.089,22.461,15.625,35.645,25.879,20.508,0
1483999009.093,35.156,34.180,38.574,34.668,25.391,0
1483999009.097,38.086,36.621,34.180,36.621,52.246,0
1483999009.101,36.621,25.391,36.133,34.668,29.785,0
1483999009.105,40.039,22.949,42.480,36.621,27.344,0
1483999009.108,39.062,22.461,40.039,31.250,35.645,0
1483999009.112,52.734,33.203,48.340,44.434,38.086,0
1483999009.116,58.594,32.227,48.340,51.758,48.340,0
1483999009.120,58.105,32.227,35.156,51.270,32.715,0
1483999009.124,64.453,46.875,24.414,62.012,15.137,0
1483999009.128,55.176,42.480,27.344,48.340,22.461,0
1483999009.132,53.223,31.250,32.227,45.410,48.828,0
1483999009.136,62.988,25.879,43.945,55.664,44.922,0
1483999009.140,59.082,25.879,41.504,48.340,34.668,0
1483999009.144,59.082,32.715,38.574,49.316,52.246,0
1483999009.147,57.617,32.715,36.621,47.852,55.176,0
1483999009.151,44.434,20.020,28.809,38.086,36.621,0
1483999009.155,41.992,23.438,37.109,38.574,28.320,0
1483999009.159,43.457,34.668,41.504,37.598,16.602,0
1483999009.163,23.438,19.531,25.879,20.996,18.555,0
1483999009.167,21.484,18.066,23.926,26.855,9.766,0
1483999009.171,37.598,27.832,34.180,41.992,24.414,0
1483999009.175,50.781,32.715,46.387,53.223,65.430,0
1483999009.179,53.223,41.504,55.176,55.176,32.227,0
1483999009.183,43.457,41.504,44.922,38.086,2.441,0
1483999009.187,20.996,18.066,28.809,17.090,5.859,0
1483999009.190,11.719,3.418,10.742,8.789,18.555,0
1483999009.194,24.902,12.207,9.766,18.555,13.672,0
1483999009.198,38.574,25.879,41.992,32.715,-2.930,0
1483999009.202,45.898,32.715,59.082,37.598,-1.465,0
1483999009.206,40.039,24.414,43.945,30.273,26.367,0
1483999009.210,36.621,27.344,33.203,25.391,36.133,0
1483999009.214,46.875,36.133,29.785,33.203,-0.977,0
1483999009.218,58.105,39.551,38.086,47.363,-4.395,0
1483999009.222,42.969,27.344,31.250,36.133,0.977,0
1483999009.226,29.297,6.348,17.578,20.020,-7.812,0
1483999009.230,40.527,17.090,30.273,32.227,23.438,0
1483999009.233,46.387,26.367,32.227,42.969,54.199,0
1483999009.237,45.410,20.020,24.414,41.992,38.574,0
1483999009.241,53.711,31.738,38.086,48.828,31.250,0
1483999009.245,41.992,28.809,42.969,38.086,46.875,0
1483999009.249,40.527,26.367,40.527,35.645,45.410,0
1483999009.253,51.758,49.316,41.504,44.922,53.223,0
1483999009.257,55.664,58.594,47.852,47.852,13.672,0
1483999009.261,45.410,33.203,37.598,38.086,3.418,0
1483999009.265,22.461,5.371,16.113,14.648,44.922,0
1483999009.269,21.484,13.672,23.438,16.602,31.738,0
1483999009.272,41.016,33.203,36.621,34.668,30.762,0
1483999009.276,41.016,32.715,35.156,34.668,26.367,0
1483999009.280,15.137,19.531,38.574,13.184,39.551,0
1483999009.284,24.902,31.250,42.969,24.902,29.785,0
1483999009.288,40.039,33.203,43.457,40.527,2.930,0
1483999009.292,36.133,26.855,55.176,40.527,49.316,0
1483999009.296,51.758,44.922,71.777,62.012,51.270,0
1483999009.300,37.598,28.809,43.945,45.410,6.836,0
1483999009.304,17.578,7.812,12.207,20.020,10.742,0
1483999009.308,35.645,25.391,29.785,32.227,30.762,0
1483999009.312,42.480,37.109,36.621,39.062,38.574,0
1483999009.315,40.039,37.109,28.320,36.621,36.621,0
1483999009.319,36.133,27.344,29.297,31.738,28.809,0
1483999009.323,45.410,31.250,47.363,40.039,25.391,0
1483999009.327,52.734,38.086,59.082,46.387,32.715,0
1483999009.331,45.898,26.855,43.945,39.062,39.551,0
1483999009.335,44.922,33.203,33.691,39.551,21.973,0
1483999009.339,37.598,35.156,32.715,39.551,38.574,0
1483999009.343,27.832,16.602,28.320,27.832,44.434,0
1483999009.347,38.086,23.926,40.527,35.645,27.832,0
1483999009.351,38.086,29.785,43.457,33.203,10.742,0
1483999009.355,38.574,29.297,43.457,26.367,29.785,0
1483999009.358,47.852,26.367,59.082,40.527,26.367,0
1483999009.362,41.016,19.531,52.246,39.062,10.742,0
1483999009.366,23.438,14.160,35.156,23.438,45.410,0
1483999009.370,20.020,10.742,25.879,16.113,29.297,0
1483999009.374,39.062,28.809,33.691,33.203,21.973,0
1483999009.378,42.969,33.691,28.320,35.156,49.316,0
1483999009.382,41.504,35.645,36.133,31.250,45.410,0
1483999009.386,43.457,31.738,47.363,31.738,36.621,0
1483999009.390,34.180,19.531,33.203,26.367,7.812,0
1483999009.394,18.555,7.812,26.367,13.672,-1.465,0
1483999009.397,15.625,12.207,25.879,9.277,14.160,0
1483999009.401,19.531,22.461,23.438,15.625,34.668,0
1483999009.405,25.879,26.855,18.555,22.461,44.922,0
1483999009.409,33.691,29.785,29.785,30.273,17.090,0
1483999009.413,28.809,18.555,27.344,27.344,27.344,0
1483999009.417,29.785,16.113,33.691,32.715,45.410,0
1483999009.421,27.344,16.113,31.250,31.738,32.715,0
1483999009.425,27.344,15.625,35.645,28.320,32.227,0
1483999009.429,33.691,23.926,45.898,29.785,60.059,0
1483999009.433,26.367,24.414,24.902,22.461,32.227,0
1483999009.437,35.645,32.227,22.949,31.738,24.414,0
1483999009.440,47.363,35.156,37.109,43.457,45.410,0
1483999009.444,36.621,18.066,48.340,39.551,55.176,0
1483999009.448,25.391,4.395,25.879,30.273,48.828,0
1483999009.452,22.461,-0.977,8.789,26.855,-1.953,0
1483999009.456,47.363,29.297,52.246,48.828,15.137,0
1483999009.460,54.688,42.480,63.477,52.734,28.809,0
1483999009.464,30.762,27.344,34.668,30.762,28.809,0
1483999009.468,27.832,34.180,24.902,27.832,34.180,0
1483999009.472,37.598,40.527,35.156,37.598,28.809,0
1483999009.476,48.828,34.180,55.176,47.852,67.383,0
1483999009.480,39.551,10.254,47.852,37.598,68.848,0
1483999009.483,34.180,6.836,39.551,34.180,52.246,0
1483999009.487,32.227,24.414,45.410,32.227,58.105,0
1483999009.491,32.227,35.645,38.574,30.762,41.504,0
1483999009.495,39.551,43.457,36.133,40.039,23.438,0
1483999009.499,35.156,39.551,41.992,39.062,9.766,0
1483999009.503,21.484,21.484,35.645,24.414,24.902,0
1483999009.507,15.137,9.766,30.762,15.137,22.949,0
1483999009.511,21.973,17.090,31.738,21.973,-15.137,0
1483999009.515,42.969,42.480,47.363,40.039,20.020,0
1483999009.519,44.434,44.922,59.082,37.109,58.594,0
1483999009.522,40.039,28.320,54.688,34.180,64.453,0
1483999009.526,33.203,19.043,28.809,29.297,38.086,0
1483999009.530,39.062,29.785,33.691,36.133,19.043,0
1483999009.534,44.434,35.156,46.875,42.480,42.480,0
1483999009.538,40.527,35.156,36.621,34.180,29.785,0
1483999009.542,42.480,37.598,35.156,29.785,3.906,0
1483999009.546,44.434,42.480,42.480,34.668,29.297,0
1483999009.550,41.992,38.086,30.762,34.668,32.715,0
1483999009.554,37.109,31.250,19.043,25.391,-11.230,0
1483999009.558,41.016,34.180,41.504,31.738,4.395,0
1483999009.562,41.992,31.738,48.340,34.180,17.090,0
1483999009.565,42.480,31.738,39.062,30.762,3.906,0
1483999009.569,34.180,20.996,27.832,23.926,7.324,0
1483999009.573,24.902,23.438,22.949,20.020,7.324,0
1483999009.577,35.645,42.480,28.320,27.832,14.160,0
1483999009.581,40.527,31.250,29.785,27.344,-4.883,0
1483999009.585,41.016,31.738,33.691,30.273,-30.273,0
1483999009.589,46.387,33.203,33.691,33.203,-36.621,0
1483999009.593,42.969,18.066,24.414,27.832,8.789,0
1483999009.597,46.387,15.625,28.320,37.109,53.711,0
1483999009.601,58.594,36.621,40.527,50.781,46.387,0
1483999009.605,41.504,43.945,36.621,36.133,12.207,0
1483999009.608,26.367,26.855,17.578,20.020,45.898,0
1483999009.612,23.926,16.113,6.836,15.137,58.594,0
1483999009.616,17.090,11.230,13.672,10.742,26.855,0
1483999009.620,31.250,24.414,31.738,26.855,41.992,0
1483999009.624,38.574,32.715,47.363,38.574,41.992,0
1483999009.628,41.504,33.691,50.781,45.410,7.812,0
1483999009.632,44.434,26.855,47.363,44.922,-6.348,0
1483999009.636,41.016,28.320,44.434,40.039,36.621,0
1483999009.640,40.039,27.832,41.016,32.715,55.176,0
1483999009.644,41.504,21.973,25.391,27.832,23.926,0
1483999009.647,31.250,23.926,4.883,18.066,20.020,0
1483999009.651,15.625,11.230,2.930,6.836,27.832,0
1483999009.655,34.180,24.414,30.762,25.391,36.133,0
1483999009.659,51.270,37.109,45.898,42.969,59.082,0
1483999009.663,57.129,41.016,54.688,48.340,60.547,0
1483999009.667,59.570,41.992,62.012,40.527,31.738,0
1483999009.671,50.781,28.809,40.527,35.156,11.230,0
1483999009.675,47.852,31.738,29.785,36.621,24.414,0
1483999009.679,38.574,25.391,23.438,25.879,17.578,0
1483999009.683,47.363,34.180,16.602,32.227,37.109,0
1483999009.687,49.316,37.598,21.973,33.691,40.039,0
1483999009.690,40.527,30.762,24.414,26.855,9.766,0
1483999009.694,51.270,42.480,41.504,36.621,23.438,0
1483999009.698,52.734,42.480,50.293,41.016,30.762,0
1483999009.702,38.574,24.414,40.039,27.832,22.949,0
1483999009.706,38.086,31.738,32.715,27.832,32.715,0
1483999009.710,43.457,43.945,37.598,35.156,45.410,0
1483999009.714,37.598,25.879,28.320,29.297,49.316,0
1483999009.718,24.902,4.883,17.578,14.160,27.344,0
1483999009.722,33.203,19.531,32.227,25.391,21.973,0
1483999009.726,35.645,26.855,19.531,30.762,36.133,0
1483999009.730,25.391,18.066,18.555,20.996,34.180,0
1483999009.733,39.551,39.551,41.016,39.551,60.059,0
1483999009.737,39.062,39.551,32.715,40.039,73.730,0
1483999009.741,34.668,29.785,22.461,28.320,57.617,0
1483999009.745,43.945,25.879,28.320,34.180,58.105,0
1483999009.749,47.852,20.020,47.852,42.480,51.270,0
1483999009.753,48.340,21.973,50.781,42.969,16.602,0
1483999009.757,43.457,23.926,28.320,35.645,22.949,0
1483999009.761,43.457,26.855,24.902,30.762,32.715,0
1483999009.765,43.457,30.762,31.250,34.180,22.461,0
1483999009.769,36.621,36.621,26.855,32.227,9.277,0
1483999009.772,40.039,34.668,34.180,36.621,5.859,0
1483999009.776,37.598,7.324,35.645,32.715,22.461,0
1483999009.780,43.945,20.996,35.156,34.668,25.879,0
1483999009.784,52.734,38.574,38.574,40.527,20.020,0
1483999009.788,42.969,22.949,30.273,26.855,50.781,0
1483999009.792,37.598,19.531,30.273,19.043,40.039,0
1483999009.796,41.016,20.996,43.945,27.344,9.766,0
1483999009.800,46.387,26.855,40.039,36.621,20.508,0
1483999009.804,45.898,29.785,25.391,35.156,57.129,0
1483999009.808,50.293,27.344,37.598,43.457,65.430,0
1483999009.812,43.457,24.414,32.715,41.016,16.113,0
1483999009.815,37.109,28.320,31.250,33.203,19.043,0
1483999009.819,41.504,28.320,35.645,40.039,55.664,0
1483999009.823,34.668,16.602,18.066,32.715,34.668,0
1483999009.827,29.785,12.207,15.625,23.438,-1.953,0
1483999009.831,31.738,15.137,23.438,25.391,42.480,0
1483999009.835,36.621,22.949,31.250,30.762,79.590,0
1483999009.839,45.898,35.156,49.316,40.039,61.523,0
1483999009.843,54.688,41.504,57.129,54.199,40.527,0
1483999009.847,37.598,18.066,46.387,40.039,20.996,0
1483999009.851,24.902,11.230,19.531,24.414,5.859,0
1483999009.855,33.691,29.785,13.184,31.250,-5.859,0
1483999009.858,34.668,17.578,34.180,33.691,21.484,0
1483999009.862,35.156,14.160,42.480,34.180,30.762,0
1483999009.866,43.457,31.738,44.434,40.527,14.160,0
1483999009.870,39.551,27.344,35.645,35.645,32.715,0
1483999009.874,25.391,20.020,25.391,23.926,40.527,0
1483999009.878,36.621,35.645,41.016,37.598,23.926,0
1483999009.882,45.410,41.016,52.246,50.781,26.367,0
1483999009.886,38.086,43.457,38.086,43.945,16.602,0
1483999009.890,29.785,28.320,15.137,29.297,28.320,0
1483999009.894,17.578,2.930,6.348,14.160,65.918,0
1483999009.897,28.320,20.996,30.762,26.367,78.613,0
1483999009.901,33.691,23.926,44.922,32.227,62.500,0
1483999009.905,15.625,1.465,32.715,11.719,35.645,0
1483999009.909,20.020,10.742,32.227,14.648,39.551,0
1483999009.913,44.434,42.969,48.340,41.992,70.801,0
1483999009.917,49.316,51.270,58.594,46.387,30.273,0
1483999009.921,41.016,35.156,41.504,35.645,22.461,0
1483999009.925,37.598,33.203,24.902,30.273,34.180,0
1483999009.929,33.203,29.785,33.203,30.762,28.809,0
1483999009.933,17.578,10.254,35.645,18.066,21.484,0
1483999009.937,11.230,10.742,26.855,7.324,19.531,0
1483999009.940,28.320,19.043,32.715,23.926,15.625,0
1483999009.944,28.320,13.672,37.598,24.414,14.160,0
1483999009.948,10.742,7.324,23.926,5.859,43.457,0
1483999009.952,22.461,22.461,30.762,19.531,42.969,0
1483999009.956,39.062,32.715,45.898,36.133,29.785,0
1483999009.960,37.109,25.391,40.527,31.250,37.598,0
1483999009.964,39.551,33.203,46.875,37.109,36.133,0
1483999009.968,37.598,36.621,64.941,35.645,21.484,0
1483999009.972,35.645,27.832,59.082,29.785,38.086,0
1483999009.976,39.062,33.203,28.809,34.668,32.715,0
1483999009.980,23.926,20.508,10.742,21.484,17.578,0
1483999009.983,15.137,-3.418,9.766,10.254,26.855,0
1483999009.987,26.367,6.348,22.949,20.508,31.738,0
1483999009.991,36.133,24.414,36.621,31.738,28.809,0
1483999009.995,30.762,5.859,28.320,28.809,20.508,0
1483999009.999,30.273,5.371,24.902,28.809,15.625,0
1483999010.003,33.203,20.020,43.945,31.738,15.625,0
1483999010.007,22.949,9.766,35.156,18.066,-13.184,0
1483999010.011,37.598,20.996,27.832,28.809,-22.949,0
1483999010.015,49.316,30.273,43.457,42.969,34.668,0
1483999010.019,31.250,13.184,30.273,26.855,47.852,0
1483999010.022,23.926,15.625,18.066,21.973,19.531,0
1483999010.026,35.645,26.367,30.762,35.645,43.457,0
1483999010.030,25.879,10.254,29.297,25.391,46.875,0
1483999010.034,20.508,2.930,16.602,16.113,34.180,0
1483999010.038,36.621,28.320,24.414,29.785,9.766,0
1483999010.042,28.809,29.785,26.855,19.531,5.371,0
1483999010.046,20.996,8.789,24.414,8.789,15.625,0
1483999010.050,31.738,16.113,34.668,21.484,4.883,0
1483999010.054,33.203,22.461,37.109,26.855,-1.465,0
1483999010.058,36.133,20.996,34.180,31.250,12.695,0
1483999010.062,43.945,36.133,38.086,38.574,45.410,0
1483999010.065,36.133,39.062,31.250,33.203,18.066,0
1483999010.069,31.250,34.668,31.250,22.949,1.465,0
1483999010.073,28.320,23.438,30.762,15.137,47.852,0
1483999010.077,30.273,19.531,31.250,19.531,26.855,0
1483999010.081,30.762,19.531,31.250,22.949,-3.418,0
1483999010.085,31.738,13.672,27.832,27.832,10.742,0
1483999010.089,44.922,30.762,39.062,41.016,20.996,0
1483999010.093,54.688,45.898,56.152,46.875,13.672,0
1483999010.097,60.059,46.387,59.570,46.875,18.555,0
1483999010.101,48.340,32.227,50.293,40.527,21.484,0
1483999010.105,33.203,18.555,36.133,30.273,4.883,0
1483999010.108,31.738,12.207,15.625,29.297,-0.488,0
1483999010.112,38.086,13.184,17.090,35.156,-11.719,0
1483999010.116,51.270,33.691,37.109,43.457,-0.977,0
1483999010.120,52.246,26.855,38.574,40.039,46.875,0
1483999010.124,41.016,10.254,28.809,33.203,33.203,0
1483999010.128,45.410,23.926,36.621,40.527,-12.207,0
1483999010.132,53.223,36.621,40.039,49.316,13.672,0
1483999010.136,43.945,29.785,33.691,40.527,53.711,0
1483999010.140,32.715,17.090,40.039,26.367,20.020,0
1483999010.144,49.316,35.156,55.664,42.480,-8.301,0
1483999010.147,61.523,52.246,60.059,56.152,2.930,0
1483999010.151,43.945,38.086,37.598,40.039,41.016,0
1483999010.155,38.086,37.109,32.715,30.273,54.199,0
1483999010.159,45.898,39.062,33.691,34.180,31.738,0
1483999010.163,44.434,30.762,37.598,39.062,40.527,0
1483999010.167,27.344,18.555,37.109,28.320,42.480,0
1483999010.171,24.902,18.066,26.367,24.414,12.207,0
1483999010.175,32.227,28.320,34.180,30.273,14.648,0
1483999010.179,26.367,33.691,34.668,21.973,40.527,0
1483999010.183,32.227,39.062,34.668,25.391,33.203,0
1483999010.187,44.434,51.270,51.270,38.574,4.883,0
1483999010.190,40.527,55.176,42.969,33.203,15.625,0
1483999010.194,40.527,48.340,40.527,31.738,12.207,0
1483999010.198,40.039,35.645,50.781,32.715,23.438,0
1483999010.202,35.156,24.414,45.898,30.273,12.207,0
1483999010.206,35.645,16.602,36.621,31.738,3.906,0
1483999010.210,36.621,21.973,35.645,34.180,49.805,0
1483999010.214,37.109,29.297,33.691,36.133,19.531,0
1483999010.218,49.805,41.504,39.551,49.316,-14.648,0
1483999010.222,53.223,41.992,44.922,53.223,7.812,0
1483999010.226,41.504,23.438,37.109,39.551,23.926,0
1483999010.230,43.945,25.391,40.039,41.504,29.297,0
1483999010.233,38.574,23.926,41.504,42.969,1.465,2
1483999010.237,35.645,20.020,34.180,40.039,19.043,0
1483999010.241,38.574,23.926,35.645,39.551,28.809,0
1483999010.245,36.621,28.320,33.203,38.574,9.277,0
1483999010.249,37.598,27.832,33.691,38.086,25.391,0
1483999010.253,36.621,21.973,34.668,35.645,38.574,0
1483999010.257,34.180,20.996,34.180,34.668,51.270,0
1483999010.261,34.668,37.109,41.016,38.574,42.969,0
1483999010.265,38.086,40.039,48.340,38.086,39.062,0
1483999010.269,27.832,18.066,28.320,27.344,58.105,0
1483999010.272,12.207,7.324,4.883,11.719,54.199,0
1483999010.276,27.344,17.090,28.809,25.391,24.902,0
1483999010.280,43.945,33.203,49.316,40.039,29.785,0
1483999010.284,29.785,29.785,38.574,26.367,48.340,0
1483999010.288,27.832,31.250,33.691,26.855,60.547,0
1483999010.292,26.855,29.297,31.250,21.973,49.316,0
1483999010.296,15.625,18.066,25.391,15.625,30.762,0
1483999010.300,25.391,26.855,38.574,30.762,60.547,0
1483999010.304,36.133,40.527,56.152,38.086,77.148,0
1483999010.308,31.738,28.320,37.598,27.344,93.262,0
1483999010.312,32.715,28.809,22.461,28.809,83.008,0
1483999010.315,30.273,27.344,33.691,30.762,67.383,0
1483999010.319,30.762,17.090,42.969,28.809,55.664,0
1483999010.323,37.598,20.020,50.293,33.691,70.801,0
1483999010.327,31.250,24.902,40.527,25.391,79.102,0
1483999010.331,32.227,37.598,33.203,27.344,39.062,0
1483999010.335,46.387,52.734,42.480,44.922,41.016,0
1483999010.339,43.945,42.480,41.504,41.504,46.875,0
1483999010.343,31.738,20.996,26.367,32.227,77.637,0
1483999010.347,27.832,12.207,21.484,29.297,101.562,0
1483999010.351,28.809,12.695,23.438,29.785,60.059,0
1483999010.355,50.781,40.039,44.922,47.852,47.852,0
1483999010.358,58.105,48.828,56.152,52.734,82.031,0
1483999010.362,38.086,29.785,37.598,32.227,92.285,0
1483999010.366,29.297,23.926,19.043,21.484,76.172,0
1483999010.370,27.832,19.531,15.137,19.531,77.148,0
1483999010.374,39.062,37.109,30.273,28.320,71.777,0
1483999010.378,51.270,36.621,41.016,40.039,85.938,0
1483999010.382,43.457,15.137,36.621,36.621,72.754,0
1483999010.386,44.434,23.926,29.785,37.109,56.152,0
1483999010.390,60.547,35.156,36.621,53.223,80.566,0
1483999010.394,74.219,48.340,56.152,70.312,69.336,0
1483999010.397,57.129,39.551,35.645,53.223,38.574,0
1483999010.401,37.109,23.926,11.719,28.320,47.363,0
1483999010.405,40.527,23.438,23.926,32.715,73.242,0
1483999010.409,43.945,26.855,30.762,34.180,64.941,0
1483999010.413,53.711,53.223,34.668,45.410,57.129,0
1483999010.417,46.387,34.668,28.320,42.969,65.918,0
1483999010.421,30.273,-1.953,11.719,23.926,51.758,0
1483999010.425,44.922,15.137,22.949,36.621,33.691,0
1483999010.429,58.594,40.039,36.621,50.293,20.508,0
1483999010.433,60.547,39.062,41.992,46.387,57.617,0
1483999010.437,48.828,26.855,33.691,36.621,85.938,0
1483999010.440,37.109,24.902,19.531,25.391,57.129,0
1483999010.444,30.762,15.137,19.531,16.113,46.875,0
1483999010.448,41.016,34.180,35.645,29.785,62.500,0
1483999010.452,47.852,49.316,46.875,40.527,56.641,0
1483999010.456,36.133,26.367,24.902,29.785,20.020,0
1483999010.460,34.180,22.949,19.531,28.320,20.020,0
1483999010.464,30.273,19.043,32.715,23.926,49.805,0
1483999010.468,24.902,18.066,29.297,18.555,33.203,0
1483999010.472,47.363,43.457,49.805,39.551,47.852,0
1483999010.476,56.152,45.410,61.523,51.270,51.270,0
1483999010.480,33.691,21.484,31.250,33.203,45.410,0
1483999010.483,20.508,8.789,18.555,18.066,50.781,0
1483999010.487,34.668,20.508,25.391,29.297,32.227,0
1483999010.491,52.734,38.574,38.574,42.480,53.223,0
1483999010.495,57.129,47.852,47.363,42.969,38.574,0
1483999010.499,44.434,32.227,35.156,33.203,10.254,0
1483999010.503,29.785,17.090,19.043,18.555,48.828,0
1483999010.507,41.016,31.250,38.574,33.691,75.195,0
1483999010.511,52.246,36.621,52.734,49.805,37.598,0
1483999010.515,45.410,21.484,31.250,42.969,1.465,0
1483999010.519,32.227,6.836,17.090,25.391,10.254,0
1483999010.522,38.086,18.555,30.273,28.809,4.883,0
1483999010.526,57.129,41.504,47.852,50.781,29.785,0
1483999010.530,56.152,35.156,50.293,51.758,26.855,0
1483999010.534,51.270,24.902,42.969,48.340,-11.719,0
1483999010.538,49.316,35.156,29.297,47.852,-6.348,0
1483999010.542,38.086,25.391,30.762,36.133,15.137,0
1483999010.546,31.250,10.254,38.574,27.832,21.484,0
1483999010.550,26.855,5.371,31.738,21.973,17.578,0
1483999010.554,34.668,20.996,45.898,27.832,37.109,0
1483999010.558,48.828,46.875,57.617,41.016,39.551,0
1483999010.562,41.992,32.227,35.645,33.691,21.484,0
1483999010.565,39.551,23.438,41.016,33.203,-0.977,0
1483999010.569,42.969,39.062,47.852,41.016,28.809,0
1483999010.573,40.039,40.039,35.156,38.086,41.504,0
1483999010.577,43.457,38.086,33.691,39.062,-13.184,0
1483999010.581,39.062,20.020,29.297,34.180,-18.555,0
1483999010.585,33.203,12.695,19.531,25.391,39.551,0
1483999010.589,39.551,24.414,35.156,28.320,51.758,0
1483999010.593,49.316,26.367,46.387,41.016,-0.488,0
1483999010.597,58.594,31.738,35.645,50.781,-11.230,0
1483999010.601,43.457,19.043,20.020,37.598,44.434,0
1483999010.605,40.039,27.832,21.484,37.598,67.871,0
1483999010.608,48.828,46.387,29.785,46.875,29.785,0
1483999010.612,41.992,33.691,42.480,41.992,-2.441,0
1483999010.616,46.875,32.227,50.293,46.875,11.719,0
1483999010.620,41.992,32.227,39.062,41.504,-6.348,0
1483999010.624,33.691,22.949,43.457,30.762,-17.578,0
1483999010.628,24.414,12.207,30.762,18.066,7.324,0
1483999010.632,22.949,11.230,18.066,16.113,1.465,0
1483999010.636,40.039,28.809,43.457,36.621,-16.113,0
1483999010.640,38.086,33.203,45.410,34.668,-0.488,0
1483999010.644,32.227,35.645,37.598,27.344,55.664,0
1483999010.647,23.438,27.344,35.645,19.531,46.387,0
1483999010.651,26.855,22.461,43.945,20.508,12.695,0
1483999010.655,40.039,34.180,38.574,32.715,3.418,0
1483999010.659,26.855,14.648,28.809,17.578,-20.996,0
1483999010.663,17.090,-6.348,23.926,5.371,18.066,0
1483999010.667,25.879,5.371,18.066,15.137,-1.465,0
1483999010.671,35.645,24.902,34.180,19.531,-43.945,0
1483999010.675,41.992,38.574,48.340,28.320,24.902,0
1483999010.679,40.039,31.738,45.410,29.785,20.996,0
1483999010.683,46.875,25.391,37.598,36.621,35.156,0
1483999010.687,46.875,19.531,24.414,39.062,22.949,0
1483999010.690,40.527,18.555,26.367,34.668,11.719,0
1483999010.694,50.781,41.504,40.527,49.316,26.855,0
1483999010.698,35.645,25.879,24.902,37.598,-4.395,0
1483999010.702,25.879,13.672,19.043,24.902,-6.836,0
1483999010.706,42.969,40.039,41.016,39.062,15.137,0
1483999010.710,42.480,31.250,39.551,40.039,8.301,0
1483999010.714,34.180,16.602,20.020,30.762,-19.043,0
1483999010.718,38.574,22.461,28.809,33.203,6.348,0
1483999010.722,37.109,12.695,44.434,34.668,38.086,0
1483999010.726,42.480,20.508,51.758,41.992,59.082,0
1483999010.730,50.293,42.969,40.527,45.410,38.086,0
1483999010.733,55.176,44.922,35.156,43.457,14.160,3
1483999010.737,47.852,27.832,35.156,41.504,23.926,0
1483999010.741,31.738,19.531,14.160,29.785,12.695,0
1483999010.745,29.785,15.625,19.531,25.391,18.555,0
1483999010.749,26.367,14.648,31.250,20.996,10.254,0
1483999010.753,16.113,24.414,36.621,14.160,6.348,0
1483999010.757,17.090,25.391,35.645,14.160,-7.812,0
1483999010.761,27.832,29.785,41.504,23.438,-3.418,0
1483999010.765,34.668,35.156,50.781,32.227,45.898,0
1483999010.769,31.738,31.738,41.016,29.297,35.156,0
1483999010.772,32.715,29.297,35.156,32.715,31.250,0
1483999010.776,33.203,23.926,39.551,30.762,20.996,0
1483999010.780,25.391,26.367,29.785,20.020,42.969,0
1483999010.784,32.227,40.039,23.926,26.367,51.270,0
1483999010.788,31.738,33.691,26.367,24.902,42.480,0
1483999010.792,26.855,30.273,26.367,20.020,63.965,0
1483999010.796,41.016,41.504,38.086,33.691,37.598,0
1483999010.800,45.410,39.551,46.875,39.062,10.742,0
1483999010.804,39.551,33.203,51.758,33.203,-1.465,0
1483999010.808,51.758,43.945,47.363,43.457,31.738,0
1483999010.812,48.340,29.785,32.715,40.039,30.273,0
1483999010.815,37.598,16.113,29.785,29.297,-3.418,0
1483999010.819,51.758,42.480,37.109,40.527,11.719,0
1483999010.823,49.316,46.387,40.039,41.504,50.293,0
1483999010.827,36.133,25.879,29.297,30.273,40.039,0
1483999010.831,47.852,32.715,39.551,41.016,21.484,0
1483999010.835,55.664,47.852,50.781,51.758,55.664,0
1483999010.839,47.852,38.086,41.992,45.898,69.824,0
1483999010.843,41.504,25.391,37.598,41.016,35.156,0
1483999010.847,41.504,26.367,52.734,41.992,-16.113,0
1483999010.851,28.809,19.043,41.992,30.273,16.113,0
1483999010.855,34.180,28.320,32.715,31.738,65.430,0
1483999010.858,40.527,28.809,41.504,36.133,40.527,0
1483999010.862,35.156,17.578,39.551,31.250,43.945,0
1483999010.866,28.809,16.113,38.574,26.855,50.781,0
1483999010.870,33.203,24.902,55.664,29.785,32.227,0
1483999010.874,31.738,24.414,41.504,26.367,21.484,0
1483999010.878,22.949,24.414,27.344,20.020,39.062,0
1483999010.882,39.551,35.645,42.480,33.203,21.973,0
1483999010.886,37.598,21.973,34.668,29.297,28.320,0
1483999010.890,29.297,7.324,34.668,21.973,21.973,0
1483999010.894,36.621,16.602,46.387,27.344,20.996,0
1483999010.897,39.551,37.109,45.410,30.273,31.250,0
1483999010.901,35.156,33.691,35.156,26.855,33.203,0
1483999010.905,35.645,22.949,29.297,30.762,31.738,0
1483999010.909,35.156,26.367,31.738,31.738,21.973,0
1483999010.913,41.504,32.715,41.992,35.645,41.992,0
1483999010.917,43.457,28.320,39.062,39.062,44.434,0
1483999010.921,32.715,17.090,32.715,30.762,32.715,0
1483999010.925,39.551,26.855,40.039,33.691,53.711,0
1483999010.929,46.875,26.367,45.898,39.551,30.762,0
1483999010.933,63.477,44.434,58.105,58.105,40.039,0
1483999010.937,60.547,44.434,62.500,54.688,41.992,0
1483999010.940,42.480,26.855,37.109,35.156,14.648,0
1483999010.944,35.645,26.367,11.230,27.832,42.480,0
1483999010.948,34.180,25.879,20.508,28.320,41.504,0
1483999010.952,37.109,29.297,33.203,34.668,15.137,0
1483999010.956,39.551,22.949,47.852,39.062,30.273,0
1483999010.960,44.922,21.484,51.270,42.969,53.711,0
1483999010.964,43.945,30.762,40.527,42.480,30.762,0
1483999010.968,36.133,19.043,39.062,37.109,18.066,0
1483999010.972,33.691,15.625,36.133,32.715,58.105,0
1483999010.976,32.715,23.438,40.039,30.762,86.426,0
1483999010.980,30.273,10.742,41.992,28.809,57.129,0
1483999010.983,38.574,13.184,42.480,35.645,47.852,0
1483999010.987,43.457,33.691,41.992,42.480,69.336,0
1483999010.991,38.574,34.180,40.527,39.062,62.988,0
1483999010.995,29.785,18.066,37.109,27.344,30.762,0
1483999010.999,33.203,19.531,40.527,27.344,20.508,0
1483999011.003,37.109,31.738,43.457,35.156,20.020,0
1483999011.007,29.785,22.461,30.762,30.273,25.391,0
1483999011.011,34.180,17.578,36.621,26.855,-8.789,0
1483999011.015,39.551,21.484,44.434,30.273,18.066,0
1483999011.019,38.086,28.320,36.133,28.809,45.898,0
1483999011.022,38.086,34.180,34.180,32.715,19.531,0
1483999011.026,42.969,36.133,38.086,43.457,40.039,0
1483999011.030,36.621,24.902,35.645,37.109,14.648,0
1483999011.034,28.809,19.043,29.297,28.320,39.551,0
1483999011.038,39.062,31.738,25.879,31.250,47.852,0
1483999011.042,44.434,34.180,32.715,35.156,1.465,0
1483999011.046,48.340,29.785,46.387,39.551,19.531,0
1483999011.050,45.898,32.227,54.199,36.621,48.828,0
1483999011.054,39.551,28.809,39.062,27.832,34.668,0
1483999011.058,41.992,37.109,35.156,27.832,2.930,0
1483999011.062,49.805,50.781,45.898,42.969,22.461,0
1483999011.065,41.992,34.668,47.363,36.621,33.691,0
1483999011.069,38.574,30.762,41.504,36.133,38.086,0
1483999011.073,45.410,31.738,28.809,44.922,20.508,0
1483999011.077,37.109,17.578,34.180,34.180,-2.930,0
1483999011.081,42.969,26.855,45.898,41.992,12.695,0
1483999011.085,50.781,40.039,49.316,52.734,-9.277,0
1483999011.089,46.387,37.109,51.270,51.270,2.441,0
1483999011.093,45.898,34.668,38.574,51.270,30.762,0
1483999011.097,45.410,32.715,32.715,51.758,37.109,0
1483999011.101,51.270,35.156,48.828,52.734,22.461,0
1483999011.105,48.340,27.832,41.504,45.898,-0.488,0
1483999011.108,45.410,32.715,36.621,42.480,20.020,0
1483999011.112,36.621,25.391,37.109,35.156,31.250,0
1483999011.116,25.391,11.230,37.109,23.926,32.715,0
1483999011.120,30.762,12.207,38.086,26.367,9.766,0
1483999011.124,33.203,19.531,36.133,29.785,9.277,0
1483999011.128,37.598,33.203,45.898,32.715,60.059,0
1483999011.132,35.645,34.668,41.504,31.738,22.949,0
1483999011.136,27.832,26.367,27.832,22.461,-6.348,0
1483999011.140,32.227,28.320,38.086,24.902,55.176,0
1483999011.144,46.875,39.062,40.527,36.621,43.945,0
1483999011.147,44.922,41.504,36.133,32.227,-13.672,0
1483999011.151,26.367,23.926,36.621,14.648,6.836,0
1483999011.155,24.902,26.855,28.809,11.230,26.367,0
1483999011.159,27.832,31.250,22.461,11.719,20.508,0
1483999011.163,38.086,24.414,33.691,18.066,35.156,0
1483999011.167,44.922,35.645,38.574,25.879,6.836,0
1483999011.171,33.691,32.715,33.691,20.508,7.324,0
1483999011.175,34.668,23.926,41.504,21.484,33.203,0
1483999011.179,40.039,19.531,35.645,24.414,39.551,0
1483999011.183,49.316,32.715,25.879,32.227,11.719,0
1483999011.187,61.035,53.711,31.738,42.969,-9.766,0
1483999011.190,55.664,31.738,27.344,40.039,-4.883,0
1483999011.194,49.805,13.672,32.227,38.086,0.488,0
1483999011.198,44.922,15.137,39.062,37.109,33.203,0
1483999011.202,41.504,18.066,30.273,33.691,35.156,0
1483999011.206,41.504,23.926,24.414,37.598,9.277,0
1483999011.210,42.480,21.973,28.809,42.480,22.949,0
1483999011.214,35.645,12.695,35.645,38.574,44.434,0
1483999011.218,36.133,24.414,47.852,40.039,28.320,0
1483999011.222,55.664,49.805,56.641,56.152,2.930,0
1483999011.226,62.988,48.340,52.246,67.383,17.578,0
1483999011.230,49.805,28.809,52.734,55.664,41.016,0
1483999011.233,42.480,23.438,59.082,49.316,21.484,4
1483999011.237,50.293,43.945,58.105,59.082,5.371,0
1483999011.241,40.527,38.574,44.434,46.875,2.930,0
1483999011.245,23.438,7.324,25.391,24.414,12.207,0
1483999011.249,27.344,16.602,18.555,25.879,8.301,0
1483999011.253,32.715,24.414,34.180,33.691,25.391,0
1483999011.257,36.133,19.043,54.199,33.203,38.086,0
1483999011.261,40.039,18.066,40.039,31.250,26.855,0
1483999011.265,45.898,26.855,30.762,39.062,21.484,0
1483999011.269,57.617,42.969,33.691,49.316,11.719,0
1483999011.272,46.875,30.762,30.273,39.062,11.719,0
1483999011.276,37.598,28.320,33.203,29.297,12.207,0
1483999011.280,43.945,41.992,39.551,34.180,-4.883,0
1483999011.284,42.969,41.016,41.504,32.227,3.906,0
1483999011.288,37.109,31.250,26.855,25.879,22.461,0
1483999011.292,47.363,36.621,15.137,28.809,30.273,0
1483999011.296,46.387,24.902,14.160,20.996,28.320,0
1483999011.300,42.480,8.301,20.020,17.578,11.230,0
1483999011.304,55.664,21.973,21.973,28.809,31.738,0
1483999011.308,51.758,29.297,21.973,29.785,40.039,0
1483999011.312,47.363,35.645,29.297,28.809,24.414,0
1483999011.315,60.547,47.852,34.180,39.551,19.043,0
1483999011.319,62.500,48.828,32.227,43.945,7.812,0
1483999011.323,62.012,37.598,24.414,43.457,15.137,0
1483999011.327,70.801,40.527,35.645,49.316,-18.555,0
1483999011.331,62.988,40.527,43.457,43.457,-23.438,0
1483999011.335,53.711,39.551,36.621,36.133,20.020,0
1483999011.339,47.852,33.203,24.414,32.227,20.020,0
1483999011.343,45.898,30.273,18.555,31.250,6.836,0
1483999011.347,50.293,33.691,32.715,34.668,9.766,0
1483999011.351,43.945,15.625,31.738,28.320,55.176,0
1483999011.355,43.945,13.184,36.133,30.273,53.711,0
1483999011.358,50.293,20.508,41.992,37.598,-0.488,0
1483999011.362,45.898,20.020,25.391,37.598,-23.438,0
1483999011.366,53.711,32.227,37.598,49.316,-7.812,0
1483999011.370,46.387,29.297,39.062,41.992,1.465,0
1483999011.374,38.086,28.320,29.785,35.156,36.621,0
1483999011.378,49.316,42.969,35.156,46.387,44.434,0
1483999011.382,48.340,40.527,33.203,40.527,29.785,0
1483999011.386,37.109,20.508,35.156,34.668,41.016,0
1483999011.390,30.762,7.812,30.273,33.691,8.789,0
1483999011.394,30.273,6.348,36.621,29.785,-1.953,0
1483999011.397,31.250,9.277,44.434,30.762,17.578,0
1483999011.401,33.691,20.020,51.758,35.645,14.648,0
1483999011.405,38.086,31.250,57.617,39.551,25.391,0
1483999011.409,47.852,34.180,50.293,49.805,22.461,0
1483999011.413,39.551,24.902,30.273,40.527,19.531,0
1483999011.417,27.832,25.879,19.043,26.367,-8.301,0
1483999011.421,42.969,39.062,42.969,41.992,-41.504,0
1483999011.425,36.621,24.902,45.898,35.156,11.719,0
1483999011.429,27.832,11.230,35.156,23.926,6.836,0
1483999011.433,31.250,9.766,33.691,27.344,8.301,0
1483999011.437,29.785,17.090,31.738,23.926,37.598,0
1483999011.440,47.852,29.785,35.156,36.133,24.902,0
1483999011.444,62.500,31.738,40.527,47.363,30.762,0
1483999011.448,61.523,37.109,52.734,53.223,39.062,0
1483999011.452,60.547,35.645,51.758,56.152,27.832,0
1483999011.456,58.105,35.156,38.086,49.805,23.926,0
1483999011.460,45.410,23.438,26.855,36.621,16.113,0
1483999011.464,32.227,-6.348,21.484,24.902,-43.457,0
1483999011.468,40.527,16.602,30.762,30.273,-12.207,0
1483999011.472,53.223,42.969,44.922,43.457,44.922,0
1483999011.476,46.875,31.250,36.133,41.504,21.973,0
1483999011.480,31.250,19.531,21.973,25.879,12.207,0
1483999011.483,32.227,27.832,29.785,30.762,25.879,0
1483999011.487,43.945,40.527,43.457,49.316,5.859,0
1483999011.491,42.480,27.832,38.086,47.363,0.488,0
1483999011.495,42.969,21.484,36.133,39.551,8.789,0
1483999011.499,44.922,26.367,41.504,38.086,16.113,0
1483999011.503,31.738,16.113,31.738,28.809,-4.883,0
1483999011.507,33.203,14.160,31.250,31.250,3.906,0
1483999011.511,40.039,28.320,34.668,38.086,34.180,0
1483999011.515,34.668,31.250,34.180,31.738,33.691,0
1483999011.519,46.387,37.109,55.176,40.527,32.715,0
1483999011.522,43.945,32.715,49.805,43.457,12.695,0
1483999011.526,31.250,21.973,26.367,33.691,23.926,0
1483999011.530,32.715,27.344,35.156,33.203,54.199,0
1483999011.534,34.668,32.715,44.434,37.109,45.410,0
1483999011.538,36.621,29.785,39.062,37.598,23.926,0
1483999011.542,42.969,32.715,42.480,40.039,29.297,0
1483999011.546,34.180,34.668,41.016,31.738,36.621,0
1483999011.550,35.156,34.668,41.016,32.227,20.508,0
1483999011.554,48.340,45.410,51.270,39.551,15.137,0
1483999011.558,41.504,43.945,39.062,30.762,28.320,0
1483999011.562,35.156,23.926,22.461,26.855,19.531,0
1483999011.565,39.062,18.555,27.344,32.227,19.043,0
1483999011.569,44.434,33.691,44.922,39.551,32.227,0
1483999011.573,43.945,38.086,45.898,41.016,53.223,0
1483999011.577,45.898,33.691,44.922,42.480,33.203,0
1483999011.581,41.504,39.062,45.410,39.551,16.113,0
1483999011.585,34.668,38.574,42.480,36.621,15.137,0
1483999011.589,36.621,33.691,48.340,36.133,26.367,0
1483999011.593,32.227,28.320,40.527,28.809,11.230,0
1483999011.597,25.879,20.020,35.156,22.949,-10.742,0
1483999011.601,28.809,20.996,42.480,29.297,-12.695,0
1483999011.605,20.508,14.160,36.621,20.020,28.809,0
1483999011.608,17.578,12.695,31.250,12.695,28.809,0
1483999011.612,26.367,23.926,37.598,25.879,23.438,0
1483999011.616,28.809,29.297,37.598,31.738,71.289,0
1483999011.620,33.691,34.668,41.016,33.203,77.637,0
1483999011.624,30.762,34.668,42.969,33.203,34.180,0
1483999011.628,31.250,33.691,43.457,33.203,8.789,0
1483999011.632,24.902,19.531,52.734,26.367,38.574,0
1483999011.636,25.879,15.137,49.805,30.273,41.016,0
1483999011.640,30.273,21.973,32.227,33.691,20.020,0
1483999011.644,23.926,16.602,27.344,22.949,6.348,0
1483999011.647,31.250,29.297,37.109,26.367,11.230,0
1483999011.651,37.598,30.273,41.016,30.762,26.367,0
1483999011.655,25.391,15.625,25.391,20.508,0.488,0
1483999011.659,21.973,20.996,22.949,18.066,-14.160,0
1483999011.663,32.227,30.273,41.992,30.762,10.742,0
1483999011.667,32.715,35.156,49.805,36.133,24.414,0
1483999011.671,28.809,29.297,41.016,29.785,14.160,0
1483999011.675,38.086,18.066,51.270,33.691,12.695,0
1483999011.679,40.039,20.508,46.875,36.133,25.391,0
1483999011.683,38.574,34.668,34.180,37.598,6.836,0
1483999011.687,35.645,33.203,33.691,36.621,-3.418,0
1483999011.690,36.621,31.738,36.621,36.133,36.621,0
1483999011.694,48.340,42.480,48.340,46.875,26.367,0
1483999011.698,46.875,30.762,45.410,50.781,16.602,0
1483999011.702,26.367,10.254,26.367,36.133,29.785,0
1483999011.706,29.785,16.113,20.508,37.109,38.574,0
1483999011.710,47.852,33.691,39.062,51.270,44.434,0
1483999011.714,46.387,32.227,39.551,49.316,26.855,0
1483999011.718,37.598,31.738,37.598,39.551,13.184,0
1483999011.722,36.621,25.879,31.250,31.738,39.062,0
1483999011.726,44.922,25.879,23.926,34.668,33.203,0
1483999011.730,41.504,31.738,27.832,33.203,33.691,0
1483999011.733,41.992,25.391,24.902,34.668,37.598,5
1483999011.737,39.062,24.414,23.926,37.598,-13.184,0
1483999011.741,33.203,29.785,27.832,34.668,-9.277,0
1483999011.745,36.621,29.785,40.039,36.621,48.340,0
1483999011.749,31.738,11.719,40.527,33.691,51.270,0
1483999011.753,34.668,4.395,40.527,35.645,24.414,0
1483999011.757,47.363,24.902,43.945,46.875,56.641,0
1483999011.761,45.898,36.133,27.832,44.922,40.527,0
1483999011.765,42.480,22.949,27.832,36.621,23.926,0
1483999011.769,42.969,14.160,41.016,34.668,52.734,0
1483999011.772,38.574,25.879,35.645,39.551,50.293,0
1483999011.776,28.320,24.902,30.273,33.203,41.016,0
1483999011.780,28.320,21.484,36.133,34.668,21.973,0
1483999011.784,37.598,20.508,43.457,46.875,41.016,0
1483999011.788,34.668,19.531,38.086,44.434,83.496,0
1483999011.792,26.855,22.949,28.320,39.062,55.664,0
1483999011.796,25.879,20.996,31.738,31.738,35.645,0
1483999011.800,25.391,14.648,41.992,30.273,63.477,0
1483999011.804,34.668,27.344,50.293,46.387,81.543,0
1483999011.808,44.434,39.062,55.176,52.734,75.195,0
1483999011.812,35.645,29.297,50.781,41.992,50.781,0
1483999011.815,29.785,31.250,45.410,39.551,55.664,0
1483999011.819,29.785,33.203,46.875,37.598,45.898,0
1483999011.823,26.367,25.391,38.574,32.715,26.855,0
1483999011.827,24.414,14.648,29.785,29.785,53.223,0
1483999011.831,37.598,20.508,33.691,39.551,70.801,0
1483999011.835,33.691,31.738,34.180,40.039,47.852,0
1483999011.839,17.090,19.043,26.367,21.973,27.344,0
1483999011.843,29.297,15.625,23.926,22.949,53.223,0
1483999011.847,44.434,40.039,35.645,39.551,86.914,0
1483999011.851,41.992,43.945,42.969,41.016,62.500,0
1483999011.855,35.156,27.832,38.574,32.227,31.738,0
1483999011.858,40.039,36.133,37.598,30.762,66.406,0
1483999011.862,44.434,42.480,42.480,31.250,77.637,0
1483999011.866,39.062,29.297,46.387,27.344,44.434,0
1483999011.870,22.461,15.625,32.227,10.742,35.156,0
1483999011.874,28.320,18.555,27.344,16.602,34.180,0
1483999011.878,32.715,21.973,34.180,20.020,55.664,0
1483999011.882,27.344,26.855,35.645,13.672,46.387,0
1483999011.886,36.621,33.203,35.156,22.461,8.301,0
1483999011.890,38.086,38.086,48.828,23.926,22.949,0
1483999011.894,44.434,54.199,47.852,31.738,44.434,0
1483999011.897,37.109,34.668,24.414,26.367,40.527,0
1483999011.901,14.648,10.742,16.113,8.789,18.555,0
1483999011.905,20.508,21.973,24.902,19.531,33.691,0
1483999011.909,29.297,19.531,45.898,28.320,36.133,0
1483999011.913,31.250,20.020,45.410,29.785,33.691,0
1483999011.917,31.738,24.902,30.273,31.738,75.195,0
1483999011.921,29.785,21.973,30.273,34.180,66.406,0
1483999011.925,31.738,29.785,33.203,38.574,22.949,0
1483999011.929,28.809,22.461,27.344,36.621,0.977,0
1483999011.933,20.020,6.836,23.926,26.367,50.781,0
1483999011.937,23.438,14.648,28.320,25.391,94.238,0
1483999011.940,36.133,33.203,37.598,42.480,68.359,0
1483999011.944,31.738,26.855,39.551,38.574,44.922,0
1483999011.948,35.645,17.578,34.180,35.645,41.992,0
1483999011.952,44.922,28.320,36.133,42.969,56.641,0
1483999011.956,48.340,39.062,50.293,45.410,58.594,0
1483999011.960,54.688,41.016,51.270,45.410,38.574,0
1483999011.964,44.922,34.180,31.250,29.785,46.875,0
1483999011.968,31.250,20.996,22.949,16.113,30.762,0
1483999011.972,33.691,21.973,27.344,19.043,34.668,0
1483999011.976,44.922,34.668,39.062,29.785,41.016,0
1483999011.980,55.664,43.457,51.270,42.480,40.039,0
1483999011.983,51.758,37.598,39.551,36.621,21.484,0
1483999011.987,32.227,18.066,13.672,12.695,18.555,0
1483999011.991,43.457,31.250,20.020,17.090,29.785,0
1483999011.995,68.848,52.734,41.992,40.527,26.367,0
1483999011.999,60.059,41.016,37.598,33.203,22.949,0
1483999012.003,49.316,40.527,20.996,24.414,25.391,0
1483999012.007,56.152,49.316,19.531,35.156,44.434,0
1483999012.011,56.152,39.551,27.832,40.527,65.918,0
1483999012.015,54.199,31.738,35.645,42.969,65.430,0
1483999012.019,49.316,29.297,41.016,41.504,39.062,0
1483999012.022,49.316,26.855,34.180,41.992,34.668,0
1483999012.026,50.781,22.461,29.785,40.039,61.035,0
1483999012.030,47.852,18.066,33.203,37.598,52.246,0
1483999012.034,48.340,25.879,39.062,42.969,18.555,0
1483999012.038,49.316,40.527,41.016,49.316,50.781,0
1483999012.042,44.434,28.320,29.785,45.898,54.199,0
1483999012.046,40.039,24.902,35.156,42.480,35.156,0
1483999012.050,42.480,31.738,46.387,48.340,43.457,0
1483999012.054,32.227,18.066,41.016,38.574,22.461,0
1483999012.058,26.367,14.648,43.945,30.762,37.109,0
1483999012.062,29.785,20.996,39.551,34.180,50.293,0
1483999012.065,24.414,10.254,20.020,28.809,48.828,0
1483999012.069,29.785,11.230,28.320,27.344,60.547,0
1483999012.073,51.270,39.551,50.293,43.457,47.852,0
1483999012.077,67.383,63.965,51.270,59.570,33.691,0
1483999012.081,58.594,45.898,42.969,49.805,44.434,0
1483999012.085,48.340,29.297,48.340,39.551,59.570,0
1483999012.089,44.922,23.438,41.504,37.598,33.203,0
1483999012.093,34.668,18.555,24.414,25.391,29.297,0
1483999012.097,40.039,28.320,25.391,28.320,40.527,0
1483999012.101,45.410,32.227,31.250,33.203,36.621,0
1483999012.105,49.316,41.992,41.504,35.156,30.273,0
1483999012.108,53.711,33.203,37.598,35.156,16.602,0
1483999012.112,63.965,37.598,34.180,40.039,25.391,0
1483999012.116,64.941,51.758,44.434,43.945,12.207,0
1483999012.120,47.852,37.598,33.203,27.832,17.090,0
1483999012.124,47.363,36.621,30.273,26.855,11.719,0
1483999012.128,58.594,41.992,45.898,42.969,12.695,0
1483999012.132,55.664,33.691,39.062,40.527,20.020,0
1483999012.136,42.480,31.738,22.949,23.438,3.906,0
1483999012.140,32.715,25.879,25.391,11.230,27.832,0
1483999012.144,39.551,28.320,36.133,20.996,63.965,0
1483999012.147,54.199,46.875,47.363,42.480,55.176,0
1483999012.151,52.246,38.574,41.016,38.086,41.504,0
1483999012.155,53.711,44.434,39.062,37.598,30.762,0
1483999012.159,54.199,53.711,49.316,47.363,32.715,0
1483999012.163,46.387,37.598,47.363,45.898,39.551,0
1483999012.167,44.922,42.480,51.758,48.828,25.879,0
1483999012.171,40.039,40.039,51.758,48.828,19.043,0
1483999012.175,30.762,20.508,29.785,38.574,67.383,0
1483999012.179,33.203,15.137,19.531,34.668,45.410,0
1483999012.183,41.016,26.367,27.344,42.969,44.434,0
1483999012.187,44.922,36.133,37.598,52.734,75.195,0
1483999012.190,51.270,36.133,45.898,58.105,50.293,0
1483999012.194,45.410,29.297,41.992,50.293,22.461,0
1483999012.198,35.645,21.973,41.016,42.969,31.250,0
1483999012.202,42.969,25.391,52.734,50.293,54.688,0
1483999012.206,49.316,36.621,59.570,56.152,53.223,0
1483999012.210,40.039,26.367,50.293,50.293,25.879,0
1483999012.214,28.809,11.230,39.551,41.016,25.391,0
1483999012.218,27.832,14.648,34.180,36.133,85.938,0
1483999012.222,41.504,34.668,38.574,45.898,101.562,0
1483999012.226,45.410,44.434,43.457,46.387,61.523,0
1483999012.230,34.668,29.785,38.086,35.156,31.738,0
1483999012.233,29.297,23.926,43.457,28.320,57.617,0
1483999012.237,29.785,30.273,44.922,27.344,78.125,0
1483999012.241,25.391,18.066,36.133,24.902,83.496,0
1483999012.245,25.391,18.555,37.598,26.367,69.336,0
1483999012.249,21.973,28.809,46.387,24.414,57.129,0
1483999012.253,26.855,34.668,42.969,24.902,69.824,0
1483999012.257,32.715,31.250,31.738,30.273,52.246,0
1483999012.261,18.555,5.371,24.414,12.695,41.992,0
1483999012.265,26.367,16.113,29.785,8.789,73.730,0
1483999012.269,48.828,49.316,47.852,31.250,48.340,0
1483999012.272,43.457,50.293,51.270,36.621,50.781,0
1483999012.276,37.109,38.574,44.922,30.762,64.941,0
1483999012.280,39.062,25.879,32.715,28.809,59.082,0
1483999012.284,46.387,23.926,35.156,35.156,82.031,0
1483999012.288,56.152,27.344,47.363,43.945,41.992,0
1483999012.292,48.340,25.879,37.598,37.109,39.551,0
1483999012.296,47.363,25.879,20.020,34.668,52.246,0
1483999012.300,56.152,26.367,19.531,39.062,39.551,0
1483999012.304,43.945,21.973,28.320,30.762,16.602,0
1483999012.308,40.527,23.926,31.250,33.691,25.879,0
1483999012.312,45.898,20.996,31.738,41.016,32.227,0
1483999012.315,46.387,20.020,40.039,41.992,19.531,0
1483999012.319,43.945,26.855,41.992,43.457,41.016,0
1483999012.323,38.574,28.320,39.062,35.645,40.527,0
1483999012.327,37.109,23.438,44.434,30.273,48.340,0
1483999012.331,34.668,20.996,32.715,30.273,55.664,0
1483999012.335,36.133,25.391,25.391,31.250,37.598,0
1483999012.339,39.062,20.508,41.016,35.156,60.547,0
1483999012.343,35.645,15.625,43.457,38.574,35.645,0
1483999012.347,31.738,25.879,40.527,35.645,29.785,0
1483999012.351,21.484,16.602,39.551,22.949,73.730,0
1483999012.355,13.672,0.977,23.926,10.254,79.102,0
1483999012.358,21.484,13.184,28.809,18.555,71.777,0
1483999012.362,32.227,30.273,43.457,33.691,21.973,0
1483999012.366,18.555,19.531,26.367,21.484,19.531,0
1483999012.370,28.809,30.762,36.133,30.273,65.918,0
1483999012.374,43.945,36.133,42.480,41.992,66.406,0
1483999012.378,29.297,14.648,28.320,26.855,44.434,0
1483999012.382,31.250,25.391,33.691,32.715,43.945,0
1483999012.386,42.969,39.551,42.969,45.410,44.434,0
1483999012.390,34.180,23.926,40.039,32.227,32.227,0
1483999012.394,33.691,17.090,37.109,32.227,29.785,0
1483999012.397,37.109,18.066,34.180,33.691,68.359,0
1483999012.401,29.297,17.090,28.320,28.809,55.664,0
1483999012.405,33.691,32.227,38.574,34.668,20.996,0
1483999012.409,42.480,38.086,43.457,42.480,31.738,0
1483999012.413,34.180,25.391,25.879,34.180,29.785,0
1483999012.417,31.250,25.879,20.996,26.855,23.926,0
1483999012.421,49.316,42.480,41.504,41.016,31.738,0
1483999012.425,56.641,39.062,46.875,48.340,61.035,0
1483999012.429,59.082,38.574,42.480,46.875,79.590,0
1483999012.433,67.871,45.898,49.805,53.711,82.520,0
1483999012.437,62.500,45.410,47.363,55.664,68.848,0
1483999012.440,50.781,42.480,40.527,47.363,49.316,0
1483999012.444,40.039,31.250,33.203,35.645,24.902,0
1483999012.448,32.227,24.902,24.414,30.762,12.695,0
1483999012.452,37.598,37.598,29.785,39.062,20.508,0
1483999012.456,41.016,39.551,37.109,36.621,35.156,0
1483999012.460,34.180,29.785,28.320,24.414,54.688,0
1483999012.464,37.109,26.367,34.180,30.273,30.762,0
1483999012.468,38.574,22.461,42.969,34.180,-5.371,0
1483999012.472,40.527,29.785,48.828,36.133,7.324,0
1483999012.476,34.668,34.668,46.387,38.086,37.109,0
1483999012.480,23.926,29.785,38.574,29.785,48.340,0
1483999012.483,33.203,36.621,43.945,29.785,9.277,0
1483999012.487,30.762,36.621,43.457,25.879,7.812,0
1483999012.491,30.273,33.203,46.875,33.691,28.320,0
1483999012.495,36.621,28.320,44.434,43.945,21.484,0
1483999012.499,28.320,29.785,31.738,32.227,35.156,0
1483999012.503,32.715,33.203,30.762,33.203,30.273,0
1483999012.507,38.086,25.879,38.086,40.039,25.879,0
1483999012.511,38.086,34.180,41.992,42.969,39.551,0
1483999012.515,34.180,35.156,38.574,39.551,48.340,0
1483999012.519,28.809,22.461,39.551,38.086,55.176,0
1483999012.522,31.250,19.043,38.574,38.574,26.367,0
1483999012.526,49.805,34.668,36.621,50.293,15.625,0
1483999012.530,63.477,50.781,43.457,62.500,47.363,0
1483999012.534,52.246,38.574,35.156,47.363,60.547,0
1483999012.538,38.574,24.414,32.715,31.250,30.762,0
1483999012.542,39.062,27.832,36.133,36.133,-0.488,0
1483999012.546,38.574,28.320,33.203,40.527,22.949,0
1483999012.550,35.156,23.438,31.250,36.133,44.434,0
1483999012.554,35.156,24.902,33.691,34.180,36.621,0
1483999012.558,39.062,34.668,35.156,40.039,34.668,0
1483999012.562,38.574,41.016,44.434,38.574,45.410,0
1483999012.565,28.809,29.297,41.016,29.297,63.477,0
1483999012.569,27.832,18.555,25.879,26.855,55.664,0
1483999012.573,35.156,26.855,31.738,34.180,47.363,0
1483999012.577,38.574,32.227,43.945,42.480,37.109,0
1483999012.581,30.273,26.855,33.203,39.062,40.039,0
1483999012.585,26.855,25.879,26.855,31.738,11.230,0
1483999012.589,26.855,19.043,36.621,28.320,-2.930,0
1483999012.593,33.691,22.949,46.387,34.668,32.715,0
1483999012.597,38.574,30.273,44.922,41.504,41.504,0
1483999012.601,32.227,24.414,45.898,39.551,53.223,0
1483999012.605,39.551,38.086,57.129,39.062,58.105,0
1483999012.608,43.945,41.504,53.711,38.574,64.941,0
1483999012.612,33.203,25.391,37.598,35.156,89.355,0
1483999012.616,20.996,18.066,19.531,20.996,113.770,0
1483999012.620,26.367,31.738,26.367,23.438,73.730,0
1483999012.624,40.527,39.551,35.645,37.109,40.039,0
1483999012.628,38.086,29.785,26.855,34.668,55.664,0
1483999012.632,33.691,28.809,28.320,30.762,55.176,0
1483999012.636,38.086,32.227,39.062,35.645,37.109,0
1483999012.640,41.016,36.621,41.016,39.062,43.945,0
1483999012.644,36.133,34.180,38.574,36.621,58.105,0
1483999012.647,34.668,30.273,51.758,36.621,41.992,0
1483999012.651,40.527,34.668,55.176,45.410,56.641,0
1483999012.655,38.086,38.574,45.410,43.457,78.125,0
1483999012.659,36.133,38.574,38.574,38.574,30.273,0
1483999012.663,36.621,30.762,26.367,41.016,9.277,0
1483999012.667,30.762,25.879,21.484,35.645,50.293,0
1483999012.671,34.180,36.133,28.809,37.109,45.898,0
1483999012.675,35.156,26.855,39.551,39.062,13.184,0
1483999012.679,29.297,14.160,43.457,34.668,-20.020,0
1483999012.683,22.461,21.973,35.156,22.949,3.906,0
1483999012.687,19.531,18.555,30.762,18.066,32.715,0
1483999012.690,27.344,12.695,39.062,24.414,18.066,0
1483999012.694,29.785,17.578,32.715,28.320,40.039,0
1483999012.698,30.273,25.391,30.273,32.715,37.109,0
1483999012.702,36.133,26.367,39.062,37.598,26.855,0
1483999012.706,34.180,21.484,32.227,34.668,19.043,0
1483999012.710,34.668,22.949,21.973,36.133,-4.395,0
1483999012.714,32.715,23.926,40.527,35.645,9.277,0
1483999012.718,26.855,25.879,44.434,29.297,25.391,0
1483999012.722,28.320,29.297,29.297,33.203,11.719,0
1483999012.726,33.691,31.250,40.527,35.645,3.418,0
1483999012.730,30.762,27.344,37.598,29.297,10.254,0
1483999012.733,22.461,18.066,22.949,21.484,15.137,0
1483999012.737,23.926,16.113,20.508,23.438,36.621,0
1483999012.741,31.250,16.602,24.414,31.738,42.480,0
1483999012.745,28.320,11.230,27.832,25.391,37.598,0
1483999012.749,25.879,19.531,32.227,23.438,12.207,0
1483999012.753,37.109,34.668,47.852,34.180,3.906,0
1483999012.757,45.898,44.434,57.129,42.969,36.133,0
1483999012.761,35.645,39.062,45.898,35.645,44.922,0
1483999012.765,21.484,25.879,36.621,19.531,17.578,0
1483999012.769,22.949,28.809,34.668,17.090,-4.395,0
1483999012.772,24.902,30.273,39.062,23.438,35.156,0
1483999012.776,20.996,16.602,33.691,21.973,52.734,0
1483999012.780,28.809,19.043,23.926,31.738,13.184,0
1483999012.784,21.973,15.625,22.949,30.273,-4.395,0
1483999012.788,18.066,17.090,35.156,28.320,25.879,0
1483999012.792,27.832,27.832,35.645,35.156,32.227,0
1483999012.796,36.133,34.668,47.363,45.410,28.320,0
1483999012.800,45.410,44.434,63.965,51.758,28.320,0
1483999012.804,34.180,28.809,49.805,38.574,27.832,0
1483999012.808,33.203,28.809,47.852,39.062,46.387,0
1483999012.812,41.016,42.480,50.293,43.457,22.949,0
1483999012.815,29.297,37.598,38.086,34.180,22.461,0
1483999012.819,41.504,45.410,43.457,45.410,58.105,0
1483999012.823,39.062,33.691,34.668,40.527,62.012,0
1483999012.827,30.762,16.602,33.203,35.156,34.180,0
1483999012.831,28.809,22.461,33.691,35.156,34.180,0
1483999012.835,26.367,30.273,37.109,32.227,51.270,0
1483999012.839,28.320,26.855,42.969,31.738,32.715,0
1483999012.843,21.973,26.367,38.574,25.391,35.645,0
1483999012.847,29.297,40.039,49.316,36.133,41.504,0
1483999012.851,41.504,49.805,47.363,45.898,56.152,0
1483999012.855,43.945,51.270,45.410,47.852,37.109,0
1483999012.858,36.621,39.551,52.734,42.480,14.648,0
1483999012.862,30.273,33.203,48.340,33.691,42.969,0
1483999012.866,26.855,29.297,38.086,25.391,47.363,0
1483999012.870,24.414,13.184,39.551,21.973,16.602,0
1483999012.874,31.250,20.020,44.434,33.203,3.906,0
1483999012.878,24.902,24.414,42.969,29.785,33.691,0
1483999012.882,24.414,31.738,41.016,35.156,56.641,0
1483999012.886,35.645,41.992,37.598,46.875,35.156,0
1483999012.890,41.016,37.109,34.180,47.852,22.461,0
1483999012.894,41.016,36.133,52.734,48.828,36.133,0
1483999012.897,39.551,46.387,66.895,45.898,39.551,0
1483999012.901,39.551,38.574,41.992,43.945,34.668,0
1483999012.905,33.691,26.855,34.668,39.062,32.227,0
1483999012.909,27.832,34.180,34.180,33.691,53.711,0
1483999012.913,31.738,41.504,31.250,38.574,33.691,0
1483999012.917,28.809,25.879,27.832,35.645,-21.973,0
1483999012.921,34.668,24.902,36.133,36.133,-11.719,0
1483999012.925,42.480,43.457,45.898,43.457,34.180,0
1483999012.929,39.551,42.969,41.992,39.551,23.438,0
1483999012.933,42.480,38.086,44.922,38.574,-10.742,0
1483999012.937,47.852,43.457,48.340,47.852,-2.930,0
1483999012.940,40.527,41.504,39.551,41.992,29.297,0
1483999012.944,40.039,34.180,35.156,44.434,29.785,0
1483999012.948,48.340,35.156,44.434,58.105,21.484,0
1483999012.952,40.527,30.762,41.992,48.828,24.902,0
1483999012.956,38.574,32.715,40.527,47.852,13.672,0
1483999012.960,49.805,46.387,54.688,58.105,17.090,0
1483999012.964,41.992,38.574,41.016,48.340,2.930,0
1483999012.968,29.297,21.973,23.438,38.086,16.113,0
1483999012.972,40.527,32.227,38.086,46.875,44.922,0
1483999012.976,48.828,40.527,48.828,57.129,36.621,0
1483999012.980,42.480,34.180,45.898,52.246,25.879,0
1483999012.983,42.969,41.504,39.551,49.316,42.969,0
1483999012.987,42.969,48.828,43.945,49.805,58.105,0
1483999012.991,36.133,33.691,42.480,39.062,41.016,0
1483999012.995,39.551,22.461,35.645,39.551,22.949,0
1483999012.999,40.039,27.832,33.203,39.062,18.555,0
1483999013.003,43.457,45.898,44.434,43.457,26.367,0
1483999013.007,40.039,51.758,49.316,43.457,26.367,0
1483999013.011,24.902,30.273,35.645,26.367,-6.348,0
1483999013.015,22.461,17.090,25.391,23.438,12.207,0
1483999013.019,42.480,32.227,44.434,42.480,43.457,0
1483999013.022,48.828,40.527,56.152,50.781,14.160,0
1483999013.026,30.762,27.832,42.480,36.133,20.508,0
1483999013.030,27.344,27.832,42.480,29.785,68.359,0
1483999013.034,34.180,30.273,36.133,37.598,39.551,0
1483999013.038,37.109,40.527,36.133,41.504,3.906,0
1483999013.042,24.414,32.715,33.203,24.414,33.691,0
1483999013.046,18.555,25.391,31.250,17.090,38.574,0
1483999013.050,32.227,39.551,46.875,33.203,-5.371,0
1483999013.054,38.086,36.621,43.945,36.133,-34.180,0
1483999013.058,27.832,11.719,27.832,25.391,17.578,0
1483999013.062,33.203,11.230,32.227,35.645,34.668,0
1483999013.065,57.617,44.922,52.246,60.059,2.930,0
1483999013.069,53.223,54.688,47.852,54.199,3.418,0
1483999013.073,43.945,40.039,41.504,47.363,43.457,0
1483999013.077,38.086,21.973,36.133,43.945,59.082,0
1483999013.081,34.180,20.020,28.320,32.715,27.344,0
1483999013.085,36.621,33.691,33.691,31.738,10.742,0
1483999013.089,34.668,38.086,31.250,37.598,44.434,0
1483999013.093,22.461,19.043,29.297,32.715,45.410,0
1483999013.097,25.879,15.137,41.504,32.715,-2.441,0
1483999013.101,39.551,26.855,50.293,41.992,-0.977,0
1483999013.105,32.715,25.879,39.551,34.668,47.852,0
1483999013.108,39.551,30.273,45.898,39.062,42.969,0
1483999013.112,37.109,25.879,41.504,33.691,27.344,0
1483999013.116,25.391,19.043,26.855,20.508,33.203,0
1483999013.120,30.762,21.484,32.227,26.367,23.438,0
1483999013.124,31.250,20.020,31.738,29.297,44.434,0
1483999013.128,30.762,25.879,34.180,32.227,46.875,0
1483999013.132,34.180,36.133,41.016,36.133,37.598,0
1483999013.136,25.879,25.879,33.203,28.320,42.480,0
1483999013.140,22.461,16.602,33.691,24.902,15.625,0
1483999013.144,27.344,24.414,41.016,29.785,15.137,0
1483999013.147,29.785,19.531,35.645,27.344,54.688,0
1483999013.151,36.621,15.137,41.992,31.738,54.688,0
1483999013.155,39.062,23.926,40.527,33.203,51.758,0
1483999013.159,49.316,39.062,49.805,44.434,42.969,0
1483999013.163,52.734,44.922,47.852,47.363,42.480,0
1483999013.167,44.434,35.156,38.574,33.203,71.777,0
1483999013.171,46.387,35.156,42.480,34.668,35.645,0
1483999013.175,57.129,44.434,42.480,45.410,22.461,0
1483999013.179,62.500,46.387,37.598,47.852,66.895,0
1483999013.183,51.758,37.598,24.902,35.645,68.848,0
1483999013.187,48.340,40.039,29.785,36.621,16.602,0
1483999013.190,50.781,41.016,41.016,39.062,3.906,0
1483999013.194,51.758,30.273,39.551,38.086,49.805,0
1483999013.198,53.223,29.297,48.828,40.039,42.969,0
1483999013.202,56.641,38.574,52.246,45.410,28.809,0
1483999013.206,49.805,38.574,31.738,40.039,36.621,0
1483999013.210,46.387,36.133,34.668,41.504,50.781,0
1483999013.214,45.898,39.062,36.133,43.457,30.273,0
1483999013.218,47.363,33.203,29.297,43.457,18.555,0
1483999013.222,52.246,28.809,39.062,47.363,35.156,0
1483999013.226,47.363,28.320,45.898,44.922,38.086,0
1483999013.230,52.246,31.738,52.246,54.199,17.578,0
1483999013.233,58.105,38.086,58.594,64.941,19.531,0
1483999013.237,49.805,31.250,45.410,59.082,35.645,0
1483999013.241,46.875,26.367,37.598,52.734,45.898,0
1483999013.245,58.594,35.645,65.430,66.895,64.453,0
1483999013.249,50.781,28.320,59.570,62.500,30.273,0
1483999013.253,34.668,19.531,18.066,44.434,11.719,0
1483999013.257,34.668,25.879,25.391,49.316,47.852,0
1483999013.261,24.414,15.137,33.691,39.062,54.688,0
1483999013.265,27.344,11.230,35.645,31.250,61.035,0
1483999013.269,47.852,24.902,48.340,43.945,81.055,0
1483999013.272,52.246,37.598,51.270,50.781,50.293,0
1483999013.276,42.969,32.715,49.316,43.457,24.414,0
1483999013.280,37.598,18.555,44.434,38.574,21.973,0
1483999013.284,42.969,24.902,46.875,41.992,19.531,0
1483999013.288,41.504,37.109,56.152,41.992,19.043,0
1483999013.292,28.320,23.438,44.434,31.250,-2.930,0
1483999013.296,25.391,17.578,33.691,25.391,-5.859,0
1483999013.300,22.461,17.090,35.156,20.020,39.551,0
1483999013.304,22.949,15.137,27.832,14.648,55.664,0
1483999013.308,33.203,28.320,37.109,21.973,16.602,0
1483999013.312,36.621,30.762,38.086,23.926,16.602,0
1483999013.315,41.992,26.855,31.250,32.227,46.387,0
1483999013.319,40.527,19.043,38.086,32.227,50.293,0
1483999013.323,45.410,28.809,40.039,35.645,56.641,0
1483999013.327,60.059,46.387,55.664,51.758,26.367,0
1483999013.331,49.805,34.180,55.664,41.992,6.836,0
1483999013.335,29.785,18.555,35.156,22.461,-0.977,0
1483999013.339,33.203,27.344,29.297,25.879,-31.250,0
1483999013.343,30.762,25.391,20.020,22.949,2.441,0
1483999013.347,39.062,30.762,37.109,33.203,25.391,0
1483999013.351,39.062,31.738,41.992,35.156,-10.254,0
1483999013.355,28.320,19.043,24.902,25.391,13.184,0
1483999013.358,37.109,15.625,36.621,33.203,73.242,0
1483999013.362,46.875,24.414,50.781,43.945,63.965,0
1483999013.366,43.945,32.227,45.410,46.875,41.992,0
1483999013.370,51.270,39.062,53.711,50.293,59.082,0
1483999013.374,49.805,36.133,57.129,44.922,45.410,0
1483999013.378,44.434,39.062,47.363,41.504,20.996,0
1483999013.382,41.504,31.738,38.574,43.457,24.902,0
1483999013.386,31.738,13.184,28.809,37.598,22.949,0
1483999013.390,34.180,12.695,48.828,38.574,40.039,0
1483999013.394,39.551,27.832,61.035,45.410,46.387,0
1483999013.397,41.016,31.250,45.898,46.875,17.578,0
1483999013.401,36.621,23.926,37.109,41.504,25.879,0
1483999013.405,27.344,21.484,30.762,36.133,68.848,0
1483999013.409,27.832,23.926,29.785,31.250,50.781,0
1483999013.413,42.480,40.039,40.527,37.109,30.273,0
1483999013.417,41.504,31.250,47.363,42.480,50.781,0
1483999013.421,27.832,16.113,39.551,34.668,38.574,0
1483999013.425,30.273,28.809,39.062,32.227,10.254,0
1483999013.429,26.367,24.902,38.086,28.320,21.973,0
1483999013.433,21.484,12.695,37.109,22.949,35.645,0
1483999013.437,29.297,17.578,50.293,28.809,48.340,0
1483999013.440,38.086,39.062,58.105,38.086,34.180,0
1483999013.444,30.273,37.598,52.734,33.203,31.738,0
1483999013.448,28.809,17.578,49.316,29.297,46.387,0
1483999013.452,25.879,14.160,35.645,26.367,35.156,0
1483999013.456,12.695,12.695,21.973,19.043,47.852,0
1483999013.460,35.645,34.180,40.527,40.527,53.223,0
1483999013.464,37.109,32.227,42.969,39.062,41.992,0
1483999013.468,34.180,28.809,39.551,33.203,27.832,0
1483999013.472,46.875,47.852,43.945,45.410,22.461,0
1483999013.476,43.945,48.828,43.457,41.992,4.883,0
1483999013.480,26.367,28.809,44.922,28.809,20.508,0
1483999013.483,21.973,14.160,39.062,26.367,36.621,0
1483999013.487,31.250,24.414,37.109,34.180,20.996,0
1483999013.491,33.691,31.250,55.176,36.133,21.484,0
1483999013.495,36.133,30.273,63.477,36.133,47.852,0
1483999013.499,41.016,34.180,59.570,40.527,45.410,0
1483999013.503,38.574,34.668,49.316,42.480,48.828,0
1483999013.507,21.484,16.602,36.133,28.320,32.227,0
1483999013.511,31.250,20.996,40.039,32.715,26.855,0
1483999013.515,52.734,48.340,42.480,52.734,17.578,0
1483999013.519,48.340,46.875,52.246,54.688,-4.395,0
1483999013.522,37.109,32.715,56.152,45.898,30.762,0
1483999013.526,30.762,26.367,36.621,30.762,42.969,0
1483999013.530,34.180,32.227,34.668,30.273,16.113,0
1483999013.534,34.180,35.645,42.969,31.250,6.348,0
1483999013.538,28.809,24.414,44.434,26.855,31.250,0
1483999013.542,32.227,27.832,51.758,34.180,45.410,0
1483999013.546,36.621,30.762,46.387,36.133,53.223,0
1483999013.550,40.039,28.320,42.480,41.016,69.824,0
1483999013.554,32.715,23.438,55.664,36.621,45.898,0
1483999013.558,15.625,10.742,32.227,16.602,32.227,0
1483999013.562,22.949,20.508,16.602,25.879,48.828,0
1483999013.565,38.574,32.227,38.574,41.016,39.551,0
1483999013.569,50.293,46.875,49.805,51.270,38.574,0
1483999013.573,51.758,51.758,56.152,57.617,33.203,0
1483999013.577,30.762,21.973,42.480,39.062,2.441,0
1483999013.581,35.645,24.414,40.527,41.504,20.020,0
1483999013.585,41.992,37.109,39.551,43.457,36.133,0
1483999013.589,37.598,25.391,33.691,35.156,27.832,0
1483999013.593,43.945,27.344,41.504,41.992,8.789,0
1483999013.597,41.016,23.438,41.992,37.109,31.738,0
1483999013.601,35.156,21.973,38.574,32.227,41.016,0
1483999013.605,22.949,24.414,21.484,21.484,37.109,0
1483999013.608,21.973,21.973,15.625,21.484,51.758,0
1483999013.612,23.438,15.625,23.438,25.879,15.625,0
1483999013.616,24.414,18.555,31.250,24.902,7.812,0
1483999013.620,24.414,20.508,27.832,25.879,16.113,0
1483999013.624,17.090,16.113,16.602,20.020,-8.301,0
1483999013.628,15.625,11.230,13.184,18.066,32.227,0
1483999013.632,22.949,12.207,23.926,24.902,50.293,0
1483999013.636,27.344,24.902,39.062,31.738,17.090,0
1483999013.640,27.344,28.809,46.387,33.691,19.531,0
1483999013.644,16.602,15.137,33.203,22.461,30.273,0
1483999013.647,7.324,17.090,12.695,8.301,38.086,0
1483999013.651,20.996,34.180,18.555,23.438,19.531,0
1483999013.655,19.043,24.414,27.344,27.344,23.926,0
1483999013.659,19.531,22.949,29.297,24.414,41.504,0
1483999013.663,22.461,21.973,23.438,21.973,18.066,0
1483999013.667,20.508,15.625,20.508,18.066,18.066,0
1483999013.671,35.156,35.156,33.203,29.785,30.762,0
1483999013.675,42.969,39.062,38.574,37.598,39.551,0
1483999013.679,37.109,27.344,31.250,34.180,64.453,0
1483999013.683,34.668,25.879,30.273,28.809,53.223,0
1483999013.687,45.898,32.227,44.922,37.109,54.688,0
1483999013.690,39.062,29.785,39.062,33.203,68.359,0
1483999013.694,27.832,22.949,17.090,24.902,45.898,0
1483999013.698,36.621,31.738,20.020,30.762,41.992,0
1483999013.702,31.738,24.902,21.973,22.949,34.180,0
1483999013.706,26.855,20.020,27.832,21.484,15.625,0
1483999013.710,33.203,28.320,35.156,32.715,2.441,0
1483999013.714,49.805,43.945,43.945,47.363,0.000,0
1483999013.718,58.594,56.152,51.758,57.617,42.480,0
1483999013.722,39.551,35.645,35.156,38.086,53.711,0
1483999013.726,32.715,17.578,29.297,28.320,0.000,0
1483999013.730,48.340,33.691,47.363,45.410,-13.184,0
1483999013.733,48.828,37.598,49.316,45.898,-3.418,0
1483999013.737,55.664,42.969,44.922,51.270,40.039,0
1483999013.741,54.688,37.598,43.945,52.246,39.062,0
1483999013.745,37.109,27.344,31.738,33.203,28.320,0
1483999013.749,38.574,38.086,38.574,35.645,34.668,0
1483999013.753,41.016,36.621,41.992,43.457,18.066,0
1483999013.757,30.762,21.973,25.879,28.809,21.973,0
1483999013.761,30.273,25.391,42.969,26.855,32.715,0
1483999013.765,47.363,41.992,51.758,47.363,45.898,0
1483999013.769,47.852,43.945,41.992,46.875,44.922,0
1483999013.772,44.922,45.410,46.387,44.922,1.953,0
1483999013.776,40.039,36.133,45.410,40.039,17.090,0
1483999013.780,41.504,34.668,42.480,39.551,43.457,0
1483999013.784,46.387,39.551,41.504,42.969,29.297,0
1483999013.788,44.434,36.621,39.062,39.551,45.898,0
1483999013.792,41.504,32.227,44.922,38.086,41.504,0
1483999013.796,29.297,24.414,32.227,28.809,31.250,0
1483999013.800,26.855,20.996,15.625,24.414,0.977,0
1483999013.804,42.969,29.297,34.180,42.969,-32.715,0
1483999013.808,50.781,34.668,51.758,51.758,5.371,0
1483999013.812,48.340,37.598,51.758,44.434,59.082,0
1483999013.815,39.551,33.691,45.898,38.574,16.602,0
1483999013.819,40.527,33.203,46.387,42.480,-19.531,0
1483999013.823,51.270,48.828,49.316,51.758,-9.766,0
1483999013.827,44.922,42.969,48.340,46.875,19.531,0
1483999013.831,32.227,23.926,41.504,38.574,23.926,0
1483999013.835,35.645,18.066,36.133,39.551,26.855,0
1483999013.839,36.621,16.602,41.016,35.645,38.086,0
1483999013.843,34.180,27.832,44.434,30.762,29.785,0
1483999013.847,32.715,32.227,39.062,32.227,0.977,0
1483999013.851,36.621,37.598,42.969,35.156,5.371,0
1483999013.855,38.086,44.922,49.805,36.133,30.762,0
1483999013.858,43.457,44.922,59.570,41.992,23.438,0
1483999013.862,39.062,31.738,54.688,35.645,37.109,0
1483999013.866,27.344,23.926,35.645,24.902,47.363,0
1483999013.870,36.133,34.180,45.898,35.156,50.293,0
1483999013.874,45.898,38.574,56.641,44.434,46.875,0
1483999013.878,37.598,35.645,38.574,37.109,39.551,0
1483999013.882,32.715,34.668,36.621,33.203,32.715,0
1483999013.886,42.480,39.062,53.711,39.551,26.855,0
1483999013.890,39.551,34.180,48.340,37.598,0.000,0
1483999013.894,38.574,41.016,49.316,36.621,-26.367,0
1483999013.897,33.691,38.574,46.387,31.738,-22.461,0
1483999013.901,25.391,20.020,36.133,28.320,8.301,0
1483999013.905,31.250,20.508,45.898,33.691,23.926,0
1483999013.909,42.480,31.738,55.176,40.039,-16.602,0
1483999013.913,37.109,23.926,51.758,38.086,5.859,0
1483999013.917,32.227,18.066,46.387,30.762,29.297,0
1483999013.921,40.039,33.691,45.898,33.203,4.395,0
1483999013.925,44.434,41.016,54.199,41.016,25.391,0
1483999013.929,41.016,41.504,52.734,38.574,27.344,0
1483999013.933,41.504,41.016,47.852,37.109,17.090,0
1483999013.937,42.969,27.832,45.410,40.527,47.363,0
1483999013.940,41.992,18.555,46.875,41.504,61.523,0
1483999013.944,44.434,33.691,42.480,41.992,43.945,0
1483999013.948,54.688,45.410,43.945,46.387,12.207,0
1483999013.952,53.223,35.156,51.758,45.410,-25.391,0
1483999013.956,46.875,38.574,52.734,42.969,-9.766,0
1483999013.960,51.270,40.039,54.199,42.969,43.457,0
1483999013.964,52.734,37.598,46.387,41.992,40.039,0
1483999013.968,42.480,34.668,31.250,33.691,22.949,0
1483999013.972,43.945,26.367,34.180,36.133,28.809,0
1483999013.976,60.059,42.480,60.547,54.199,29.785,0
1483999013.980,51.270,47.852,60.547,48.828,12.207,0
1483999013.983,41.504,28.809,45.898,40.527,-14.160,0
1483999013.987,46.875,28.320,44.434,42.969,13.672,0
1483999013.991,43.457,38.086,46.387,41.016,35.156,0
1483999013.995,33.203,31.250,48.828,34.668,31.738,0
1483999013.999,27.832,27.344,34.180,27.832,0.977,0
1483999014.003,40.039,46.387,35.156,35.645,0.488,0
1483999014.007,36.621,36.621,54.688,33.203,9.277,0
1483999014.011,19.531,16.113,36.133,19.531,-30.273,0
1483999014.015,20.020,17.578,13.184,19.531,-3.418,0
1483999014.019,32.715,24.414,35.156,33.691,38.086,0
1483999014.022,49.316,46.387,57.129,49.316,19.043,0
1483999014.026,42.480,38.574,57.129,42.969,-5.371,0
1483999014.030,40.527,40.039,48.340,43.457,0.000,0
1483999014.034,40.039,41.504,30.762,42.480,28.320,0
1483999014.038,35.645,29.297,27.832,37.598,46.387,0
1483999014.042,44.922,33.203,40.527,45.410,14.160,0
1483999014.046,46.387,20.996,39.062,45.898,10.742,0
1483999014.050,40.527,13.184,34.180,37.598,42.969,0
1483999014.054,37.109,15.137,34.180,29.785,27.344,0
1483999014.058,37.109,21.973,34.180,33.691,19.531,0
1483999014.062,44.922,35.645,41.504,41.504,13.672,0
1483999014.065,46.875,39.551,45.410,40.527,7.324,0
1483999014.069,41.992,39.551,37.109,39.551,2.930,0
1483999014.073,35.156,38.086,37.598,39.551,-1.465,0
1483999014.077,23.926,20.508,32.227,24.414,16.602,0
1483999014.081,28.809,11.230,35.156,25.391,15.137,0
1483999014.085,40.039,26.367,41.016,40.039,10.742,0
1483999014.089,45.898,42.969,32.227,40.039,-25.391,0
1483999014.093,41.504,37.109,33.691,32.715,-17.090,0
1483999014.097,33.203,24.902,39.551,30.273,23.926,0
1483999014.101,33.203,28.809,33.691,31.250,55.176,0
1483999014.105,40.039,48.828,31.738,37.109,45.898,0
1483999014.108,35.645,38.574,32.227,31.738,28.809,0
1483999014.112,26.855,16.113,26.855,21.973,28.809,0
1483999014.116,30.762,24.902,30.762,28.320,2.441,0
1483999014.120,31.250,31.738,32.715,26.367,-1.465,0
1483999014.124,38.086,36.621,42.969,33.203,13.184,0
1483999014.128,44.434,32.227,47.852,41.016,-4.883,0
1483999014.132,37.109,17.578,40.527,32.715,5.371,0
1483999014.136,41.992,25.879,41.504,41.504,4.883,0
1483999014.140,46.387,35.645,45.410,47.852,-13.184,0
1483999014.144,39.551,25.879,48.340,40.039,21.484,0
1483999014.147,45.410,31.738,55.176,47.852,35.156,0
1483999014.151,47.852,38.086,48.340,49.316,30.762,0
1483999014.155,39.551,20.508,35.645,39.551,35.156,0
1483999014.159,38.086,16.602,36.621,38.574,20.508,0
1483999014.163,43.945,35.156,48.828,46.875,31.738,0
1483999014.167,35.645,28.320,46.875,42.480,20.996,0
1483999014.171,34.668,18.555,35.156,37.598,6.348,0
1483999014.175,54.199,39.551,44.434,55.664,-13.184,0
1483999014.179,52.734,37.598,49.805,52.734,-34.668,0
1483999014.183,31.738,20.508,35.645,27.832,-2.930,0
1483999014.187,18.066,17.090,36.621,17.090,26.855,0
1483999014.190,37.109,40.527,44.922,36.621,10.254,0
1483999014.194,46.875,46.875,37.109,46.387,6.348,0
1483999014.198,36.621,36.621,41.992,38.574,18.555,0
1483999014.202,28.320,29.297,31.738,27.344,21.973,0
1483999014.206,31.250,32.227,25.879,23.438,13.672,0
1483999014.210,35.645,33.691,35.156,30.273,12.695,0
1483999014.214,23.438,17.578,27.344,23.926,29.785,0
1483999014.218,21.973,15.625,33.691,20.508,41.016,0
1483999014.222,26.367,17.578,38.086,23.438,-1.953,0
1483999014.226,34.668,20.020,46.875,30.762,-8.789,0
1483999014.230,33.203,28.320,48.828,31.738,40.527,0
1483999014.233,37.598,38.086,43.457,39.062,33.203,0
1483999014.237,50.781,48.828,50.293,53.223,9.277,0
1483999014.241,42.480,45.410,33.691,45.410,-8.789,0
1483999014.245,44.922,41.016,30.273,42.969,22.949,0
1483999014.249,51.270,33.203,48.828,45.410,29.297,0
1483999014.253,44.922,26.855,48.340,38.086,25.391,0
1483999014.257,41.992,26.367,39.551,37.109,34.180,0
1483999014.261,43.457,22.461,31.738,42.480,14.648,0
1483999014.265,37.109,16.602,38.574,35.645,3.906,0
1483999014.269,27.832,17.090,33.691,25.391,-1.465,0
1483999014.272,30.273,26.855,30.762,29.785,6.348,0
1483999014.276,40.527,37.109,45.410,40.039,4.883,0
1483999014.280,46.875,42.969,55.664,50.293,-11.719,0
1483999014.284,51.758,49.316,58.594,56.152,1.465,0
1483999014.288,31.250,30.762,44.434,33.691,9.766,0
1483999014.292,20.996,23.438,27.344,22.461,15.137,0
1483999014.296,41.016,36.133,33.203,37.598,23.438,0
1483999014.300,39.551,21.973,40.039,38.086,9.766,0
1483999014.304,37.598,25.879,37.598,41.016,-3.906,0
1483999014.308,42.969,37.598,45.410,43.945,0.488,0
1483999014.312,49.805,33.203,54.688,46.875,-2.930,0
1483999014.315,46.387,30.273,42.969,41.992,-8.301,0
1483999014.319,35.156,30.273,29.297,30.762,10.254,0
1483999014.323,41.992,34.180,34.180,38.574,6.348,0
1483999014.327,46.875,31.250,43.945,44.434,-33.691,0
1483999014.331,39.551,25.879,46.387,33.691,-22.949,0
1483999014.335,40.527,30.273,48.828,32.227,5.859,0
1483999014.339,41.992,40.527,44.434,35.645,3.906,0
1483999014.343,37.598,34.668,45.410,31.250,10.742,0
1483999014.347,31.738,22.461,38.574,25.391,19.531,0
1483999014.351,40.039,29.785,38.086,35.156,15.625,0
1483999014.355,46.387,34.180,46.875,41.504,11.719,0
1483999014.358,40.527,32.715,47.363,39.062,-13.184,0
1483999014.362,35.645,27.344,36.133,41.016,-25.391,0
1483999014.366,34.180,23.438,29.785,40.527,7.324,0
1483999014.370,43.945,39.062,41.016,49.805,16.602,0
1483999014.374,42.969,34.668,48.340,47.363,4.395,0
1483999014.378,34.668,19.531,43.457,33.691,4.883,0
1483999014.382,36.133,29.785,42.480,33.691,4.883,0
1483999014.386,38.086,34.668,45.410,37.598,-22.949,0
1483999014.390,33.203,25.391,41.504,33.203,-15.137,0
1483999014.394,29.297,23.438,36.621,29.297,18.066,0
1483999014.397,18.066,15.625,30.762,16.113,33.203,0
1483999014.401,26.855,24.902,37.109,24.414,52.734,0
1483999014.405,52.734,49.316,57.617,48.340,18.066,0
1483999014.409,46.875,41.992,45.410,41.992,-4.883,0
1483999014.413,35.156,23.926,22.461,33.691,-0.977,0
1483999014.417,42.969,30.273,29.785,41.992,-23.926,0
1483999014.421,41.016,34.668,41.016,39.551,-16.602,0
1483999014.425,31.250,28.320,42.969,26.367,25.391,0
1483999014.429,35.645,36.133,45.410,27.344,39.062,0
1483999014.433,38.086,30.762,43.457,31.738,6.348,0
1483999014.437,39.062,27.344,46.875,35.156,10.742,0
1483999014.440,36.621,33.691,46.875,33.691,28.809,0
1483999014.444,33.691,19.531,36.621,33.691,22.461,0
1483999014.448,45.410,22.461,43.945,47.363,43.945,0
1483999014.452,30.762,17.578,46.387,33.691,31.738,0
1483999014.456,33.203,26.855,47.852,32.715,15.137,0
1483999014.460,43.457,39.062,49.316,41.504,2.441,0
1483999014.464,30.273,27.832,39.551,31.738,11.230,0
1483999014.468,26.367,28.320,38.086,28.809,47.852,0
1483999014.472,24.414,32.715,36.133,28.809,46.875,0
1483999014.476,30.762,41.016,47.852,38.574,19.531,0
1483999014.480,31.738,23.926,54.199,35.645,4.395,0
1483999014.483,28.809,13.672,38.086,27.832,52.246,0
1483999014.487,34.668,28.809,40.527,33.691,57.617,0
1483999014.491,33.203,30.273,42.480,27.344,41.504,0
1483999014.495,28.809,25.391,41.016,23.438,35.156,0
1483999014.499,35.645,26.855,51.270,31.738,29.785,0
1483999014.503,42.480,42.969,59.570,39.551,76.660,0
1483999014.507,40.527,49.316,49.805,42.969,51.270,0
1483999014.511,36.621,27.832,38.574,42.480,13.184,0
1483999014.515,37.109,19.043,41.992,40.039,47.852,0
1483999014.519,33.203,20.508,38.574,31.250,44.434,0
1483999014.522,31.250,22.949,32.715,28.320,59.082,0
1483999014.526,34.180,25.879,29.297,33.203,47.852,0
1483999014.530,28.809,22.949,23.926,26.367,45.898,0
1483999014.534,35.645,39.062,37.109,32.227,58.594,0
1483999014.538,39.062,37.109,40.527,38.574,28.809,0
1483999014.542,29.297,19.531,33.691,27.832,40.527,0
1483999014.546,36.621,31.738,42.480,34.180,70.312,0
1483999014.550,34.668,29.297,44.922,34.668,62.988,0
1483999014.554,28.320,21.484,36.621,26.855,51.270,0
1483999014.558,33.203,26.855,24.414,32.227,62.500,0
1483999014.562,27.832,29.785,29.785,30.762,79.102,0
1483999014.565,28.320,30.762,45.410,28.809,67.871,0
1483999014.569,34.668,30.273,56.641,33.691,59.082,0
1483999014.573,30.762,30.762,43.457,34.668,65.430,0
1483999014.577,36.133,28.809,35.645,40.039,70.801,0
1483999014.581,35.156,19.531,40.039,36.621,72.266,0
1483999014.585,30.762,17.578,43.457,30.762,40.039,0
1483999014.589,31.250,17.578,38.086,31.738,46.875,0
1483999014.593,30.762,16.602,29.297,29.785,25.879,0
1483999014.597,28.809,18.066,27.832,27.344,10.254,0
1483999014.601,27.344,25.879,29.297,25.879,29.297,0
1483999014.605,35.645,35.156,40.527,33.203,56.641,0
1483999014.608,38.574,38.574,48.340,37.598,60.547,0
1483999014.612,29.785,30.273,45.898,32.227,36.621,0
1483999014.616,30.762,27.832,45.898,33.691,23.926,0
1483999014.620,37.109,32.227,42.969,36.133,34.668,0
1483999014.624,31.738,29.785,36.133,29.297,59.082,0
1483999014.628,29.785,21.484,33.691,24.902,65.430,0
1483999014.632,28.809,15.625,35.645,20.508,70.801,0
1483999014.636,24.902,16.113,33.691,18.555,64.453,0
1483999014.640,30.762,18.066,35.645,25.879,45.410,0
1483999014.644,46.875,31.738,42.969,41.016,26.855,0
1483999014.647,53.223,47.363,41.992,48.340,4.883,0
1483999014.651,40.527,34.180,39.551,37.598,41.016,0
1483999014.655,35.156,27.832,41.992,31.250,58.594,0
1483999014.659,49.805,45.410,53.711,41.016,11.230,0
1483999014.663,41.504,36.133,45.898,36.621,26.367,0
1483999014.667,36.133,23.926,40.039,33.691,47.852,0
1483999014.671,46.387,29.297,58.594,39.551,56.641,0
1483999014.675,44.434,33.691,62.012,38.574,56.152,0
1483999014.679,43.945,46.387,55.176,43.457,49.805,0
1483999014.683,35.156,41.016,43.457,36.133,49.805,0
1483999014.687,22.461,19.043,30.762,20.508,47.363,0
1483999014.690,34.180,23.926,48.340,28.809,60.059,0
1483999014.694,40.039,34.668,49.316,36.133,52.734,0
1483999014.698,31.250,32.227,35.645,34.668,19.531,0
1483999014.702,23.438,26.855,24.902,27.832,-18.066,0
1483999014.706,21.484,20.996,23.438,20.996,9.766,0
1483999014.710,35.645,33.691,45.898,37.109,61.035,0
1483999014.714,36.133,40.527,48.340,39.551,49.316,0
1483999014.718,34.180,32.715,43.945,37.109,23.926,0
1483999014.722,42.969,34.668,51.270,46.875,14.160,0
1483999014.726,38.086,32.227,42.480,37.109,42.969,0
1483999014.730,31.738,22.949,32.715,27.832,47.852,0
1483999014.733,40.527,34.668,39.062,38.086,25.391,0
1483999014.737,51.270,42.969,52.734,45.410,17.090,0
1483999014.741,39.551,20.508,41.992,35.156,25.391,0
1483999014.745,38.086,15.137,25.391,38.574,20.020,0
1483999014.749,44.434,29.297,33.203,43.457,-13.672,0
1483999014.753,50.293,38.574,52.246,45.898,16.602,0
1483999014.757,49.316,32.227,51.270,44.434,49.805,0
1483999014.761,46.875,29.297,46.387,42.480,50.781,0
1483999014.765,51.270,37.109,50.293,46.875,41.504,0
1483999014.769,43.457,37.598,48.828,41.504,20.020,0
1483999014.772,38.574,35.156,50.293,39.551,41.504,0
1483999014.776,31.738,18.066,41.504,32.715,32.715,0
1483999014.780,36.621,23.438,41.504,35.156,5.371,0
1483999014.784,39.551,37.109,42.480,35.156,27.344,0
1483999014.788,37.109,35.645,39.551,30.762,47.363,0
1483999014.792,44.922,34.668,51.270,37.598,14.648,0
1483999014.796,40.527,27.344,50.781,34.180,19.531,0
1483999014.800,32.227,26.367,36.133,25.391,44.434,0
1483999014.804,33.203,28.809,32.227,26.855,40.527,0
1483999014.808,32.715,23.438,31.250,25.391,59.570,0
1483999014.812,44.434,34.180,46.387,40.039,65.430,0
1483999014.815,53.711,49.805,59.082,54.199,64.941,0
1483999014.819,46.875,42.480,49.316,47.363,41.016,0
1483999014.823,40.527,36.621,41.992,36.133,37.109,0
1483999014.827,44.922,43.457,39.062,40.039,39.062,0
1483999014.831,43.457,41.992,36.621,43.457,25.391,0
1483999014.835,39.551,33.203,43.945,38.574,19.043,0
1483999014.839,29.785,26.855,40.527,29.297,-11.230,0
1483999014.843,21.484,25.391,29.785,24.414,15.137,0
1483999014.847,37.598,32.227,46.387,38.574,38.574,0
1483999014.851,39.062,31.250,48.828,41.016,27.344,0
1483999014.855,26.855,27.344,38.086,32.227,38.086,0
1483999014.858,24.414,22.461,34.668,28.320,35.645,0
1483999014.862,22.461,18.066,24.414,22.461,44.434,0
1483999014.866,39.062,40.039,33.691,39.062,44.922,0
1483999014.870,54.688,50.293,62.012,54.199,46.875,0
1483999014.874,44.434,31.250,62.500,42.969,67.871,0
1483999014.878,40.527,26.855,45.410,41.992,63.477,0
1483999014.882,51.270,44.434,54.199,52.734,14.160,0
1483999014.886,47.363,42.480,50.293,46.387,-25.391,0
1483999014.890,42.969,30.273,44.922,38.574,26.855,0
1483999014.894,52.246,36.133,45.410,44.922,56.152,0
1483999014.897,52.734,33.203,41.504,47.363,32.227,0
1483999014.901,48.340,32.227,43.945,43.457,25.879,0
1483999014.905,38.086,25.391,44.922,34.668,37.598,0
1483999014.909,32.227,19.531,40.527,35.645,23.926,0
1483999014.913,35.645,28.320,34.668,37.598,-10.742,0
1483999014.917,35.645,35.645,39.551,33.203,1.953,0
1483999014.921,34.180,26.855,42.480,30.273,38.086,0
1483999014.925,40.527,20.508,45.898,31.250,31.250,0
1483999014.929,45.410,30.762,52.734,36.133,6.836,0
1483999014.933,35.156,27.832,45.410,29.297,27.344,0
1483999014.937,31.250,24.902,46.875,25.879,51.270,0
1483999014.940,40.527,35.645,54.688,37.109,43.945,0
1483999014.944,35.645,34.668,38.086,31.738,14.648,0
1483999014.948,30.762,27.344,24.414,20.996,-1.465,0
1483999014.952,41.016,31.250,41.016,29.785,35.156,0
1483999014.956,44.434,31.250,51.758,41.016,52.246,0
1483999014.960,36.621,20.996,36.133,38.574,50.781,0
1483999014.964,38.086,24.414,34.668,37.598,50.781,0
1483999014.968,49.805,34.180,50.293,45.898,43.457,0
1483999014.972,51.758,32.227,50.293,47.363,31.250,0
1483999014.976,41.504,20.508,42.969,41.992,33.203,0
1483999014.980,40.527,25.391,45.898,41.016,65.430,0
1483999014.983,45.410,34.668,44.922,43.945,32.715,0
1483999014.987,45.410,32.715,38.574,45.898,14.160,0
1483999014.991,42.969,30.762,31.738,43.457,29.297,0
1483999014.995,37.109,35.645,35.156,35.156,30.762,0
1483999014.999,34.668,37.109,42.480,26.855,48.828,0
1483999015.003,41.016,25.879,43.945,31.250,47.852,0
1483999015.007,43.945,17.090,40.527,32.715,62.012,0
1483999015.011,41.016,18.555,41.016,31.250,59.570,0
1483999015.015,38.574,20.508,38.574,33.203,17.578,0
1483999015.019,41.016,24.902,52.246,40.039,12.695,0
1483999015.022,40.527,32.715,58.105,39.551,19.043,0
1483999015.026,41.504,41.992,42.480,36.133,47.363,0
1483999015.030,37.109,33.691,40.527,32.227,52.246,0
1483999015.034,34.180,23.926,50.781,32.227,36.621,0
1483999015.038,28.809,19.043,49.316,28.809,34.668,0
1483999015.042,20.508,12.207,40.527,24.414,45.410,0
1483999015.046,20.508,18.555,46.387,23.926,53.223,0
1483999015.050,24.902,20.508,35.156,27.832,42.969,0
1483999015.054,30.273,27.344,32.227,35.156,26.367,0
1483999015.058,34.180,31.738,51.270,41.016,56.152,0
1483999015.062,29.785,19.043,49.316,37.109,64.453,0
1483999015.065,37.598,31.738,42.480,38.574,43.945,0
1483999015.069,41.992,41.992,42.969,41.992,60.547,0
1483999015.073,33.691,28.809,39.062,40.039,47.852,0
1483999015.077,33.203,18.555,38.574,40.527,9.277,0
1483999015.081,35.645,13.672,41.016,33.691,20.996,0
1483999015.085,29.297,10.742,41.504,23.926,56.641,0
1483999015.089,28.320,12.695,24.902,23.926,51.758,0
1483999015.093,34.668,27.344,29.297,31.250,49.316,0
1483999015.097,39.551,34.180,42.969,36.133,75.195,0
1483999015.101,39.062,30.273,42.969,38.086,70.312,0
1483999015.105,40.527,38.574,42.969,42.480,30.762,0
1483999015.108,36.621,33.691,38.086,38.574,16.113,0
1483999015.112,32.715,22.949,41.016,32.715,14.648,0
1483999015.116,48.828,31.738,57.129,46.875,25.879,0
1483999015.120,42.480,29.297,47.363,41.504,40.527,0
1483999015.124,28.809,18.555,21.484,24.902,27.344,0
1483999015.128,36.133,27.344,31.250,31.250,66.406,0
1483999015.132,34.668,27.832,37.109,32.227,49.316,0
1483999015.136,34.180,26.367,41.992,34.180,15.137,0
1483999015.140,38.574,30.273,41.504,38.086,38.574,0
1483999015.144,30.273,22.461,26.855,28.320,57.129,0
1483999015.147,30.762,20.996,39.062,27.832,52.246,0
1483999015.151,35.156,24.414,44.434,33.203,20.996,0
1483999015.155,31.250,19.531,33.691,28.809,-1.465,0
1483999015.159,37.109,26.367,39.062,28.320,6.836,0
1483999015.163,48.828,44.922,50.781,40.527,19.043,0
1483999015.167,41.992,33.691,54.199,34.668,4.883,0
1483999015.171,32.715,15.137,48.340,26.367,2.441,0
1483999015.175,37.109,15.137,37.109,29.785,41.504,0
1483999015.179,41.992,23.926,36.621,34.180,49.805,0
1483999015.183,41.992,30.273,46.875,40.527,41.504,0
1483999015.187,29.785,23.926,37.109,31.250,28.320,0
1483999015.190,24.902,20.020,34.180,30.762,48.828,0
1483999015.194,40.039,35.156,54.199,46.387,61.523,0
1483999015.198,42.969,36.133,46.875,44.434,36.621,0
1483999015.202,38.086,29.297,39.062,37.109,38.086,0
1483999015.206,27.832,17.090,42.480,26.367,43.945,0
1483999015.210,26.855,17.090,39.062,26.855,5.859,0
1483999015.214,36.621,32.227,37.109,34.668,-3.418,0
1483999015.218,38.086,30.762,49.805,34.668,38.574,0
1483999015.222,35.156,20.996,50.293,35.156,49.316,0
1483999015.226,34.668,26.855,47.363,36.621,50.781,0
1483999015.230,32.715,35.156,45.410,34.668,43.457,0
1483999015.233,34.668,34.668,42.969,37.109,62.500,0
1483999015.237,39.062,31.738,43.457,35.645,85.938,0
1483999015.241,27.832,18.066,32.227,21.484,77.637,0
1483999015.245,21.484,15.137,34.180,20.508,20.020,0
1483999015.249,31.738,25.391,41.016,30.762,18.066,0
1483999015.253,24.902,24.902,32.227,21.973,40.039,0
1483999015.257,29.785,25.391,30.273,22.461,24.414,0
1483999015.261,41.504,30.762,40.527,33.203,11.230,0
1483999015.265,37.598,34.668,44.434,28.809,41.016,0
1483999015.269,34.180,29.785,36.621,27.344,55.176,0
1483999015.272,31.250,18.555,30.273,28.809,34.180,0
1483999015.276,35.645,26.367,32.227,34.668,62.500,0
1483999015.280,35.645,29.785,40.527,35.645,60.059,0
1483999015.284,35.645,26.855,49.316,39.551,41.504,0
1483999015.288,28.320,28.320,42.969,37.109,69.336,0
1483999015.292,19.531,15.137,30.273,28.320,61.035,0
1483999015.296,26.367,19.043,27.344,32.715,36.621,0
1483999015.300,37.109,31.738,41.504,42.480,43.457,0
1483999015.304,43.457,33.691,49.805,46.875,39.551,0
1483999015.308,46.875,38.086,49.805,49.805,46.387,0
1483999015.312,41.992,32.227,46.387,45.898,47.363,0
1483999015.315,25.879,12.695,29.297,25.391,41.504,0
1483999015.319,30.762,14.648,23.438,24.902,42.480,0
1483999015.323,43.945,27.832,27.832,35.645,54.199,0
1483999015.327,42.480,27.832,42.480,38.574,46.875,0
1483999015.331,44.922,32.715,55.176,41.992,24.902,0
1483999015.335,54.199,45.898,57.129,47.363,43.457,0
1483999015.339,33.691,25.879,35.645,28.809,64.453,0
1483999015.343,21.973,8.789,20.020,15.625,38.574,0
1483999015.347,32.227,22.949,33.691,25.879,9.766,0
1483999015.351,33.203,29.297,30.762,29.785,16.113,0
1483999015.355,49.805,42.480,51.758,50.781,37.598,0
1483999015.358,59.082,44.434,66.406,60.547,35.645,0
1483999015.362,40.527,21.484,35.645,36.621,41.016,0
1483999015.366,34.668,26.855,21.973,29.297,41.992,0
1483999015.370,30.762,25.391,23.926,30.762,46.875,0
1483999015.374,24.902,23.438,30.273,23.438,52.246,0
1483999015.378,30.273,31.250,41.992,27.832,27.344,0
1483999015.382,33.203,31.250,46.387,32.227,23.926,0
1483999015.386,32.227,32.227,44.922,26.367,29.785,0
1483999015.390,41.016,31.250,49.805,30.273,27.832,0
1483999015.394,49.805,36.133,55.176,41.504,24.902,0
1483999015.397,44.434,34.668,40.039,40.039,18.066,0
1483999015.401,21.973,11.719,17.090,17.578,38.086,0
1483999015.405,26.855,17.578,33.691,21.484,28.320,0
1483999015.409,46.875,43.457,57.129,46.387,-5.859,0
1483999015.413,40.527,37.109,49.805,42.969,40.039,0
1483999015.417,37.109,27.344,45.410,38.574,24.414,0
1483999015.421,38.574,33.203,46.875,41.016,-7.812,0
1483999015.425,32.227,31.250,41.992,32.227,7.812,0
1483999015.429,22.949,13.672,33.203,22.461,28.809,0
1483999015.433,32.227,17.578,36.621,36.133,74.219,0
1483999015.437,40.039,35.156,35.645,44.922,22.461,0
1483999015.440,37.598,29.297,36.133,33.691,-5.859,0
1483999015.444,34.668,19.043,38.574,26.367,44.922,0
1483999015.448,38.086,38.574,44.434,31.250,27.832,0
1483999015.452,36.133,31.250,45.898,30.273,1.953,0
1483999015.456,28.809,2.930,38.086,23.926,19.531,0
1483999015.460,28.809,11.230,43.457,23.926,30.762,0
1483999015.464,38.574,29.785,47.363,36.133,36.133,0
1483999015.468,47.852,36.621,63.477,48.828,27.344,0
1483999015.472,32.715,27.832,56.641,36.133,7.812,0
1483999015.476,21.973,21.973,37.109,28.809,47.363,0
1483999015.480,28.320,30.273,39.551,32.227,40.039,0
1483999015.483,29.297,27.344,36.133,28.320,27.344,0
1483999015.487,26.855,22.949,35.156,25.391,75.195,0
1483999015.491,28.809,21.484,42.480,30.273,58.105,0
1483999015.495,39.062,24.902,55.664,39.551,13.672,0
1483999015.499,41.992,39.062,65.918,37.109,0.488,0
1483999015.503,35.645,40.039,62.988,31.738,7.324,0
1483999015.507,36.621,32.715,48.828,35.645,18.555,0
1483999015.511,40.039,37.109,37.109,38.574,35.645,0
1483999015.515,44.922,30.762,37.598,42.480,44.922,0
1483999015.519,49.316,22.461,43.945,48.340,56.152,0
1483999015.522,44.922,20.508,43.945,43.457,47.363,0
1483999015.526,45.410,28.320,46.387,42.969,45.410,0
1483999015.530,40.527,37.598,41.992,39.062,33.691,0
1483999015.534,35.156,36.133,41.016,38.086,20.020,0
1483999015.538,38.086,33.203,49.316,44.434,25.391,0
1483999015.542,41.504,36.133,52.734,43.945,44.434,0
1483999015.546,35.645,30.273,40.527,35.156,36.133,0
1483999015.550,24.414,15.625,24.902,23.438,50.781,0
1483999015.554,34.668,16.113,29.297,31.738,62.500,0
1483999015.558,39.551,22.461,36.133,35.645,25.391,0
1483999015.562,33.691,21.973,38.086,31.250,37.109,0
1483999015.565,44.922,35.156,46.875,45.898,71.289,0
1483999015.569,50.781,46.387,45.410,58.105,86.914,0
1483999015.573,41.016,40.039,43.457,45.898,83.008,0
1483999015.577,43.457,41.992,51.270,41.992,70.312,0
1483999015.581,36.621,32.227,40.527,40.527,58.105,0
1483999015.585,23.438,14.648,22.949,28.320,60.059,0
1483999015.589,25.391,14.160,30.273,25.391,3.906,0
1483999015.593,27.832,17.090,37.109,29.297,-2.930,0
1483999015.597,27.832,21.484,40.527,26.855,64.453,0
1483999015.601,38.086,34.668,43.945,33.203,57.129,0
1483999015.605,40.039,39.062,38.574,37.109,47.852,0
1483999015.608,36.621,35.645,39.551,32.715,58.594,0
1483999015.612,43.945,37.109,39.062,39.062,55.176,0
1483999015.616,44.922,33.203,39.062,42.969,46.387,0
1483999015.620,37.109,27.344,38.086,38.086,73.242,0
1483999015.624,28.809,28.320,23.926,32.715,101.562,0
1483999015.628,34.180,23.438,29.785,37.598,52.734,0
1483999015.632,41.992,22.949,42.480,41.016,28.809,0
1483999015.636,37.598,27.832,39.062,30.273,23.438,0
1483999015.640,26.367,23.926,24.902,18.555,25.879,0
1483999015.644,46.875,40.527,37.598,37.109,15.625,0
1483999015.647,57.129,44.434,53.711,46.387,35.645,0
1483999015.651,38.574,23.438,39.551,31.738,55.176,0
1483999015.655,39.062,24.414,34.180,33.203,49.805,0
1483999015.659,39.551,30.273,30.762,31.738,38.086,0
1483999015.663,41.504,39.551,32.227,35.645,27.344,0
1483999015.667,39.062,35.156,38.086,37.109,69.336,0
1483999015.671,39.551,32.715,40.527,38.086,89.355,0
1483999015.675,45.898,41.016,49.805,42.480,60.547,0
1483999015.679,40.527,36.133,53.223,36.621,51.270,0
1483999015.683,39.551,25.391,40.039,40.527,75.195,0
1483999015.687,34.668,16.602,35.645,40.039,48.340,0
1483999015.690,35.645,22.461,44.434,41.992,27.832,0
1483999015.694,40.527,24.414,51.758,46.875,16.602,0
1483999015.698,43.945,29.297,50.781,49.805,20.020,0
1483999015.702,49.316,42.480,49.805,57.129,29.297,0
1483999015.706,41.504,36.133,35.645,47.363,41.504,0
1483999015.710,48.828,36.133,44.922,48.340,46.387,0
1483999015.714,41.992,23.438,43.945,42.480,29.297,0
1483999015.718,35.156,19.043,32.715,37.109,17.090,0
1483999015.722,42.480,28.809,40.039,50.293,4.883,0
1483999015.726,42.480,27.344,41.504,47.852,-8.301,0
1483999015.730,50.781,37.598,51.758,48.828,25.879,0
1483999015.733,58.594,48.828,63.477,58.105,44.922,0
1483999015.737,62.012,54.688,59.570,62.500,6.348,0
1483999015.741,51.758,42.480,46.387,50.293,14.648,0
1483999015.745,40.527,34.180,37.109,39.551,19.043,0
1483999015.749,36.621,27.832,31.738,37.598,-14.648,0
1483999015.753,36.621,21.484,38.574,38.086,-6.348,0
1483999015.757,37.109,18.555,48.340,37.109,25.391,0
1483999015.761,41.992,23.438,46.875,43.457,52.246,0
1483999015.765,41.992,28.320,42.969,41.016,23.926,0
1483999015.769,39.551,27.344,41.992,38.086,-11.230,0
1483999015.772,45.410,34.668,45.410,47.363,-12.695,0
1483999015.776,48.828,41.992,48.828,51.758,-4.395,0
1483999015.780,39.551,32.227,29.785,41.016,-6.836,0
1483999015.784,36.133,20.508,30.273,35.645,-48.340,0
1483999015.788,41.992,28.809,45.410,42.969,-10.742,0
1483999015.792,48.828,35.156,37.598,47.852,19.531,0
1483999015.796,50.781,30.762,38.574,45.410,-0.977,0
1483999015.800,41.992,21.973,37.109,36.133,22.949,0
1483999015.804,43.945,30.762,33.203,38.086,-4.883,0
1483999015.808,46.875,44.922,33.691,43.945,-1.465,0
1483999015.812,42.480,41.504,26.855,39.551,6.348,0
1483999015.815,44.922,36.133,30.762,32.715,-20.996,0
1483999015.819,46.387,29.785,28.809,31.738,29.785,0
1483999015.823,45.410,34.668,28.320,32.715,36.621,0
1483999015.827,54.199,43.945,48.340,41.016,-3.906,0
1483999015.831,54.688,44.434,49.805,45.898,-11.230,0
1483999015.835,46.875,38.086,37.598,39.062,23.438,0
1483999015.839,38.086,31.250,32.715,28.809,26.855,0
1483999015.843,41.992,36.133,32.715,33.203,19.043,0
1483999015.847,43.945,38.574,29.785,34.180,35.156,0
1483999015.851,35.645,32.715,38.574,29.297,18.555,0
1483999015.855,41.016,27.344,40.039,38.574,0.977,0
1483999015.858,42.480,26.855,34.180,40.527,27.832,0
1483999015.862,40.039,29.785,34.180,38.574,41.992,0
1483999015.866,31.250,26.367,31.738,32.715,31.250,0
1483999015.870,32.227,30.273,41.504,31.738,16.113,0
1483999015.874,44.922,35.645,47.852,43.945,-0.977,0
1483999015.878,34.668,20.508,37.109,32.227,30.273,0
1483999015.882,30.273,18.555,29.785,27.832,53.711,0
1483999015.886,37.109,27.344,37.598,37.109,45.898,0
1483999015.890,36.621,27.832,36.133,35.156,31.738,0
1483999015.894,38.086,31.250,40.527,37.598,43.945,0
1483999015.897,35.645,27.832,45.898,35.645,43.945,0
1483999015.901,42.969,30.762,38.574,41.992,10.254,0
1483999015.905,50.781,32.715,40.527,49.316,33.691,0
1483999015.909,45.410,34.668,47.852,38.086,72.266,0
1483999015.913,33.203,34.668,36.621,24.902,43.945,0
1483999015.917,24.414,23.926,19.043,22.461,5.371,0
1483999015.921,34.180,26.855,23.926,30.762,47.852,0
1483999015.925,41.504,29.297,32.227,32.715,88.867,0
1483999015.929,30.273,20.508,22.949,23.438,62.500,0
1483999015.933,23.926,18.555,29.785,19.531,23.438,0
1483999015.937,36.621,29.297,45.410,32.227,29.297,0
1483999015.940,43.945,35.645,35.156,37.598,88.379,0
1483999015.944,44.434,37.598,36.621,30.273,67.383,0
1483999015.948,37.109,31.250,41.504,25.879,14.648,0
1483999015.952,33.691,20.996,39.062,27.344,21.484,0
1483999015.956,41.504,35.645,47.363,35.156,27.344,0
1483999015.960,34.180,41.504,40.527,33.203,23.926,0
1483999015.964,28.809,32.227,35.645,30.273,34.668,0
1483999015.968,34.668,36.621,40.039,36.133,44.922,0
1483999015.972,33.203,30.762,35.156,34.668,38.086,0
1483999015.976,34.180,35.156,34.180,34.668,16.113,0
1483999015.980,34.668,45.410,38.574,36.133,6.836,0
1483999015.983,40.039,42.480,50.781,42.480,63.477,0
1483999015.987,36.133,29.785,53.223,39.062,78.125,0
1483999015.991,31.738,28.809,51.270,31.738,53.711,0
1483999015.995,46.875,49.316,60.547,43.945,29.785,0
1483999015.999,43.457,38.086,55.176,41.504,31.738,0
1483999016.003,45.410,29.785,53.711,43.457,39.551,0
1483999016.007,55.664,44.434,57.129,53.223,4.395,0
1483999016.011,42.480,35.156,46.387,38.574,5.859,0
1483999016.015,41.992,31.250,39.062,37.109,52.246,0
1483999016.019,49.316,33.203,48.340,45.410,65.430,0
1483999016.022,41.016,25.391,60.547,38.086,44.922,0
1483999016.026,38.574,24.414,60.059,30.273,24.902,0
1483999016.030,39.551,26.367,50.293,26.855,43.457,0
1483999016.034,37.598,27.344,40.527,27.344,45.410,0
1483999016.038,41.016,36.133,40.527,31.738,18.066,0
1483999016.042,40.039,39.551,44.434,31.738,46.387,0
1483999016.046,38.086,41.504,40.039,29.297,84.473,0
1483999016.050,38.574,38.086,40.039,31.250,49.805,0
1483999016.054,33.691,32.227,41.992,30.273,17.090,0
1483999016.058,22.949,16.113,30.273,20.020,47.363,0
1483999016.062,18.555,8.301,35.156,16.602,68.359,0
1483999016.065,25.391,29.297,49.316,25.391,54.199,0
1483999016.069,24.414,34.180,46.387,25.391,30.273,0
1483999016.073,16.602,20.996,38.574,17.578,57.129,0
1483999016.077,11.230,17.090,33.203,13.672,45.410,0
1483999016.081,19.043,31.250,41.016,20.996,48.828,0
1483999016.085,32.227,43.457,46.387,31.738,42.480,0
1483999016.089,30.762,30.762,40.527,30.762,20.508,0
1483999016.093,32.227,27.344,40.527,32.715,2.441,0
1483999016.097,42.480,35.156,55.176,44.434,8.789,0
1483999016.101,35.156,30.762,63.477,35.156,41.504,0
1483999016.105,28.809,27.344,50.293,28.809,33.203,0
1483999016.108,33.203,24.902,44.434,38.574,33.203,0
1483999016.112,35.156,25.391,49.316,38.086,18.555,0
1483999016.116,41.016,30.762,45.410,42.969,-2.441,0
1483999016.120,36.621,20.020,38.574,39.551,34.668,0
1483999016.124,30.762,11.719,31.738,30.273,35.156,0
1483999016.128,33.691,15.625,32.715,33.691,-6.836,0
1483999016.132,43.945,28.809,41.016,47.363,5.859,0
1483999016.136,46.387,37.109,41.016,51.758,52.734,0
1483999016.140,36.133,33.203,32.715,41.016,47.852,0
1483999016.144,36.621,36.133,40.527,36.621,5.859,0
1483999016.147,36.133,46.387,53.223,32.715,27.344,0
1483999016.151,17.578,31.250,41.016,17.578,66.895,0
1483999016.155,15.625,18.555,32.227,15.137,11.719,0
1483999016.159,33.203,32.715,41.504,30.273,0.977,0
1483999016.163,33.691,31.250,39.551,28.809,35.645,0
1483999016.167,28.809,28.809,42.480,23.438,27.344,0
1483999016.171,26.855,29.785,44.922,23.438,50.781,0
1483999016.175,25.391,28.809,32.227,22.461,52.734,0
1483999016.179,31.250,35.645,35.645,24.902,42.969,0
1483999016.183,32.227,29.785,43.457,23.926,45.898,0
1483999016.187,33.203,27.344,50.293,23.926,68.848,0
1483999016.190,43.457,42.480,54.688,31.738,47.852,0
1483999016.194,47.852,47.363,50.293,36.621,41.504,0
1483999016.198,38.574,32.715,45.898,31.738,71.289,0
1483999016.202,33.203,18.555,37.109,26.367,32.227,0
1483999016.206,38.574,28.320,38.086,28.320,-3.906,0
1483999016.210,36.133,36.621,39.062,25.879,23.438,0
1483999016.214,24.902,22.461,24.414,21.484,10.742,0
1483999016.218,21.484,16.602,27.344,24.902,-0.977,0
1483999016.222,29.297,24.902,40.039,36.133,35.645,0
1483999016.226,33.203,24.414,41.016,39.551,50.293,0
1483999016.230,29.785,20.020,45.410,36.133,30.273,0
1483999016.233,30.762,18.555,47.363,34.180,13.672,0
1483999016.237,36.621,22.949,35.645,38.086,31.250,0
1483999016.241,41.016,27.832,39.551,40.527,51.270,0
1483999016.245,35.156,25.391,40.039,32.227,36.133,0
1483999016.249,34.668,25.879,28.809,30.762,8.789,0
1483999016.253,41.992,28.320,23.438,39.062,28.320,0
1483999016.257,43.945,29.785,24.902,42.480,61.523,0
1483999016.261,36.133,17.578,30.762,34.668,31.250,0
1483999016.265,27.832,11.230,26.367,22.949,17.578,0
1483999016.269,37.598,26.367,36.133,30.762,62.988,0
1483999016.272,44.434,32.715,41.992,38.574,54.199,0
1483999016.276,33.691,33.203,36.621,29.297,42.480,0
1483999016.280,32.227,28.320,35.156,23.926,35.645,0
1483999016.284,30.762,20.508,29.297,22.949,41.016,0
1483999016.288,23.926,20.996,31.250,17.578,20.508,0
1483999016.292,35.645,36.133,38.086,23.438,-23.438,0
1483999016.296,41.016,37.598,41.992,31.250,-0.488,0
1483999016.300,33.691,26.367,37.598,22.949,23.926,0
1483999016.304,31.250,32.227,35.645,19.531,20.020,0
1483999016.308,33.691,36.133,35.645,23.438,29.785,0
1483999016.312,33.691,27.832,29.785,25.391,46.875,0
1483999016.315,34.668,29.785,37.109,27.832,55.664,0
1483999016.319,36.621,36.621,38.574,31.738,44.434,0
1483999016.323,49.316,43.457,34.180,41.992,56.152,0
1483999016.327,55.664,40.039,36.133,46.387,50.781,0
1483999016.331,49.316,27.832,31.250,41.016,35.156,0
1483999016.335,50.781,30.273,36.133,41.992,37.109,0
1483999016.339,55.176,36.621,56.641,51.270,41.992,0
1483999016.343,55.664,36.133,56.641,54.199,30.762,0
1483999016.347,41.504,18.555,40.039,37.109,20.996,0
1483999016.351,37.109,14.160,37.109,32.715,45.898,0
1483999016.355,47.363,28.320,36.133,45.410,51.758,0
1483999016.358,42.969,19.043,32.227,41.504,64.453,0
1483999016.362,46.875,19.531,35.645,46.387,61.523,0
1483999016.366,45.898,23.926,32.227,50.781,44.434,0
1483999016.370,35.645,25.879,33.203,41.992,31.250,0
1483999016.374,35.156,28.809,44.434,39.062,37.109,0
1483999016.378,34.180,29.297,45.410,37.598,52.734,0
1483999016.382,32.227,30.762,51.270,36.133,9.277,0
1483999016.386,29.785,23.926,47.852,33.203,8.301,0
1483999016.390,30.762,24.902,44.922,30.273,44.434,0
1483999016.394,22.949,22.461,49.805,23.438,50.781,0
1483999016.397,15.137,17.578,46.387,17.578,57.617,0
1483999016.401,20.508,17.578,34.180,23.438,61.035,0
1483999016.405,21.973,13.672,22.949,24.902,58.105,0
1483999016.409,26.855,11.230,33.203,24.902,50.781,0
1483999016.413,37.109,22.949,48.828,33.691,34.180,0
1483999016.417,46.875,36.621,53.711,45.898,41.504,0
1483999016.421,35.156,28.320,43.457,36.621,38.574,0
1483999016.425,31.738,22.461,33.691,34.668,-0.488,0
1483999016.429,46.387,32.715,38.086,46.875,4.395,0
1483999016.433,49.805,32.715,53.223,50.293,23.926,0
1483999016.437,41.992,25.879,44.434,46.387,18.555,0
1483999016.440,44.922,25.391,24.902,45.410,23.926,0
1483999016.444,40.527,16.113,28.320,37.109,25.879,0
1483999016.448,36.133,16.602,40.527,33.203,37.109,0
1483999016.452,34.180,14.160,40.039,30.762,52.734,0
1483999016.456,33.203,11.230,36.621,27.344,60.547,0
1483999016.460,41.992,31.250,51.270,39.551,49.805,0
1483999016.464,48.340,37.598,44.922,43.457,13.184,0
1483999016.468,48.340,33.203,33.203,40.527,-12.695,0
1483999016.472,41.016,28.809,35.156,37.598,-25.391,0
1483999016.476,33.203,18.555,29.297,28.809,-8.789,0
1483999016.480,22.461,6.836,14.648,18.066,14.648,0
1483999016.483,26.367,15.137,21.973,24.414,-3.418,0
1483999016.487,26.367,18.066,29.785,25.879,-0.977,0
1483999016.491,29.297,19.531,37.598,29.785,24.414,0
1483999016.495,32.715,27.832,36.621,35.156,43.457,0
1483999016.499,25.879,26.367,22.461,28.320,10.742,0
1483999016.503,23.926,20.508,27.344,23.438,6.836,0
1483999016.507,26.855,12.695,23.438,22.949,9.277,0
1483999016.511,41.016,27.344,28.320,31.250,19.531,0
1483999016.515,49.316,33.203,37.109,43.457,38.574,0
1483999016.519,40.039,21.484,30.762,40.527,-18.066,0
1483999016.522,30.762,15.137,20.020,34.668,-8.301,0
1483999016.526,35.156,19.531,21.484,34.180,35.156,0
1483999016.530,38.086,16.602,28.809,34.668,6.348,0
1483999016.534,34.180,7.324,32.227,34.180,5.859,0
1483999016.538,36.133,16.113,38.574,36.621,35.645,0
1483999016.542,40.039,30.273,44.922,40.039,7.324,0
1483999016.546,41.016,30.762,35.645,38.574,-20.020,0
1483999016.550,32.227,18.066,21.484,31.250,14.160,0
1483999016.554,27.344,9.766,27.832,28.809,26.367,0
1483999016.558,28.809,18.555,37.598,33.203,31.738,0
1483999016.562,35.156,29.297,41.504,39.062,38.574,0
1483999016.565,39.551,24.414,54.199,41.016,28.809,0
1483999016.569,30.762,15.625,42.480,28.320,34.668,0
1483999016.573,37.598,21.484,27.832,30.762,69.824,0
1483999016.577,36.621,23.438,38.086,35.645,39.062,0
1483999016.581,34.668,33.691,42.480,35.156,7.324,0
1483999016.585,42.480,43.945,41.992,42.969,36.621,0
1483999016.589,40.039,22.461,32.227,38.574,27.344,0
1483999016.593,33.203,5.859,32.715,32.227,11.230,0
1483999016.597,38.086,16.602,46.387,41.504,20.020,0
1483999016.601,41.016,23.438,54.199,41.016,44.434,0
1483999016.605,41.992,27.832,44.922,40.527,61.523,0
1483999016.608,42.480,26.367,34.180,43.457,36.621,0
1483999016.612,31.250,19.043,36.621,37.109,35.156,0
1483999016.616,35.645,33.691,43.457,43.945,36.133,0
1483999016.620,41.992,42.969,42.480,49.316,-10.742,0
1483999016.624,39.062,28.809,43.457,39.551,-5.859,0
1483999016.628,29.297,11.719,35.645,33.691,22.461,0
1483999016.632,32.715,17.578,34.668,41.504,44.434,0
1483999016.636,41.504,24.902,40.039,46.875,50.293,0
1483999016.640,38.086,24.414,40.039,42.480,31.738,0
1483999016.644,30.762,27.344,34.668,35.156,58.105,0
1483999016.647,36.133,35.156,36.621,41.992,41.016,0
1483999016.651,28.320,26.367,43.945,36.621,18.555,0
1483999016.655,20.996,16.113,33.203,26.855,45.410,0
1483999016.659,35.645,34.668,38.086,41.504,50.781,0
1483999016.663,28.809,27.832,40.039,33.691,27.344,0
1483999016.667,14.648,9.766,28.320,18.555,23.438,0
1483999016.671,17.090,14.648,34.668,16.602,7.812,0
1483999016.675,21.484,21.973,41.992,15.625,22.461,0
1483999016.679,20.996,24.414,37.109,20.020,38.086,0
1483999016.683,23.926,22.461,31.738,21.484,30.273,0
1483999016.687,35.645,33.203,41.992,29.785,40.039,0
1483999016.690,37.109,45.410,46.875,37.598,36.133,0
1483999016.694,28.320,31.250,35.156,28.320,40.039,0
1483999016.698,21.973,19.043,21.973,17.578,34.668,0
1483999016.702,21.484,24.414,20.996,18.066,3.418,0
1483999016.706,17.090,16.602,24.902,16.113,1.465,0
1483999016.710,20.020,19.043,32.227,17.578,16.113,0
1483999016.714,25.879,25.879,36.621,25.879,27.344,0
1483999016.718,22.949,18.555,25.879,28.809,25.879,0
1483999016.722,25.391,21.484,20.020,29.785,20.996,0
1483999016.726,28.809,24.902,21.484,33.203,24.902,0
1483999016.730,30.762,20.020,30.273,32.715,-2.930,0
1483999016.733,39.062,26.367,46.387,41.504,11.719,0
1483999016.737,45.898,39.551,50.293,52.246,44.922,0
1483999016.741,41.992,32.227,40.039,48.340,39.551,0
1483999016.745,34.668,24.902,37.598,38.086,43.945,0
1483999016.749,26.855,19.043,29.785,25.879,78.613,0
1483999016.753,25.391,17.090,25.879,22.949,42.969,0
1483999016.757,23.926,14.648,28.320,20.508,2.441,0
1483999016.761,27.832,17.578,32.715,20.020,-9.277,0
1483999016.765,32.227,26.855,24.414,23.438,8.789,0
1483999016.769,26.855,24.414,24.414,23.438,44.922,0
1483999016.772,29.297,21.484,38.086,30.762,38.086,0
1483999016.776,37.598,33.203,38.574,36.621,26.855,0
1483999016.780,32.227,35.645,30.273,29.297,56.641,0
1483999016.784,29.297,25.879,30.762,26.855,51.758,0
1483999016.788,22.949,15.625,29.785,20.020,26.855,0
1483999016.792,13.184,9.766,33.203,16.602,31.250,0
1483999016.796,19.043,18.066,38.574,24.414,23.926,0
1483999016.800,20.996,24.902,28.320,29.297,-6.836,0
1483999016.804,12.695,16.113,24.414,20.508,-18.555,0
1483999016.808,18.066,14.648,31.738,21.484,12.207,0
1483999016.812,25.391,25.391,38.086,29.785,70.801,0
1483999016.815,26.367,24.902,30.762,27.344,55.664,0
1483999016.819,33.691,34.180,33.203,33.203,23.438,0
1483999016.823,26.855,31.738,34.180,25.879,54.199,0
1483999016.827,17.578,11.719,25.879,16.113,57.129,0
1483999016.831,26.855,17.090,22.461,24.902,61.035,0
1483999016.835,33.203,21.973,23.438,30.762,51.270,0
1483999016.839,32.227,12.695,20.508,25.879,40.527,0
1483999016.843,35.645,20.996,26.855,32.715,37.598,0
1483999016.847,36.621,22.949,31.250,39.062,18.555,0
1483999016.851,33.691,21.484,27.344,34.180,0.977,0
1483999016.855,35.645,34.668,35.645,32.715,8.301,0
1483999016.858,33.203,32.715,34.180,27.832,16.602,0
1483999016.862,35.156,14.160,33.691,28.809,38.574,0
1483999016.866,37.109,14.648,36.621,34.180,61.035,0
1483999016.870,37.109,28.320,31.738,33.203,76.172,0
1483999016.874,29.785,27.832,27.832,26.855,56.641,0
1483999016.878,22.949,19.531,29.785,24.414,9.766,0
1483999016.882,29.297,22.949,37.598,31.250,34.180,0
1483999016.886,22.949,16.113,22.949,25.879,74.707,0
1483999016.890,20.996,17.578,23.926,22.461,78.613,0
1483999016.894,24.902,24.414,33.691,21.484,40.039,0
1483999016.897,33.203,26.367,35.156,25.879,33.691,0
1483999016.901,31.250,24.902,31.250,20.996,68.848,0
1483999016.905,24.902,23.438,22.949,20.996,42.969,0
1483999016.909,28.809,28.320,29.297,30.273,19.043,0
1483999016.913,16.602,14.160,27.832,20.508,39.062,0
1483999016.917,27.832,21.484,35.645,27.832,64.453,0
1483999016.921,43.945,34.668,50.781,38.574,50.781,0
1483999016.925,26.367,15.137,34.180,22.461,38.086,0
1483999016.929,27.344,15.625,22.461,20.020,25.879,0
1483999016.933,39.551,27.344,30.762,34.180,9.277,0
1483999016.937,41.016,29.297,36.133,40.527,20.020,0
1483999016.940,31.250,22.461,28.809,27.832,24.902,0
1483999016.944,21.484,14.160,26.367,15.625,26.855,0
1483999016.948,37.109,22.949,41.992,33.691,41.504,0
1483999016.952,36.621,14.160,34.668,35.645,22.461,0
1483999016.956,34.180,15.625,25.391,32.227,19.531,0
1483999016.960,45.898,30.273,34.180,40.039,46.875,0
1483999016.964,44.922,22.461,39.551,34.668,18.555,0
1483999016.968,48.340,23.926,41.504,41.504,11.230,0
1483999016.972,44.922,27.832,35.156,43.457,54.199,0
1483999016.976,40.527,21.484,28.320,39.062,54.199,0
1483999016.980,44.922,21.484,35.645,41.504,19.531,0
1483999016.983,41.016,15.625,32.227,36.133,13.184,0
1483999016.987,41.016,21.484,39.551,37.598,30.762,0
1483999016.991,35.156,24.902,45.410,32.227,67.871,0
1483999016.995,35.645,22.949,36.621,32.227,67.383,0
1483999016.999,35.156,23.438,39.062,31.738,41.992,0
1483999017.003,34.668,31.250,37.598,31.250,35.156,0
1483999017.007,38.086,31.250,32.227,36.133,46.875,0
1483999017.011,36.133,28.809,43.945,34.180,68.848,0
1483999017.015,42.480,39.551,62.500,42.480,35.645,0
1483999017.019,40.039,33.691,49.805,43.457,44.922,0
1483999017.022,25.391,17.090,24.902,29.785,58.594,0
1483999017.026,20.508,13.672,20.508,23.438,31.738,0
1483999017.030,23.438,21.973,30.273,27.344,29.785,0
1483999017.034,21.973,25.391,38.086,30.273,54.199,0
1483999017.038,23.926,28.320,41.992,29.297,70.801,0
1483999017.042,27.344,28.809,36.133,29.297,52.246,0
1483999017.046,28.809,24.902,36.133,28.809,26.855,0
1483999017.050,32.227,23.926,38.086,30.273,48.340,0
1483999017.054,36.133,27.832,42.480,37.598,62.988,0
1483999017.058,40.527,30.273,43.457,46.387,33.203,0
1483999017.062,43.945,27.344,31.738,48.340,11.719,0
1483999017.065,47.363,30.762,33.691,46.387,29.297,0
1483999017.069,49.805,37.598,45.898,48.828,36.621,0
1483999017.073,37.598,23.926,43.945,41.504,13.672,0
1483999017.077,32.715,21.484,49.805,39.551,25.391,0
1483999017.081,40.039,37.598,48.828,42.480,47.363,0
1483999017.085,32.227,34.668,29.785,30.273,-9.277,0
1483999017.089,31.250,34.668,29.297,25.879,-27.344,0
1483999017.093,37.598,35.156,36.133,30.762,41.504,0
1483999017.097,32.715,24.902,42.480,29.785,45.410,0
1483999017.101,27.344,21.973,39.551,26.367,13.184,0
1483999017.105,36.133,31.738,39.062,32.227,30.762,0
1483999017.108,34.668,38.086,45.410,30.273,36.621,0
1483999017.112,29.785,34.668,39.062,22.949,19.531,0
1483999017.116,26.367,33.203,32.227,24.414,21.973,0
1483999017.120,25.391,28.809,35.156,24.414,12.207,0
1483999017.124,37.598,32.715,42.969,32.715,17.578,0
1483999017.128,42.969,37.598,41.016,41.016,33.203,0
1483999017.132,39.551,27.344,38.086,39.062,-0.488,0
1483999017.136,38.086,25.391,35.645,34.180,15.625,0
1483999017.140,38.574,25.879,20.508,27.344,40.039,0
1483999017.144,41.016,25.391,21.484,26.855,17.090,0
1483999017.147,50.781,39.551,34.180,32.227,29.297,0
1483999017.151,47.852,41.992,40.039,32.715,46.387,0
1483999017.155,35.645,23.438,33.691,27.344,7.324,0
1483999017.159,41.504,22.461,33.203,35.156,3.906,0
1483999017.163,44.922,28.809,37.598,41.992,19.043,0
1483999017.167,43.457,27.832,40.039,41.016,14.160,0
1483999017.171,39.062,26.855,41.504,36.621,26.855,0
1483999017.175,41.992,35.645,42.480,36.621,24.902,0
1483999017.179,41.992,34.180,35.156,37.109,37.598,0
1483999017.183,37.109,29.297,37.598,34.668,63.477,0
1483999017.187,39.062,25.391,44.922,37.598,62.988,0
1483999017.190,44.434,24.902,46.387,44.434,38.574,0
1483999017.194,39.551,20.996,42.480,40.039,4.883,0
1483999017.198,29.297,13.184,31.738,28.809,17.578,0
1483999017.202,33.691,22.461,45.898,37.109,35.645,0
1483999017.206,33.691,18.066,45.898,33.691,22.949,0
1483999017.210,30.762,15.625,25.879,28.320,35.645,0
1483999017.214,37.109,23.926,37.109,39.062,33.691,0
1483999017.218,46.875,31.738,51.758,49.316,20.020,0
1483999017.222,41.992,34.180,49.316,47.363,0.977,0
1483999017.226,33.691,30.273,43.457,36.621,-17.090,0
1483999017.230,26.855,27.832,41.016,26.855,11.719,0
1483999017.233,23.438,13.672,34.180,24.414,26.855,0
1483999017.237,31.250,9.766,31.250,26.855,36.621,0
1483999017.241,35.645,25.391,36.133,28.320,43.457,0
1483999017.245,37.109,25.879,42.480,30.762,56.641,0
1483999017.249,37.109,20.996,49.316,33.203,50.293,0
1483999017.253,34.180,25.391,45.410,30.762,20.996,0
1483999017.257,40.527,39.551,39.551,38.086,19.531,0
1483999017.261,40.039,39.062,31.738,39.062,45.898,0
1483999017.265,31.738,26.855,24.902,27.832,28.809,0
1483999017.269,38.574,26.367,30.762,30.273,-25.391,0
1483999017.272,43.945,26.855,36.133,37.598,-1.465,0
1483999017.276,45.898,25.879,37.598,41.016,11.230,0
1483999017.280,43.457,26.367,28.809,37.598,19.531,0
1483999017.284,32.227,25.391,22.461,25.391,5.859,0
1483999017.288,33.691,24.414,39.062,26.367,9.277,0
1483999017.292,38.574,18.066,43.457,33.203,39.062,0
1483999017.296,38.574,21.973,31.250,29.297,47.363,0
1483999017.300,40.039,39.062,34.668,29.785,55.664,0
1483999017.304,36.621,34.180,36.621,25.879,15.625,0
1483999017.308,33.203,23.438,39.062,21.973,-5.859,0
1483999017.312,31.250,20.020,40.039,25.391,-6.836,0
1483999017.315,33.203,22.949,39.551,32.227,-5.371,0
1483999017.319,40.039,32.715,41.992,37.109,21.973,0
1483999017.323,43.945,35.156,40.039,38.574,20.020,0
1483999017.327,33.203,23.438,40.039,28.320,-7.812,0
1483999017.331,20.508,16.113,29.785,15.625,20.996,0
1483999017.335,23.926,20.508,26.367,14.648,45.898,0
1483999017.339,30.762,21.484,31.250,20.508,17.578,0
1483999017.343,28.809,18.555,30.762,26.367,6.836,0
1483999017.347,26.855,27.344,28.320,27.344,20.996,0
1483999017.351,28.320,39.062,33.691,27.832,29.785,0
1483999017.355,25.391,27.832,35.156,26.367,39.062,0
1483999017.358,36.621,30.762,44.922,38.574,37.109,0
1483999017.362,40.039,37.109,44.922,45.410,35.156,0
