timestamps,TP9,AF7,AF8,TP10,Right AUX,Marker0
1506028251.841,23.926,48.340,47.852,58.105,45.410,0
1506028251.845,32.715,46.875,47.363,60.547,26.855,0
1506028251.849,34.668,42.969,43.945,62.012,40.039,0
1506028251.853,33.691,38.574,50.293,70.312,21.484,0
1506028251.856,33.203,32.715,51.758,70.801,17.090,0
1506028251.860,34.668,28.320,46.875,61.035,62.012,0
1506028251.864,40.039,45.898,52.246,65.430,54.199,0
1506028251.868,42.480,42.969,51.758,64.941,24.902,0
1506028251.872,42.969,33.691,49.316,62.012,29.297,0
1506028251.876,46.875,41.992,54.199,61.523,37.109,0
1506028251.880,45.410,47.363,62.012,62.988,45.898,0
1506028251.884,38.086,45.410,57.617,54.688,51.270,0
1506028251.888,35.645,43.945,49.805,49.316,41.504,0
1506028251.892,39.551,46.875,59.570,58.594,28.809,0
1506028251.895,43.945,49.316,66.895,65.918,44.434,0
1506028251.899,41.504,49.316,64.453,62.988,49.805,0
1506028251.903,37.598,46.875,64.453,59.082,43.457,0
1506028251.907,37.598,50.293,61.523,63.477,20.508,0
1506028251.911,43.945,50.781,61.523,66.895,4.395,0
1506028251.915,41.016,45.410,61.523,63.477,-6.348,0
1506028251.919,42.969,48.828,59.570,54.688,6.836,0
1506028251.923,45.410,43.945,57.617,54.199,17.090,0
1506028251.927,37.109,45.898,62.012,58.594,-36.621,0
1506028251.931,32.227,50.293,66.895,57.617,-51.270,0
1506028251.935,37.109,45.898,58.105,52.734,11.719,0
1506028251.938,46.387,43.945,55.176,58.105,49.316,0
1506028251.942,49.316,45.410,57.129,62.012,11.230,0
1506028251.946,48.340,48.828,56.152,62.500,-23.438,0
1506028251.950,40.039,47.363,55.176,61.035,-6.836,0
1506028251.954,43.945,44.434,61.523,62.012,-3.906,0
1506028251.958,41.504,41.016,61.523,62.012,-24.902,0
1506028251.962,28.809,30.273,58.105,54.199,-48.828,0
1506028251.966,34.668,29.297,53.223,47.363,-18.066,0
1506028251.970,46.387,41.992,48.340,49.805,27.832,0
1506028251.974,43.945,49.316,43.457,60.547,2.441,0
1506028251.978,37.109,54.199,50.781,60.547,-15.137,0
1506028251.981,38.086,44.434,58.105,55.176,20.508,0
1506028251.985,41.504,45.898,55.664,64.941,59.570,0
1506028251.989,44.922,52.246,61.523,76.660,41.992,0
1506028251.993,54.199,50.781,69.824,84.473,30.762,0
1506028251.997,48.340,53.711,71.777,90.820,36.621,0
1506028252.001,33.691,48.340,69.824,84.961,40.527,0
1506028252.005,39.551,41.992,60.059,84.473,28.809,0
1506028252.009,41.992,36.133,54.688,81.543,7.324,0
1506028252.013,37.109,47.852,56.152,80.566,28.320,0
1506028252.017,42.480,57.129,52.246,78.613,36.133,0
1506028252.020,52.734,51.270,52.734,78.125,52.246,0
1506028252.024,52.734,50.293,56.641,83.496,17.578,0
1506028252.028,50.293,58.105,52.246,78.125,-7.812,0
1506028252.032,55.176,61.523,54.199,80.566,-3.906,0
1506028252.036,50.781,43.457,51.270,72.754,-8.301,0
1506028252.040,37.109,35.645,48.340,64.453,29.297,0
1506028252.044,39.551,38.086,56.641,68.359,29.297,0
1506028252.048,50.293,51.270,59.570,82.031,1.953,0
1506028252.052,49.805,49.805,56.152,76.172,19.531,0
1506028252.056,53.223,47.363,56.152,75.195,41.016,0
1506028252.060,54.199,60.547,62.500,85.449,36.133,0
1506028252.063,44.922,46.387,53.711,69.336,-7.324,0
1506028252.067,59.082,49.805,53.711,68.359,-34.180,0
1506028252.071,59.082,56.152,56.152,66.406,6.836,0
1506028252.075,40.039,48.828,49.805,61.523,31.250,0
1506028252.079,33.691,43.457,51.270,65.430,27.344,0
1506028252.083,28.809,29.297,47.852,65.430,20.508,0
1506028252.087,30.762,31.738,40.039,56.152,33.691,0
1506028252.091,35.156,41.992,47.852,58.594,22.949,0
1506028252.095,31.738,35.156,54.199,61.523,-24.414,0
1506028252.099,31.738,35.645,47.852,52.734,-11.719,0
1506028252.103,43.945,47.363,51.758,50.293,26.855,0
1506028252.106,49.805,51.758,62.988,61.523,14.160,0
1506028252.110,42.969,43.945,57.129,57.617,-13.672,0
1506028252.114,42.480,41.992,53.223,50.781,11.719,0
1506028252.118,54.199,43.457,61.035,63.965,36.133,0
1506028252.122,45.898,49.316,46.387,65.918,15.625,0
1506028252.126,27.832,44.434,47.363,59.570,-4.883,0
1506028252.130,20.508,35.645,63.477,61.523,-14.160,0
1506028252.134,11.719,44.922,57.617,58.105,24.414,0
1506028252.138,25.879,48.828,57.129,51.758,42.969,0
1506028252.142,40.039,50.781,61.035,58.105,15.137,0
1506028252.145,32.227,46.387,58.594,58.594,11.230,0
1506028252.149,33.203,44.434,55.664,54.199,7.324,0
1506028252.153,28.809,45.410,57.129,51.758,-4.883,0
1506028252.157,21.484,48.828,47.852,41.016,-18.555,0
1506028252.161,33.203,47.363,41.992,38.086,16.113,0
1506028252.165,41.504,34.180,47.852,45.898,45.410,0
1506028252.169,45.410,30.762,49.805,41.992,22.949,0
1506028252.173,48.828,37.598,53.223,41.992,24.902,0
1506028252.177,47.852,41.992,58.594,54.199,41.016,0
1506028252.181,51.270,47.852,58.105,59.082,35.156,0
1506028252.185,46.875,38.086,58.594,59.082,46.387,0
1506028252.188,38.574,25.879,58.105,62.012,27.832,0
1506028252.192,45.898,36.621,55.176,63.965,7.324,0
1506028252.196,48.340,42.969,54.688,64.941,4.883,0
1506028252.200,38.086,41.016,50.781,64.941,-22.461,0
1506028252.204,32.715,28.809,46.387,60.059,-10.254,0
1506028252.208,32.715,30.762,47.363,53.223,-0.488,0
1506028252.212,47.363,40.039,51.758,64.453,-3.418,0
1506028252.216,51.270,39.062,54.688,73.730,-14.160,0
1506028252.220,47.363,37.598,49.316,73.242,-3.418,0
1506028252.224,56.641,41.992,50.293,67.383,18.066,0
1506028252.228,57.129,46.875,57.129,69.824,5.371,0
1506028252.231,51.758,37.598,62.988,76.660,-0.977,0
1506028252.235,43.457,41.016,57.129,63.965,12.207,0
1506028252.239,45.898,48.340,48.340,59.082,16.113,0
1506028252.243,48.828,41.992,50.781,67.383,-21.484,0
1506028252.247,49.316,45.898,47.852,69.824,-37.598,0
1506028252.251,49.316,56.152,44.434,67.383,20.508,0
1506028252.255,45.898,44.922,42.969,66.895,40.527,0
1506028252.259,48.340,37.598,53.223,71.289,-1.465,0
1506028252.263,43.457,50.781,60.547,70.312,-17.578,0
1506028252.267,44.922,64.941,58.594,61.035,42.969,0
1506028252.270,56.152,61.523,63.965,62.012,59.082,0
1506028252.274,50.293,54.688,61.035,67.383,16.113,0
1506028252.278,51.270,56.641,57.129,68.848,12.695,0
1506028252.282,57.129,68.848,65.430,73.242,29.297,0
1506028252.286,68.359,59.082,68.359,84.961,44.922,0
1506028252.290,69.824,39.062,63.965,81.543,29.297,0
1506028252.294,54.688,60.547,56.641,70.312,2.441,0
1506028252.298,55.664,64.941,55.664,68.848,22.949,0
1506028252.302,62.500,51.270,61.035,70.312,47.852,0
1506028252.306,58.105,54.199,60.059,65.918,48.340,0
1506028252.310,52.246,54.199,58.594,66.406,53.711,0
1506028252.313,47.852,51.270,65.918,72.266,46.387,0
1506028252.317,44.922,51.270,53.711,69.824,33.203,0
1506028252.321,45.898,41.504,47.852,60.547,17.090,0
1506028252.325,48.828,42.480,66.406,55.176,37.598,0
1506028252.329,45.410,49.805,58.594,58.105,27.344,0
1506028252.333,43.457,59.570,52.246,73.730,-6.836,0
1506028252.337,48.828,60.059,60.059,68.848,20.508,0
1506028252.341,45.898,42.480,52.246,44.434,52.246,0
1506028252.345,33.691,31.738,52.734,44.922,70.801,0
1506028252.349,24.414,32.715,50.781,50.293,76.172,0
1506028252.353,40.527,43.457,55.664,65.430,98.633,0
1506028252.356,44.922,39.551,53.711,67.383,105.957,0
1506028252.360,35.156,35.156,44.922,57.129,66.406,0
1506028252.364,28.809,36.621,45.410,56.152,66.895,0
1506028252.368,38.574,39.062,44.434,51.758,90.332,0
1506028252.372,41.992,42.969,50.781,65.918,107.910,0
1506028252.376,33.203,36.621,59.082,82.520,93.262,0
1506028252.380,36.621,43.457,64.453,73.730,55.176,0
1506028252.384,47.852,66.406,61.523,68.359,39.551,0
1506028252.388,54.688,58.594,61.523,75.684,56.152,0
1506028252.392,50.781,47.852,65.918,78.125,35.645,0
1506028252.395,45.410,56.641,65.918,84.961,28.809,0
1506028252.399,41.016,61.035,69.336,81.543,44.434,0
1506028252.403,55.176,66.895,69.824,75.195,66.895,0
1506028252.407,63.965,72.266,73.730,81.543,61.523,0
1506028252.411,52.734,60.547,69.336,66.406,41.016,0
1506028252.415,40.039,48.340,54.688,59.082,32.227,0
1506028252.419,32.715,43.945,52.734,68.359,32.227,0
1506028252.423,34.668,39.062,61.035,70.801,26.855,0
1506028252.427,38.086,45.410,52.734,62.988,11.230,0
1506028252.431,50.781,49.805,48.828,48.340,40.039,0
1506028252.435,64.941,54.688,64.453,52.734,53.711,0
1506028252.438,56.152,62.988,59.082,62.988,42.480,0
1506028252.442,41.504,56.152,47.852,62.012,19.043,0
1506028252.446,42.480,49.805,49.316,59.082,24.902,0
1506028252.450,46.875,48.340,54.688,54.199,28.320,0
1506028252.454,42.480,44.434,58.594,57.129,0.000,0
1506028252.458,36.621,38.574,51.270,55.664,20.996,0
1506028252.462,41.016,32.715,48.340,49.805,23.438,0
1506028252.466,48.340,35.156,61.035,57.617,25.879,0
1506028252.470,57.129,45.410,45.898,64.941,48.828,0
1506028252.474,55.664,33.203,31.250,62.988,42.480,0
1506028252.478,42.969,13.184,67.871,66.895,29.785,0
1506028252.481,51.270,39.062,91.797,80.566,7.324,0
1506028252.485,44.434,42.969,71.289,75.195,7.324,0
1506028252.489,47.363,38.086,75.195,74.707,56.152,0
1506028252.493,55.664,45.898,96.680,80.566,52.734,0
1506028252.497,38.086,27.832,76.172,69.336,23.926,0
1506028252.501,26.855,24.902,67.871,64.941,13.672,0
1506028252.505,11.719,24.414,65.918,59.570,8.789,0
1506028252.509,24.414,26.367,69.824,57.617,24.902,0
1506028252.513,20.508,29.785,72.266,63.477,17.090,0
1506028252.517,-0.488,34.180,64.453,60.059,16.602,0
1506028252.520,8.789,35.156,64.941,57.129,19.531,0
1506028252.524,14.648,41.992,70.312,64.941,24.414,0
1506028252.528,24.414,51.270,70.801,68.848,-10.254,0
1506028252.532,27.832,50.293,63.477,52.246,-27.344,0
1506028252.536,15.625,51.758,56.641,39.062,11.719,0
1506028252.540,15.625,45.410,63.477,49.316,-0.488,0
1506028252.544,16.602,41.504,68.848,52.246,-38.574,0
1506028252.548,13.672,46.875,62.500,47.852,-3.906,0
1506028252.552,31.250,41.016,59.082,52.734,34.180,0
1506028252.556,53.223,60.059,74.219,67.383,-9.766,0
1506028252.560,36.133,63.965,73.730,62.500,-39.551,0
1506028252.563,12.695,47.852,59.570,52.246,-33.691,0
1506028252.567,27.344,50.781,62.012,50.293,-13.672,0
1506028252.571,31.250,41.016,59.570,47.363,0.488,0
1506028252.575,15.625,39.551,54.199,38.574,-20.020,0
1506028252.579,34.668,49.316,56.641,43.457,-28.809,0
1506028252.583,51.270,50.781,55.176,57.129,-15.625,0
1506028252.587,38.574,48.828,63.477,58.594,2.441,0
1506028252.591,20.996,37.598,50.781,52.734,-1.465,0
1506028252.595,23.926,34.668,34.180,41.016,-18.555,0
1506028252.599,31.250,35.645,51.758,41.016,-20.996,0
1506028252.603,34.180,36.621,58.105,44.434,-15.625,0
1506028252.606,37.109,45.410,54.688,44.434,9.277,0
1506028252.610,31.250,43.945,60.547,45.410,22.949,0
1506028252.614,45.410,50.781,66.895,57.129,-7.324,0
1506028252.618,55.664,59.570,64.941,58.594,-22.949,0
1506028252.622,45.898,57.617,38.574,49.805,20.020,0
1506028252.626,30.762,52.246,28.809,57.129,54.199,0
1506028252.630,29.297,42.480,59.082,58.594,65.918,0
1506028252.634,26.367,33.203,63.477,54.688,33.691,0
1506028252.638,17.090,45.410,56.152,55.176,7.812,0
1506028252.642,31.738,44.434,50.293,56.641,50.781,0
1506028252.645,42.969,41.016,56.152,71.289,36.133,0
1506028252.649,40.039,43.945,59.082,76.660,-8.301,0
1506028252.653,46.387,44.922,62.012,68.848,27.344,0
1506028252.657,45.898,46.387,66.895,69.336,35.645,0
1506028252.661,35.156,33.691,49.316,61.035,-2.441,0
1506028252.665,29.297,30.273,53.711,64.453,-18.555,0
1506028252.669,23.438,35.156,60.059,60.547,4.883,0
1506028252.673,41.016,39.062,55.664,55.664,42.480,0
1506028252.677,48.340,44.922,64.941,68.359,15.625,0
1506028252.681,30.762,41.016,57.129,69.824,-4.395,0
1506028252.685,28.809,42.969,44.434,64.941,-1.953,0
1506028252.688,48.828,30.273,62.988,80.566,-0.488,0
1506028252.692,57.617,37.109,62.012,76.660,12.695,0
1506028252.696,56.152,73.242,50.293,62.988,2.930,0
1506028252.700,48.340,66.406,46.875,61.035,14.160,0
1506028252.704,40.039,60.547,47.852,64.941,31.738,0
1506028252.708,45.898,58.594,57.129,69.824,-11.230,0
1506028252.712,45.410,56.152,52.734,62.012,-49.805,0
1506028252.716,46.875,60.059,45.410,63.965,0.000,0
1506028252.720,55.176,52.734,55.664,70.801,28.809,0
1506028252.724,57.129,41.992,60.059,70.801,16.113,0
1506028252.728,51.758,47.852,56.641,73.730,20.996,0
1506028252.731,48.340,54.199,62.012,76.660,32.227,0
1506028252.735,42.969,51.758,64.941,72.754,36.621,0
1506028252.739,50.293,53.711,52.734,67.871,44.434,0
1506028252.743,37.109,44.922,39.062,53.711,52.734,0
1506028252.747,46.387,40.039,31.738,60.059,44.434,0
1506028252.751,78.125,54.199,61.035,88.379,56.152,0
1506028252.755,47.363,39.551,79.102,78.125,53.711,0
1506028252.759,35.156,42.969,65.430,67.383,63.477,0
1506028252.763,53.223,64.941,66.895,84.961,103.516,0
1506028252.767,64.453,59.082,65.430,83.984,106.445,0
1506028252.770,57.617,53.711,51.758,67.383,117.676,0
1506028252.774,42.969,63.477,44.922,78.613,112.793,0
1506028252.778,46.387,60.547,53.711,86.426,98.145,0
1506028252.782,58.594,53.711,48.828,77.148,130.371,0
1506028252.786,59.082,51.758,46.875,82.520,130.371,0
1506028252.790,52.246,46.875,50.781,83.984,106.934,0
1506028252.794,52.734,48.828,47.852,74.707,101.562,0
1506028252.798,47.363,49.805,57.129,73.730,79.102,0
1506028252.802,51.758,49.316,62.988,76.660,77.148,0
1506028252.806,53.223,43.945,59.570,74.707,104.004,0
1506028252.810,47.363,39.062,55.176,85.938,116.211,0
1506028252.813,50.781,37.109,52.734,83.496,107.910,0
1506028252.817,43.945,37.109,48.828,73.242,123.047,0
1506028252.821,45.898,40.039,45.898,72.266,133.789,0
1506028252.825,58.594,36.621,48.828,75.195,88.867,0
1506028252.829,67.871,36.133,59.570,82.520,56.641,0
1506028252.833,70.801,35.645,61.035,86.426,81.543,0
1506028252.837,76.660,36.133,55.664,80.566,98.633,0
1506028252.841,74.707,35.645,54.688,71.289,60.059,0
1506028252.845,78.613,35.156,54.199,83.496,36.621,0
1506028252.849,60.059,39.062,57.129,88.379,70.312,0
1506028252.853,46.875,37.598,54.688,77.637,93.262,0
1506028252.856,58.105,37.109,58.594,77.148,71.289,0
1506028252.860,52.734,35.156,62.500,81.055,38.574,0
1506028252.864,39.062,27.344,55.176,69.336,1.953,0
1506028252.868,45.410,27.832,55.664,63.965,53.223,0
1506028252.872,53.223,34.180,67.383,72.266,71.777,0
1506028252.876,45.410,40.039,58.105,70.312,33.203,0
1506028252.880,41.504,41.992,46.875,64.453,62.988,1
1506028252.884,39.062,42.480,53.223,66.406,70.801,0
1506028252.888,51.270,42.480,57.617,66.406,78.125,0
1506028252.892,56.152,42.969,56.152,62.500,52.734,0
1506028252.895,48.828,53.223,62.988,69.336,33.691,0
1506028252.899,53.711,53.223,66.406,72.754,41.016,0
1506028252.903,59.570,44.922,60.547,64.453,16.113,0
1506028252.907,50.781,44.922,56.152,60.547,25.879,0
1506028252.911,52.734,42.969,45.410,56.641,64.941,0
1506028252.915,64.453,41.992,37.598,60.059,71.777,0
1506028252.919,54.688,40.527,47.363,62.012,55.176,0
1506028252.923,46.387,40.527,50.781,58.105,47.363,0
1506028252.927,58.105,36.621,43.457,56.152,76.660,0
1506028252.931,60.059,35.156,52.246,61.035,68.848,0
1506028252.935,46.387,38.086,58.105,65.430,51.270,0
1506028252.938,36.133,41.504,54.688,67.871,52.246,0
1506028252.942,48.828,47.852,57.617,78.613,26.367,0
1506028252.946,60.059,54.688,52.734,78.125,17.090,0
1506028252.950,59.082,53.711,47.852,70.312,52.734,0
1506028252.954,68.848,49.805,55.664,79.590,70.312,0
1506028252.958,69.824,64.453,70.312,95.215,70.801,0
1506028252.962,51.270,65.918,65.918,88.867,40.039,0
1506028252.966,45.410,53.223,56.641,83.496,53.711,0
1506028252.970,55.176,54.688,41.992,82.520,62.500,0
1506028252.974,47.852,57.129,35.156,78.613,31.250,0
1506028252.978,49.316,59.082,52.734,75.684,5.859,0
1506028252.981,54.688,65.430,52.734,75.195,27.344,0
1506028252.985,56.641,62.988,50.781,76.172,53.711,0
1506028252.989,61.523,66.895,47.363,72.754,46.387,0
1506028252.993,56.641,65.430,51.270,76.660,36.133,0
1506028252.997,45.410,57.129,50.781,74.219,24.902,0
1506028253.001,37.109,52.246,43.945,60.547,75.684,0
1506028253.005,40.527,52.734,47.852,56.641,98.145,0
1506028253.009,36.133,57.129,54.688,68.359,71.777,0
1506028253.013,19.043,46.875,53.223,60.059,70.801,0
1506028253.017,25.391,46.387,56.641,65.430,75.195,0
1506028253.020,27.344,49.805,64.453,70.312,95.703,0
1506028253.024,29.785,33.691,54.688,55.664,106.445,0
1506028253.028,31.250,36.621,45.410,65.430,64.453,0
1506028253.032,39.551,49.316,59.570,74.219,36.133,0
1506028253.036,38.086,44.434,63.965,69.336,42.480,0
1506028253.040,31.250,39.551,61.523,63.965,17.090,0
1506028253.044,32.715,47.852,59.082,54.199,3.906,0
1506028253.048,35.156,41.992,53.711,57.617,15.137,0
1506028253.052,39.551,33.203,54.199,70.312,-1.953,0
1506028253.056,44.434,41.992,55.664,71.289,5.371,0
1506028253.060,55.176,45.410,60.059,62.988,13.672,0
1506028253.063,62.012,49.316,61.523,66.895,29.785,0
1506028253.067,57.129,53.223,58.105,75.195,27.344,0
1506028253.071,55.664,57.129,60.547,71.289,8.301,0
1506028253.075,61.523,52.246,62.988,72.266,5.371,0
1506028253.079,68.359,40.039,65.918,82.520,13.672,0
1506028253.083,62.500,50.293,66.406,74.219,13.184,0
1506028253.087,56.641,57.617,60.547,66.406,-12.695,0
1506028253.091,64.941,45.898,60.059,62.988,21.484,0
1506028253.095,59.082,26.855,62.988,66.895,12.695,0
1506028253.099,42.969,27.344,65.430,77.637,-22.461,0
1506028253.103,46.387,41.504,65.918,71.289,24.414,0
1506028253.106,64.453,48.340,68.848,66.895,65.918,0
1506028253.110,70.801,47.852,72.266,79.102,41.992,0
1506028253.114,58.594,39.551,64.453,79.102,33.691,0
1506028253.118,51.758,38.086,60.059,72.266,92.773,0
1506028253.122,58.594,40.039,66.406,83.008,86.914,0
1506028253.126,51.758,32.227,64.941,85.449,30.273,0
1506028253.130,39.551,36.621,54.199,72.754,45.898,0
1506028253.134,40.039,44.922,50.781,63.477,66.406,0
1506028253.138,38.086,42.480,50.293,68.359,56.641,0
1506028253.142,38.574,46.875,48.340,70.801,24.414,0
1506028253.145,47.363,49.316,42.480,64.453,-6.348,0
1506028253.149,43.945,35.645,31.738,45.410,27.832,0
1506028253.153,27.344,22.949,36.621,49.805,80.566,0
1506028253.157,19.043,29.785,43.457,66.895,45.898,0
1506028253.161,22.949,40.527,42.480,59.570,14.160,0
1506028253.165,31.250,48.340,40.039,55.176,25.879,0
1506028253.169,30.273,45.410,39.062,58.594,58.105,0
1506028253.173,24.902,39.062,41.016,58.105,68.848,0
1506028253.177,27.344,31.250,41.992,53.711,22.949,0
1506028253.181,30.273,24.902,36.621,47.363,9.277,0
1506028253.185,30.762,25.879,40.039,58.594,28.809,0
1506028253.188,33.203,23.438,47.363,62.500,15.137,0
1506028253.192,38.086,19.531,52.734,63.477,-14.160,0
1506028253.196,49.805,19.043,53.711,62.012,-6.348,0
1506028253.200,59.082,23.438,54.199,51.270,36.133,0
1506028253.204,55.664,27.832,61.523,59.082,22.461,0
1506028253.208,36.133,27.832,60.059,63.477,-20.508,0
1506028253.212,41.992,26.855,49.805,54.199,-11.230,0
1506028253.216,60.547,30.273,52.246,57.129,1.465,0
1506028253.220,62.988,35.645,55.664,60.547,-12.695,0
1506028253.224,67.383,35.156,53.711,66.895,-22.461,0
1506028253.228,61.523,31.738,50.293,71.777,-39.062,0
1506028253.231,67.383,31.738,55.176,68.848,-50.293,0
1506028253.235,69.824,38.574,56.641,72.266,-28.809,0
1506028253.239,60.059,37.109,50.293,79.102,-37.109,0
1506028253.243,60.059,30.273,52.246,80.566,-50.781,0
1506028253.247,60.547,30.762,51.758,66.895,-45.898,0
1506028253.251,58.594,30.273,50.781,67.871,-5.859,0
1506028253.255,60.059,36.133,54.688,76.172,-3.418,0
1506028253.259,71.289,43.457,57.617,65.918,-17.578,0
1506028253.263,76.660,40.527,55.176,62.988,-31.250,0
1506028253.267,59.570,30.273,50.781,62.988,-18.066,0
1506028253.270,54.688,25.879,51.758,50.781,-16.113,0
1506028253.274,48.828,28.809,49.316,50.293,-40.527,0
1506028253.278,38.086,28.809,51.270,56.152,-73.242,0
1506028253.282,30.273,26.367,54.688,49.805,-83.496,0
1506028253.286,24.902,24.902,51.758,51.758,-31.738,0
1506028253.290,27.832,27.344,50.781,64.941,-34.668,0
1506028253.294,38.086,24.902,46.387,53.711,-54.199,0
1506028253.298,35.156,20.508,39.551,49.316,-20.996,0
1506028253.302,38.574,22.949,39.551,60.547,-15.137,0
1506028253.306,43.945,15.137,44.434,58.594,-28.320,0
1506028253.310,29.297,14.648,50.293,63.477,-27.832,0
1506028253.313,19.531,21.973,53.223,68.359,-25.391,0
1506028253.317,27.832,20.996,48.340,61.035,-1.953,0
1506028253.321,46.875,22.949,50.293,71.289,10.254,0
1506028253.325,44.434,26.855,51.758,73.242,-39.551,0
1506028253.329,42.480,22.949,45.410,58.105,-15.625,0
1506028253.333,50.781,20.020,44.922,62.500,32.227,0
1506028253.337,43.457,27.344,49.805,66.406,-18.555,0
1506028253.341,36.133,23.438,54.199,69.824,-11.230,0
1506028253.345,50.293,23.438,54.199,78.125,35.645,0
1506028253.349,60.059,41.992,57.129,81.055,37.598,0
1506028253.353,68.359,43.945,58.105,88.867,33.203,0
1506028253.356,84.473,47.852,68.359,99.609,24.902,0
1506028253.360,74.707,48.340,64.453,93.750,36.621,0
1506028253.364,57.129,41.992,45.410,72.266,70.312,0
1506028253.368,70.801,45.410,49.316,73.730,59.082,0
1506028253.372,83.008,46.875,52.734,91.309,24.414,0
1506028253.376,77.148,45.410,47.363,90.332,63.477,0
1506028253.380,69.336,41.504,53.711,91.797,93.750,0
1506028253.384,55.176,40.039,54.199,98.633,82.520,0
1506028253.388,53.223,41.016,54.199,97.168,76.660,0
1506028253.392,61.523,40.527,53.223,87.891,64.453,0
1506028253.395,58.105,43.457,54.688,93.262,58.594,0
1506028253.399,62.012,42.969,54.199,100.098,62.012,0
1506028253.403,51.270,36.621,45.898,95.703,71.289,0
1506028253.407,43.945,35.645,45.898,98.145,61.035,0
1506028253.411,46.875,30.762,42.480,100.586,48.828,0
1506028253.415,45.898,27.344,38.574,98.633,34.668,0
1506028253.419,52.246,31.250,35.156,92.773,27.344,0
1506028253.423,60.059,36.621,38.574,93.262,64.941,0
1506028253.427,56.152,41.016,45.410,92.285,45.410,0
1506028253.431,50.293,37.598,39.551,86.426,28.320,0
1506028253.435,49.805,41.992,42.969,93.262,86.426,0
1506028253.438,63.965,46.387,52.734,106.934,97.168,0
1506028253.442,73.242,40.527,55.176,110.352,26.367,0
1506028253.446,70.312,37.109,50.781,103.027,-9.766,0
1506028253.450,62.012,42.969,46.387,97.168,10.254,0
1506028253.454,56.152,45.898,48.828,91.797,19.531,0
1506028253.458,58.105,45.898,51.758,97.168,-4.883,0
1506028253.462,56.152,42.480,51.758,97.656,-9.277,0
1506028253.466,51.270,39.551,49.316,96.191,26.855,0
1506028253.470,56.641,42.969,56.641,102.051,11.230,0
1506028253.474,57.129,44.434,64.453,104.980,-7.324,0
1506028253.478,50.781,41.504,63.965,105.957,9.766,0
1506028253.481,52.734,41.504,64.941,109.375,23.438,0
1506028253.485,59.082,41.504,66.895,109.375,36.133,0
1506028253.489,64.453,48.340,68.848,113.281,42.480,0
1506028253.493,63.477,54.199,65.430,115.723,9.277,0
1506028253.497,71.777,50.293,62.012,110.352,-0.488,0
1506028253.501,83.008,51.270,63.965,114.746,-9.277,0
1506028253.505,88.867,55.176,61.035,112.305,10.742,0
1506028253.509,94.238,62.988,63.477,108.398,10.254,0
1506028253.513,74.219,61.523,63.965,112.793,-14.648,0
1506028253.517,65.918,57.129,66.895,111.328,-12.207,0
1506028253.520,70.801,59.082,68.359,103.027,-38.574,0
1506028253.524,65.430,53.711,62.500,96.191,-36.133,0
1506028253.528,67.871,53.711,63.477,96.191,-17.578,0
1506028253.532,64.941,57.129,65.430,86.914,-34.668,0
1506028253.536,63.477,55.664,61.523,86.914,-31.738,0
1506028253.540,66.895,51.270,48.340,84.961,-2.930,0
1506028253.544,62.500,46.875,45.898,76.660,-1.953,0
1506028253.548,46.875,49.805,52.246,73.242,-23.926,0
1506028253.552,43.457,48.340,47.363,70.801,1.465,0
1506028253.556,54.688,47.363,44.434,69.336,51.758,0
1506028253.560,49.316,51.270,50.781,65.918,31.250,0
1506028253.563,54.688,56.152,57.129,73.242,-18.066,0
1506028253.567,59.570,54.199,54.688,66.895,-30.273,0
1506028253.571,52.734,50.781,50.781,65.430,17.090,0
1506028253.575,48.340,43.457,55.664,72.266,20.996,0
1506028253.579,53.711,41.504,61.523,68.848,3.418,0
1506028253.583,62.988,41.504,64.941,63.965,12.695,0
1506028253.587,63.965,30.273,66.406,68.848,47.852,0
1506028253.591,56.641,37.109,70.312,81.543,51.270,0
1506028253.595,51.270,37.109,64.453,75.684,37.109,0
1506028253.599,56.641,33.203,69.336,75.684,35.156,0
1506028253.603,66.406,40.039,79.102,83.984,68.848,0
1506028253.606,62.500,39.062,77.637,81.055,87.402,0
1506028253.610,63.477,43.945,81.543,81.543,23.926,0
1506028253.614,70.801,49.316,76.172,79.102,31.738,0
1506028253.618,70.801,54.199,78.125,74.219,67.383,0
1506028253.622,70.312,60.059,83.496,79.590,24.414,0
1506028253.626,74.707,56.641,74.219,84.961,16.113,0
1506028253.630,79.102,55.176,74.219,83.984,30.273,0
1506028253.634,84.961,55.664,76.660,90.332,21.484,0
1506028253.638,88.867,60.547,79.102,97.656,27.832,0
1506028253.642,92.773,61.035,77.148,93.750,29.297,0
1506028253.645,88.379,56.641,68.848,87.402,25.879,0
1506028253.649,77.637,53.223,61.523,89.355,39.062,0
1506028253.653,70.801,47.363,67.871,91.309,24.902,0
1506028253.657,67.383,45.898,65.918,85.938,-11.230,0
1506028253.661,64.941,50.293,61.523,77.148,-5.859,0
1506028253.665,56.641,55.664,70.801,78.613,2.441,0
1506028253.669,46.387,49.805,68.359,75.684,20.508,0
1506028253.673,51.270,33.203,58.594,62.500,0.488,0
1506028253.677,57.617,35.645,60.059,52.734,-7.812,0
1506028253.681,51.270,46.875,65.430,54.199,-1.465,0
1506028253.685,57.617,44.922,61.523,49.805,-24.414,0
1506028253.688,57.617,40.039,60.547,48.340,-34.180,0
1506028253.692,46.387,41.992,62.012,50.781,-27.832,0
1506028253.696,41.016,47.852,62.500,45.898,-28.320,0
1506028253.700,44.434,43.457,60.547,37.598,-32.715,0
1506028253.704,44.434,37.598,51.270,32.227,-14.160,0
1506028253.708,41.504,41.992,52.246,33.691,-0.977,0
1506028253.712,46.387,44.434,52.734,30.762,-14.648,0
1506028253.716,42.480,38.574,48.340,29.297,-31.250,0
1506028253.720,36.621,28.809,45.898,24.414,-10.254,0
1506028253.724,46.387,37.598,46.387,24.414,4.883,0
1506028253.728,46.875,40.527,46.875,24.414,-9.277,0
1506028253.731,51.758,31.738,46.387,22.949,3.906,0
1506028253.735,58.594,37.109,50.781,28.320,38.574,0
1506028253.739,58.594,43.945,53.711,36.133,21.484,0
1506028253.743,53.223,42.480,52.246,37.109,-11.230,0
1506028253.747,51.758,37.598,45.898,34.668,30.273,0
1506028253.751,57.617,43.457,44.434,37.598,60.059,0
1506028253.755,58.105,46.387,49.316,40.527,92.285,0
1506028253.759,61.035,42.969,51.758,48.828,63.965,0
1506028253.763,53.223,39.062,48.340,44.434,25.391,0
1506028253.767,51.758,40.527,53.711,39.062,78.125,0
1506028253.770,66.406,51.270,60.547,49.316,92.285,0
1506028253.774,66.406,46.875,57.617,53.223,62.012,0
1506028253.778,53.223,34.668,51.758,43.945,67.871,0
1506028253.782,58.105,38.086,54.199,41.016,74.219,0
1506028253.786,71.289,48.828,64.453,53.223,83.008,0
1506028253.790,74.219,61.523,74.707,66.895,73.730,0
1506028253.794,58.594,59.082,70.801,55.664,62.988,0
1506028253.798,60.547,54.199,70.801,55.176,73.730,0
1506028253.802,68.359,51.758,72.754,60.059,78.125,0
1506028253.806,64.941,47.363,60.059,50.781,83.008,0
1506028253.810,63.965,49.805,56.152,57.129,79.102,0
1506028253.813,64.941,51.758,58.105,55.176,61.523,0
1506028253.817,58.594,52.734,57.617,47.363,66.406,0
1506028253.821,53.711,49.316,57.617,49.316,66.406,0
1506028253.825,60.059,48.340,52.734,46.387,59.082,0
1506028253.829,70.312,46.875,52.246,44.434,39.062,0
1506028253.833,84.961,44.434,57.617,50.293,3.906,0
1506028253.837,99.609,46.875,59.570,49.316,3.418,0
1506028253.841,76.660,45.410,57.617,43.457,51.758,0
1506028253.845,48.340,43.457,54.199,42.480,30.762,0
1506028253.849,50.293,41.992,49.316,39.551,13.672,0
1506028253.853,53.711,42.969,50.781,49.805,34.668,0
1506028253.856,57.129,46.387,55.664,50.781,48.340,0
1506028253.860,68.359,54.688,58.594,49.805,26.855,0
1506028253.864,69.824,52.734,58.594,51.270,20.996,0
1506028253.868,64.941,45.410,56.641,45.410,47.363,0
1506028253.872,73.242,54.688,59.082,57.617,63.477,0
1506028253.876,74.707,56.641,62.988,66.406,51.758,0
1506028253.880,73.242,48.828,62.500,60.547,5.371,0
1506028253.884,78.613,46.875,54.688,56.641,21.973,0
1506028253.888,80.078,47.852,57.129,67.383,71.289,0
1506028253.892,74.219,50.781,62.500,81.543,51.758,0
1506028253.895,75.684,52.734,63.965,81.543,22.461,0
1506028253.899,74.707,49.805,61.523,73.730,56.152,0
1506028253.903,66.895,51.758,61.523,80.078,96.680,0
1506028253.907,72.266,58.105,67.871,85.449,84.473,0
1506028253.911,82.520,57.617,69.336,85.938,67.871,0
1506028253.915,76.172,53.711,60.059,82.520,69.336,0
1506028253.919,64.453,47.363,54.199,76.660,89.844,0
1506028253.923,63.477,49.805,62.500,82.520,64.941,0
1506028253.927,61.523,58.594,62.988,79.590,24.414,0
1506028253.931,56.152,58.594,59.570,76.172,56.152,0
1506028253.935,56.152,59.082,61.523,79.590,79.102,0
1506028253.938,56.641,55.664,60.547,76.172,47.852,0
1506028253.942,48.340,44.434,51.758,66.895,42.969,0
1506028253.946,38.086,41.992,47.852,65.918,57.617,0
1506028253.950,37.598,43.945,52.734,63.965,78.125,0
1506028253.954,38.574,44.434,54.688,63.965,89.355,0
1506028253.958,49.805,49.805,60.547,72.266,60.547,0
1506028253.962,46.875,47.363,57.617,65.430,69.336,0
1506028253.966,44.922,48.340,52.246,60.547,86.914,0
1506028253.970,58.594,49.316,57.617,62.500,64.941,0
1506028253.974,60.059,51.270,56.641,75.684,56.152,0
1506028253.978,55.664,53.223,55.664,77.148,22.949,0
1506028253.981,50.781,51.758,57.617,52.734,3.906,0
1506028253.985,52.734,40.039,54.688,51.270,7.812,0
1506028253.989,47.852,40.527,49.805,56.641,18.555,0
1506028253.993,59.570,57.617,57.129,66.895,37.598,0
1506028253.997,72.754,57.129,67.383,73.242,33.203,0
1506028254.001,74.707,58.105,63.477,72.266,31.738,0
1506028254.005,65.430,60.059,58.594,76.172,54.688,0
1506028254.009,52.734,48.828,61.523,70.312,41.016,0
1506028254.013,47.852,42.969,58.105,57.129,-7.324,0
1506028254.017,58.594,51.270,60.059,62.988,0.977,0
1506028254.020,59.570,57.617,64.453,74.707,2.930,0
1506028254.024,52.734,56.152,60.059,68.848,3.418,0
1506028254.028,47.363,53.711,62.988,66.895,-2.441,0
1506028254.032,41.992,56.641,65.918,64.453,-21.973,0
1506028254.036,46.875,56.152,58.105,60.547,13.672,0
1506028254.040,53.223,59.570,56.641,66.895,41.992,0
1506028254.044,53.711,58.594,61.035,71.777,1.465,0
1506028254.048,38.086,51.758,55.664,66.406,2.441,0
1506028254.052,41.992,55.176,53.711,66.406,21.484,0
1506028254.056,53.223,52.734,60.059,72.754,15.137,0
1506028254.060,49.805,50.293,57.617,70.312,18.555,0
1506028254.063,46.875,54.199,49.805,59.570,9.277,0
1506028254.067,47.363,51.758,48.340,54.688,13.184,0
1506028254.071,68.848,48.828,54.688,57.617,31.738,0
1506028254.075,73.242,49.805,61.523,67.871,18.555,0
1506028254.079,50.781,43.457,52.734,62.500,21.973,0
1506028254.083,40.527,38.574,44.434,55.176,67.871,0
1506028254.087,45.898,39.551,50.781,55.176,85.938,0
1506028254.091,53.711,40.039,53.711,55.176,58.594,0
1506028254.095,46.387,45.410,54.688,63.965,67.383,0
1506028254.099,43.457,50.781,61.523,66.895,92.773,0
1506028254.103,52.246,45.410,62.988,72.754,87.891,0
1506028254.106,57.129,47.363,61.035,73.242,86.426,0
1506028254.110,53.711,50.781,61.523,70.801,70.312,0
1506028254.114,59.570,50.293,57.617,79.590,73.730,0
1506028254.118,64.453,55.664,63.965,88.379,80.078,0
1506028254.122,62.012,56.152,67.383,83.008,49.805,0
1506028254.126,58.594,43.457,57.129,63.965,67.383,0
1506028254.130,58.105,42.969,60.547,63.965,73.242,0
1506028254.134,53.711,42.969,67.383,75.684,67.383,2
1506028254.138,51.270,41.504,69.336,81.543,67.383,0
1506028254.142,49.316,46.875,68.848,79.102,59.570,0
1506028254.145,43.945,43.945,63.965,76.660,59.570,0
1506028254.149,57.129,45.410,67.383,82.031,64.453,0
1506028254.153,65.430,47.363,65.430,79.102,63.965,0
1506028254.157,63.965,49.316,60.547,76.660,56.152,0
1506028254.161,61.523,45.410,69.824,79.590,47.363,0
1506028254.165,46.875,31.738,74.219,78.125,18.555,0
1506028254.169,44.434,36.133,66.895,72.266,30.273,0
1506028254.173,41.016,41.504,66.406,64.941,58.105,0
1506028254.177,48.828,43.945,69.824,77.148,31.250,0
1506028254.181,61.523,43.457,65.430,84.473,0.977,0
1506028254.185,63.477,41.016,56.641,80.078,55.664,0
1506028254.188,65.918,41.016,57.617,83.496,78.613,0
1506028254.192,62.500,45.410,60.547,91.309,20.020,0
1506028254.196,54.688,44.922,60.547,87.402,18.555,0
1506028254.200,64.453,37.598,58.105,82.520,52.246,0
1506028254.204,75.684,37.109,57.617,83.008,69.336,0
1506028254.208,56.641,44.922,62.012,85.449,55.664,0
1506028254.212,45.410,52.246,59.082,89.355,23.438,0
1506028254.216,46.387,49.316,52.734,83.984,25.391,0
1506028254.220,43.457,51.270,54.688,86.914,20.996,0
1506028254.224,39.551,47.852,57.129,84.961,-0.488,0
1506028254.228,44.434,45.898,60.547,74.707,2.930,0
1506028254.231,47.852,50.293,56.641,71.777,47.852,0
1506028254.235,51.758,53.711,54.199,84.961,83.984,0
1506028254.239,60.547,59.570,62.012,85.449,63.477,0
1506028254.243,66.406,55.664,59.570,70.312,24.414,0
1506028254.247,79.102,63.965,61.035,80.566,35.156,0
1506028254.251,77.148,70.312,66.895,95.703,27.344,0
1506028254.255,67.383,62.500,61.523,89.355,4.395,0
1506028254.259,68.359,58.594,56.152,83.984,4.395,0
1506028254.263,61.523,55.176,56.641,89.844,-4.883,0
1506028254.267,51.758,52.246,53.223,79.102,10.254,0
1506028254.270,54.688,52.246,44.922,55.664,11.230,0
1506028254.274,52.246,54.199,47.363,54.688,-3.906,0
1506028254.278,45.410,46.387,45.898,62.012,6.348,0
1506028254.282,44.922,48.340,52.246,74.219,8.789,0
1506028254.286,31.250,55.664,56.152,85.938,25.391,0
1506028254.290,22.461,57.617,49.316,80.566,45.898,0
1506028254.294,44.922,61.035,62.988,89.844,25.391,0
1506028254.298,55.176,57.129,66.406,92.773,5.859,0
1506028254.302,46.875,47.852,54.688,73.730,-0.488,0
1506028254.306,26.367,43.457,50.293,70.312,37.109,0
1506028254.310,24.902,50.293,54.199,79.102,55.664,0
1506028254.313,40.527,51.758,57.617,86.914,13.184,0
1506028254.317,44.434,45.410,56.641,79.590,-9.766,0
1506028254.321,44.434,44.434,52.734,68.359,35.645,0
1506028254.325,33.691,41.992,56.641,78.125,62.500,0
1506028254.329,31.250,38.574,60.547,86.426,24.902,0
1506028254.333,38.086,39.551,59.082,88.867,25.391,0
1506028254.337,41.016,34.668,58.105,94.238,56.152,0
1506028254.341,44.922,30.273,62.500,88.867,77.637,0
1506028254.345,55.176,37.598,62.500,88.867,59.082,0
1506028254.349,44.434,40.039,58.594,81.055,54.199,0
1506028254.353,35.645,34.668,59.570,72.754,72.266,0
1506028254.356,45.898,33.203,58.594,84.961,38.086,0
1506028254.360,43.945,40.527,61.035,94.238,12.207,0
1506028254.364,35.645,40.527,63.965,89.844,39.062,0
1506028254.368,41.504,44.922,63.477,83.496,55.664,0
1506028254.372,50.781,48.828,62.012,78.613,54.199,0
1506028254.376,38.574,47.363,53.711,77.148,34.668,0
1506028254.380,20.508,43.945,44.434,72.754,24.414,0
1506028254.384,26.855,41.992,53.711,67.383,34.180,0
1506028254.388,43.945,51.270,62.012,79.102,33.691,0
1506028254.392,41.504,49.805,61.035,83.008,6.348,0
1506028254.395,34.668,44.922,56.152,70.312,0.488,0
1506028254.399,48.340,55.176,61.035,73.242,20.996,0
1506028254.403,66.895,58.105,71.777,84.473,0.000,0
1506028254.407,66.406,49.316,69.824,75.195,-21.484,0
1506028254.411,51.270,43.945,39.551,71.777,2.441,0
1506028254.415,49.316,44.434,39.062,71.777,3.906,0
1506028254.419,46.387,47.363,73.730,64.941,-25.879,0
1506028254.423,39.551,47.363,67.383,64.453,-25.391,0
1506028254.427,45.898,55.176,58.105,54.688,-3.906,0
1506028254.431,34.180,59.082,63.477,51.270,-0.488,0
1506028254.435,18.555,49.316,63.965,56.641,-9.277,0
1506028254.438,46.875,60.547,67.871,76.172,-8.301,0
1506028254.442,51.758,57.129,57.129,74.707,17.578,0
1506028254.446,25.879,40.039,58.594,59.082,13.672,0
1506028254.450,41.992,42.969,65.430,59.570,-37.109,0
1506028254.454,49.316,43.457,53.223,46.387,-25.391,0
1506028254.458,30.762,38.574,53.711,46.875,6.348,0
1506028254.462,33.691,43.945,60.547,56.152,-9.277,0
1506028254.466,37.598,52.734,59.570,61.035,-12.695,0
1506028254.470,37.109,45.410,55.664,57.129,16.602,0
1506028254.474,46.387,40.527,61.035,62.988,11.230,0
1506028254.478,38.574,57.617,61.523,69.824,0.000,0
1506028254.481,47.363,55.176,56.641,69.824,31.250,0
1506028254.485,51.758,39.062,55.664,66.895,62.500,0
1506028254.489,39.062,56.641,56.152,64.453,60.059,0
1506028254.493,51.758,64.941,59.570,66.406,25.391,0
1506028254.497,44.922,74.219,62.500,72.266,-14.160,0
1506028254.501,34.668,71.777,66.895,75.195,12.695,0
1506028254.505,38.574,47.363,67.383,70.312,61.035,0
1506028254.509,37.598,45.898,59.570,70.801,33.203,0
1506028254.513,40.039,46.875,57.617,73.730,41.992,0
1506028254.517,46.387,52.246,64.453,76.172,70.801,0
1506028254.520,48.340,53.223,58.105,78.125,65.430,0
1506028254.524,56.152,47.852,52.734,83.984,45.410,0
1506028254.528,54.199,54.199,63.477,92.773,25.879,0
1506028254.532,48.828,54.199,60.059,87.402,20.020,0
1506028254.536,51.758,52.734,55.664,84.961,58.594,0
1506028254.540,46.875,45.898,61.523,94.238,46.875,0
1506028254.544,52.246,32.715,58.594,81.055,20.508,0
1506028254.548,63.965,49.805,60.059,79.590,53.711,0
1506028254.552,56.641,61.035,61.035,95.703,57.617,0
1506028254.556,62.500,60.059,61.035,90.332,61.035,0
1506028254.560,67.871,58.594,53.223,79.590,79.102,0
1506028254.563,71.777,66.406,51.758,73.730,63.965,0
1506028254.567,69.824,72.754,61.035,77.637,41.504,0
1506028254.571,50.293,64.453,57.617,84.961,47.363,0
1506028254.575,56.641,58.594,57.129,89.355,59.082,0
1506028254.579,59.570,48.340,56.641,95.703,61.523,0
1506028254.583,58.105,50.781,57.129,93.262,53.223,0
1506028254.587,45.410,53.711,50.293,92.285,19.531,0
1506028254.591,34.668,39.062,44.922,90.332,40.527,0
1506028254.595,46.387,47.852,58.105,89.844,33.691,0
1506028254.599,51.270,58.105,64.941,92.773,8.301,0
1506028254.603,74.219,64.453,66.895,102.051,64.453,0
1506028254.606,88.379,65.918,65.918,94.727,78.613,0
1506028254.610,80.078,58.594,62.012,88.867,53.711,0
1506028254.614,63.965,57.617,61.035,92.773,22.461,0
1506028254.618,48.828,58.594,56.641,78.125,43.945,0
1506028254.622,49.805,64.941,58.594,77.637,89.355,0
1506028254.626,42.969,64.453,63.477,76.172,49.805,0
1506028254.630,35.156,57.129,54.199,65.918,5.859,0
1506028254.634,38.574,55.176,50.293,67.871,26.367,0
1506028254.638,38.086,55.664,50.293,61.035,49.805,3
1506028254.642,44.434,58.594,58.105,66.406,49.805,0
1506028254.645,61.035,58.594,64.453,71.777,17.578,0
1506028254.649,45.898,59.570,49.316,54.688,8.789,0
1506028254.653,38.574,68.848,50.781,50.781,51.758,0
1506028254.657,55.664,69.336,60.547,55.664,31.738,0
1506028254.661,57.129,65.430,55.176,58.594,-12.207,0
1506028254.665,63.965,61.523,70.801,57.617,18.066,0
1506028254.669,64.453,58.105,68.359,60.547,40.527,0
1506028254.673,62.988,59.082,43.945,53.711,16.113,0
1506028254.677,56.152,56.641,52.734,33.203,0.977,0
1506028254.681,55.176,53.711,55.664,37.598,46.387,0
1506028254.685,57.129,50.781,51.758,47.363,66.895,0
1506028254.688,52.246,52.246,44.922,55.176,24.414,0
1506028254.692,63.477,65.430,57.129,68.359,6.836,0
1506028254.696,63.477,65.918,62.988,51.758,63.477,0
1506028254.700,50.781,47.852,50.293,35.156,90.820,0
1506028254.704,44.922,46.875,42.969,40.039,70.801,0
1506028254.708,41.992,48.828,44.434,42.969,64.941,0
1506028254.712,36.621,46.875,24.414,43.945,69.824,0
1506028254.716,38.086,48.828,36.133,58.594,50.781,0
1506028254.720,40.039,48.828,65.918,61.035,36.133,0
1506028254.724,38.086,48.828,61.523,55.176,65.430,0
1506028254.728,41.016,39.062,61.523,60.059,76.172,0
1506028254.731,41.504,43.457,68.359,67.383,89.355,0
1506028254.735,41.016,55.664,66.895,66.406,78.125,0
1506028254.739,44.922,55.176,56.641,60.547,49.805,0
1506028254.743,41.504,58.105,59.082,57.129,61.523,0
1506028254.747,23.438,75.195,64.941,55.664,67.871,0
1506028254.751,17.090,59.570,50.781,56.641,48.340,0
1506028254.755,22.461,30.273,45.898,53.711,76.660,0
1506028254.759,22.461,57.129,50.781,58.105,84.961,0
1506028254.763,30.762,78.613,51.758,73.242,67.871,0
1506028254.767,41.016,76.172,56.152,80.566,70.801,0
1506028254.770,44.434,70.312,50.781,73.730,107.910,0
1506028254.774,42.480,64.941,52.246,64.453,83.984,0
1506028254.778,45.898,64.941,57.129,58.594,40.527,0
1506028254.782,53.711,66.406,55.176,59.082,51.270,0
1506028254.786,57.129,62.500,57.617,65.918,81.543,0
1506028254.790,56.152,56.641,63.477,69.824,77.637,0
1506028254.794,54.199,60.059,62.988,70.312,14.160,0
1506028254.798,62.500,69.824,62.012,67.383,-4.883,0
1506028254.802,71.777,69.336,66.406,64.453,33.691,0
1506028254.806,76.172,61.035,69.824,64.941,36.133,0
1506028254.810,74.707,62.988,63.477,66.895,-16.113,0
1506028254.813,83.984,67.383,56.152,64.453,-23.926,0
1506028254.817,74.707,63.965,56.152,64.941,22.949,0
1506028254.821,64.941,60.059,62.012,66.895,17.578,0
1506028254.825,63.965,60.059,57.617,59.082,-26.855,0
1506028254.829,48.340,60.059,43.945,45.410,-40.039,0
1506028254.833,50.293,51.758,49.805,45.410,13.184,0
1506028254.837,55.664,51.270,53.711,47.363,30.762,0
1506028254.841,54.199,51.270,49.316,38.086,13.184,0
1506028254.845,52.246,48.340,47.363,42.480,-22.949,0
1506028254.849,47.363,48.340,52.246,41.016,-46.875,0
1506028254.853,51.758,44.434,48.340,37.598,-40.039,0
1506028254.856,52.246,45.898,41.016,36.621,-31.250,0
1506028254.860,45.410,48.828,44.434,32.715,-43.945,0
1506028254.864,48.828,52.734,43.945,28.809,-43.457,0
1506028254.868,57.129,58.594,49.316,39.062,-23.438,0
1506028254.872,53.711,60.547,55.176,49.316,-35.156,0
1506028254.876,50.781,62.012,54.688,47.852,-16.113,0
1506028254.880,56.152,62.988,58.594,52.246,-26.367,0
1506028254.884,49.805,64.941,61.035,52.246,-53.223,0
1506028254.888,49.316,59.570,57.129,49.316,-15.137,0
1506028254.892,60.547,53.711,54.688,49.316,-19.531,0
1506028254.895,67.871,55.664,51.270,56.641,-22.949,0
1506028254.899,60.059,55.664,46.387,47.852,-0.488,0
1506028254.903,51.270,54.199,49.316,37.598,-1.953,0
1506028254.907,36.133,57.129,54.199,44.434,3.906,0
1506028254.911,32.227,58.594,53.711,41.992,5.371,0
1506028254.915,43.457,57.129,47.363,41.504,-13.672,0
1506028254.919,48.828,47.852,45.898,41.992,-11.230,0
1506028254.923,53.223,45.410,48.828,39.551,22.949,0
1506028254.927,40.527,48.828,48.828,44.434,4.395,0
1506028254.931,39.551,45.898,51.758,49.805,-47.852,0
1506028254.935,48.340,38.574,48.828,43.457,-12.207,0
1506028254.938,49.316,41.504,47.852,47.363,37.598,0
1506028254.942,46.387,46.387,51.758,52.734,25.391,0
1506028254.946,41.016,40.039,47.363,52.246,24.902,0
1506028254.950,38.574,46.387,47.363,54.688,35.645,0
1506028254.954,41.992,47.852,49.316,56.152,32.715,0
1506028254.958,34.668,43.457,46.875,57.129,14.160,0
1506028254.962,25.391,45.898,44.922,55.176,24.414,0
1506028254.966,29.297,45.410,39.551,53.711,41.504,0
1506028254.970,45.898,52.734,42.480,56.641,43.457,0
1506028254.974,53.711,56.152,57.617,69.824,38.574,0
1506028254.978,45.898,47.852,59.082,74.707,-8.301,0
1506028254.981,49.805,46.387,52.246,68.848,-33.203,0
1506028254.985,65.918,41.504,57.129,68.359,-3.906,0
1506028254.989,62.988,38.574,62.500,75.684,4.395,0
1506028254.993,56.152,51.270,55.176,79.590,-16.602,0
1506028254.997,48.340,62.500,58.594,77.637,-13.672,0
1506028255.001,51.270,65.918,68.359,77.148,-22.461,0
1506028255.005,59.082,71.777,66.406,76.660,-32.227,0
1506028255.009,49.805,69.336,64.941,75.195,-33.691,0
1506028255.013,56.152,72.266,71.289,81.055,-32.227,0
1506028255.017,57.617,67.871,76.172,78.125,-15.625,0
1506028255.020,44.922,50.293,73.730,67.871,-43.945,0
1506028255.024,48.340,36.133,63.965,56.152,-48.340,0
1506028255.028,55.664,32.227,64.941,54.688,-39.062,0
1506028255.032,46.875,45.410,64.941,48.828,-32.227,0
1506028255.036,31.250,56.641,62.500,51.270,-27.832,0
1506028255.040,28.809,54.199,65.430,50.781,-39.551,0
1506028255.044,29.297,52.246,66.406,44.922,-39.551,0
1506028255.048,41.992,58.594,70.312,57.129,-52.246,0
1506028255.052,54.688,54.199,72.266,62.500,-45.898,0
1506028255.056,59.082,56.152,63.965,53.711,-22.949,0
1506028255.060,65.918,63.965,65.430,55.664,-27.832,0
1506028255.063,65.430,72.266,68.848,62.988,-44.922,0
1506028255.067,64.941,72.266,58.594,61.523,-32.715,0
1506028255.071,68.848,61.035,57.129,63.965,8.789,0
1506028255.075,64.453,64.941,54.199,69.336,23.438,0
1506028255.079,66.895,67.871,44.922,71.777,5.371,0
1506028255.083,68.848,47.363,49.805,72.754,30.273,0
1506028255.087,68.848,44.434,58.105,77.637,67.383,0
1506028255.091,71.777,53.711,63.477,80.078,64.453,0
1506028255.095,69.336,53.223,62.500,71.777,35.156,0
1506028255.099,59.082,56.641,56.641,69.336,15.137,0
1506028255.103,52.734,46.875,58.594,70.801,29.785,0
1506028255.106,47.363,40.527,59.082,65.918,24.414,0
1506028255.110,41.504,46.875,54.688,67.871,-18.066,0
1506028255.114,42.480,48.828,54.688,60.059,3.418,0
1506028255.118,45.898,47.363,57.129,48.340,65.430,0
1506028255.122,41.504,48.340,59.082,54.688,42.969,0
1506028255.126,29.297,55.176,57.129,56.152,28.320,0
1506028255.130,31.738,49.316,58.594,56.641,22.461,0
1506028255.134,29.785,38.574,61.523,60.547,29.785,0
1506028255.138,28.809,44.434,60.059,62.012,46.387,4
1506028255.142,46.875,40.527,67.383,61.523,2.441,0
1506028255.145,51.758,33.691,59.082,55.176,-18.555,0
1506028255.149,48.340,50.293,46.387,50.293,22.461,0
1506028255.153,43.945,70.801,55.664,49.316,2.930,0
1506028255.157,41.504,78.125,45.410,49.805,-34.180,0
1506028255.161,47.852,71.777,39.551,55.176,5.859,0
1506028255.165,52.734,46.387,53.711,54.688,5.859,0
1506028255.169,55.176,52.734,49.805,46.387,-27.344,0
1506028255.173,58.594,70.312,49.316,43.457,-11.230,0
1506028255.177,62.500,63.477,49.316,41.504,-4.883,0
1506028255.181,61.523,61.523,47.363,44.434,-12.207,0
1506028255.185,60.059,61.523,49.805,46.875,-16.113,0
1506028255.188,56.641,57.617,48.828,41.992,-41.992,0
1506028255.192,47.363,62.988,43.945,35.156,-33.203,0
1506028255.196,35.645,65.430,41.992,27.344,-40.527,0
1506028255.200,28.320,58.105,44.922,29.785,-61.523,0
1506028255.204,31.738,55.176,41.016,22.461,-50.781,0
1506028255.208,29.297,62.500,39.551,4.883,-31.250,0
1506028255.212,8.789,58.594,42.480,-11.230,-31.250,0
1506028255.216,-6.836,48.340,43.945,-20.508,-48.340,0
1506028255.220,-6.836,47.852,44.922,-27.344,-19.531,0
1506028255.224,-13.184,47.363,48.340,-34.180,0.977,0
1506028255.228,-16.113,39.062,44.922,-41.016,-14.160,0
1506028255.231,-25.391,40.039,51.758,-41.504,-15.137,0
1506028255.235,-37.598,37.598,65.430,-43.457,17.090,0
1506028255.239,-44.434,42.969,49.316,-47.852,34.668,0
1506028255.243,-49.316,44.922,41.016,-39.062,6.348,0
1506028255.247,-51.758,22.461,45.898,-43.945,-11.719,0
1506028255.251,-62.012,67.383,27.344,-56.641,32.715,0
1506028255.255,-70.801,51.758,40.527,-52.734,64.941,0
1506028255.259,-81.543,9.277,58.594,-59.570,63.965,0
1506028255.263,-94.238,86.426,55.176,-71.777,52.734,0
1506028255.267,-88.379,97.656,57.617,-74.707,89.844,0
1506028255.270,-76.172,80.078,24.902,-71.777,83.496,0
1506028255.274,-78.613,83.496,37.598,-78.125,50.781,0
1506028255.278,-70.801,85.938,83.008,-71.289,49.316,0
1506028255.282,-55.664,66.895,56.152,-50.781,63.477,0
1506028255.286,-67.871,-25.391,37.109,-57.617,104.492,0
1506028255.290,-83.984,19.531,41.992,-65.430,84.473,0
1506028255.294,-78.125,101.562,57.129,-69.336,66.895,0
1506028255.298,-81.055,50.781,51.270,-65.918,72.266,0
1506028255.302,-83.984,26.367,37.109,-57.617,88.379,0
1506028255.306,-67.383,42.969,53.223,-54.688,99.609,0
1506028255.310,-68.848,65.918,31.738,-56.152,72.266,0
1506028255.313,-63.965,84.473,40.039,-49.805,80.078,0
1506028255.317,-45.898,75.684,49.805,-41.504,83.496,0
1506028255.321,-46.387,73.730,51.758,-38.086,83.984,0
1506028255.325,-23.438,27.344,54.688,-29.785,95.215,0
1506028255.329,-4.395,-53.223,61.035,-23.438,64.453,0
1506028255.333,-14.160,26.367,18.555,-27.344,25.879,0
1506028255.337,-20.020,105.469,10.254,-28.809,42.969,0
1506028255.341,-11.719,87.402,60.547,-17.578,54.199,0
1506028255.345,-1.953,68.848,77.637,-8.301,32.227,0
1506028255.349,0.977,56.152,43.457,0.488,16.113,0
1506028255.353,11.719,46.387,12.695,5.859,11.719,0
1506028255.356,16.113,49.316,23.926,12.695,38.086,0
1506028255.360,29.785,57.129,35.156,29.785,33.691,0
1506028255.364,41.504,52.734,31.738,29.297,4.395,0
1506028255.368,47.363,54.199,26.367,22.949,20.020,0
1506028255.372,39.551,34.668,28.809,33.203,37.598,0
1506028255.376,35.645,2.930,26.855,42.480,7.812,0
1506028255.380,37.109,21.973,23.926,43.457,-27.832,0
1506028255.384,38.574,59.082,20.996,40.527,-12.207,0
1506028255.388,46.387,57.617,25.391,45.410,17.578,0
1506028255.392,49.316,44.434,26.855,53.711,19.043,0
1506028255.395,58.594,52.734,30.273,62.012,18.555,0
1506028255.399,67.383,47.852,30.273,64.453,53.223,0
1506028255.403,59.570,45.410,23.926,62.500,42.480,0
1506028255.407,62.988,51.758,44.434,66.895,-8.301,0
1506028255.411,57.129,2.930,34.180,70.801,2.441,0
1506028255.415,34.180,-5.371,-0.488,55.176,3.906,0
1506028255.419,39.062,47.363,15.625,50.781,8.301,0
1506028255.423,52.246,22.949,1.953,68.359,11.719,0
1506028255.427,64.941,20.020,-16.113,78.125,-18.066,0
1506028255.431,72.266,46.387,10.254,62.012,-10.742,0
1506028255.435,64.941,21.973,30.762,49.805,6.348,0
1506028255.438,63.477,28.320,52.246,43.945,28.809,0
1506028255.442,62.500,61.523,49.805,38.574,17.090,0
1506028255.446,56.152,59.082,14.160,43.945,21.973,0
1506028255.450,52.734,65.918,27.344,57.617,21.973,0
1506028255.454,54.199,80.078,38.574,56.152,-0.488,0
1506028255.458,52.734,77.637,37.109,41.992,20.996,0
1506028255.462,42.969,22.461,29.297,38.086,-4.395,0
1506028255.466,43.945,42.480,9.766,34.180,-12.207,0
1506028255.470,62.012,66.895,26.367,35.156,6.836,0
1506028255.474,72.754,-22.949,46.875,40.527,13.672,0
1506028255.478,47.363,9.277,58.594,48.340,17.578,0
1506028255.481,42.480,79.590,51.270,47.852,-20.508,0
1506028255.485,56.641,72.754,37.598,41.992,-16.113,0
1506028255.489,58.594,38.574,26.855,41.504,16.602,0
1506028255.493,71.289,1.953,12.207,45.410,-0.977,0
1506028255.497,98.633,-11.230,64.941,60.547,-33.691,0
1506028255.501,96.191,-22.949,47.852,48.828,-36.621,0
1506028255.505,62.988,-6.836,-21.484,15.625,-12.207,0
1506028255.509,72.754,66.406,38.574,27.832,-3.418,0
1506028255.513,86.426,47.363,56.152,47.363,-31.738,0
1506028255.517,57.129,49.316,31.738,27.832,-51.270,0
1506028255.520,36.621,101.562,35.645,15.137,-3.418,0
1506028255.524,47.852,80.078,38.086,21.484,-1.465,0
1506028255.528,47.363,42.969,38.574,28.320,-52.246,0
1506028255.532,39.062,23.926,28.320,20.020,-62.988,0
1506028255.536,50.293,25.879,0.000,8.789,-11.719,0
1506028255.540,54.199,-6.836,-3.418,23.926,-4.883,0
1506028255.544,44.434,-18.555,25.879,39.551,-42.969,0
1506028255.548,45.898,35.645,26.855,39.551,-51.758,0
1506028255.552,59.082,33.691,8.301,37.598,-22.949,0
1506028255.556,75.684,16.602,13.672,45.410,3.418,0
1506028255.560,66.895,26.367,9.277,31.250,-31.250,0
1506028255.563,71.289,8.789,16.113,30.273,-64.453,0
1506028255.567,87.402,-16.113,20.508,46.875,-29.297,0
1506028255.571,106.445,-49.805,19.043,56.641,-21.973,0
1506028255.575,106.445,-20.020,7.812,49.805,-69.336,0
1506028255.579,90.820,87.891,29.297,42.480,-66.895,0
1506028255.583,107.910,40.039,82.031,62.500,-30.762,0
1506028255.587,101.562,-48.828,-48.340,50.781,-54.199,0
1506028255.591,88.379,45.898,-63.965,35.645,-94.727,0
1506028255.595,104.980,102.539,21.484,36.133,-92.773,0
1506028255.599,107.910,78.613,46.875,31.738,-67.383,0
1506028255.603,100.098,56.641,33.203,38.086,-63.477,0
1506028255.606,101.074,48.828,14.160,36.621,-61.523,0
1506028255.610,108.887,3.418,44.434,27.832,-94.238,0
1506028255.614,108.887,-31.738,47.363,31.250,-91.797,0
1506028255.618,87.402,-23.438,2.930,33.203,-80.078,0
1506028255.622,68.848,27.832,-21.484,30.762,-104.492,0
1506028255.626,65.918,80.078,30.273,30.762,-98.145,0
1506028255.630,79.102,132.812,84.961,43.457,-97.168,0
1506028255.634,99.121,-6.836,57.129,48.828,-96.680,0
1506028255.638,84.961,-99.609,-12.695,38.574,-106.445,5
1506028255.642,53.711,35.645,0.000,42.969,-80.078,0
1506028255.645,48.828,60.059,45.410,49.805,-34.668,0
1506028255.649,60.059,11.719,32.227,44.922,-55.664,0
1506028255.653,71.777,-71.289,28.809,60.059,-70.312,0
1506028255.657,91.309,-20.020,38.574,74.707,-46.387,0
1506028255.661,99.121,81.055,22.461,61.035,-44.434,0
1506028255.665,86.426,70.801,5.371,49.316,-64.941,0
1506028255.669,76.660,60.547,41.504,61.523,-42.480,0
1506028255.673,85.938,-14.160,64.941,76.660,-17.090,0
1506028255.677,88.867,9.277,20.508,79.102,-26.855,0
1506028255.681,64.453,102.539,39.551,65.918,-34.180,0
1506028255.685,41.016,74.219,62.988,52.734,-22.949,0
1506028255.688,59.570,23.438,48.340,74.219,-7.324,0
1506028255.692,67.871,-31.250,20.508,82.031,-17.578,0
1506028255.696,65.918,10.254,59.082,71.777,-13.184,0
1506028255.700,61.523,31.250,53.223,62.012,19.043,0
1506028255.704,99.609,52.246,25.391,100.586,49.805,0
1506028255.708,89.355,72.754,44.922,97.656,30.762,0
1506028255.712,35.156,-11.719,27.344,29.785,-8.301,0
1506028255.716,56.641,-101.562,-8.301,36.133,31.250,0
1506028255.720,111.328,-7.324,41.504,102.051,10.742,0
1506028255.724,129.883,146.973,71.289,125.488,-15.625,0
1506028255.728,88.867,101.562,94.727,79.590,15.625,0
1506028255.731,62.500,-10.254,41.504,54.688,11.230,0
1506028255.735,81.543,-13.672,-81.055,89.355,27.832,0
1506028255.739,78.613,-17.578,34.180,103.027,51.758,0
1506028255.743,69.824,59.082,124.512,94.238,37.598,0
1506028255.747,58.105,109.863,70.312,76.172,27.344,0
1506028255.751,42.969,48.340,61.035,51.758,22.461,0
1506028255.755,57.617,37.109,87.402,61.035,20.508,0
1506028255.759,64.453,3.906,76.172,72.266,14.648,0
1506028255.763,48.340,8.789,51.270,58.105,29.785,0
1506028255.767,57.617,-17.578,113.770,78.613,8.301,0
1506028255.770,84.961,-53.223,70.801,104.492,-9.277,0
1506028255.774,82.031,30.273,74.707,82.031,-3.418,0
1506028255.778,56.641,106.934,99.121,52.246,-7.812,0
1506028255.782,70.801,120.117,73.730,67.383,-4.883,0
1506028255.786,81.055,45.898,86.914,76.660,14.160,0
1506028255.790,83.496,-108.887,70.312,95.215,26.855,0
1506028255.794,102.539,-51.270,134.766,130.371,18.555,0
1506028255.798,75.195,134.766,124.512,81.543,-4.883,0
1506028255.802,65.430,120.605,76.172,78.613,-13.184,0
1506028255.806,60.059,-15.625,102.539,91.797,-5.859,0
1506028255.810,26.367,-6.348,71.777,49.805,0.000,0
1506028255.813,33.691,78.125,55.176,36.621,-18.555,0
1506028255.817,50.293,46.387,61.035,47.852,-17.578,0
1506028255.821,85.938,54.199,99.609,96.191,27.344,0
1506028255.825,130.859,47.363,123.535,136.719,31.250,0
1506028255.829,74.707,3.418,106.934,70.801,-25.879,0
1506028255.833,70.312,89.844,125.000,44.922,-39.551,0
1506028255.837,95.215,127.930,145.020,72.266,21.973,0
1506028255.841,58.594,81.543,172.852,80.078,41.504,0
1506028255.845,38.086,27.344,-20.020,68.848,-0.977,0
1506028255.849,80.078,25.879,-35.156,88.867,0.488,0
1506028255.853,149.414,78.613,205.078,137.207,32.227,0
1506028255.856,106.445,109.863,154.297,103.516,24.414,0
1506028255.860,64.453,85.938,100.098,78.613,-32.715,0
1506028255.864,95.215,0.977,144.043,92.773,-16.113,0
1506028255.868,90.820,-20.996,124.512,74.707,21.973,0
1506028255.872,91.309,125.000,133.301,77.637,14.648,0
1506028255.876,92.285,126.465,84.473,73.242,9.766,0
1506028255.880,85.938,47.363,62.500,57.617,13.672,0
1506028255.884,140.137,74.707,104.980,111.328,21.973,0
1506028255.888,177.246,104.004,142.090,162.598,9.277,0
1506028255.892,86.914,61.523,148.438,111.328,-25.391,0
1506028255.895,32.227,67.871,117.676,72.266,-25.879,0
1506028255.899,-9.277,38.574,80.566,27.344,-9.766,0
1506028255.903,19.531,8.301,153.809,47.852,-13.672,0
1506028255.907,60.059,-61.523,154.785,78.125,-22.949,0
1506028255.911,87.402,-0.977,121.094,103.027,-10.742,0
1506028255.915,99.121,115.723,106.934,105.469,20.996,0
1506028255.919,45.410,104.004,-28.320,58.105,21.484,0
1506028255.923,31.250,62.988,2.930,42.969,14.160,0
1506028255.927,38.574,139.160,185.059,32.715,27.832,0
1506028255.931,25.391,75.195,178.711,20.508,-2.930,0
1506028255.935,49.805,1.953,142.090,62.012,0.488,0
1506028255.938,84.473,-3.418,157.715,101.562,0.488,0
1506028255.942,90.820,45.898,138.672,83.496,9.766,0
1506028255.946,75.684,96.680,167.480,66.406,5.371,0
1506028255.950,53.223,58.594,166.016,47.852,11.719,0
1506028255.954,100.098,114.746,171.875,82.031,37.109,0
1506028255.958,111.328,92.773,188.965,108.398,21.973,0
1506028255.962,-1.465,8.789,65.918,7.812,34.180,0
1506028255.966,-1.465,72.754,52.734,0.488,15.625,0
1506028255.970,-20.996,41.992,84.961,-14.648,25.391,0
1506028255.974,6.348,16.113,116.211,-3.418,75.195,0
1506028255.978,74.219,50.293,135.254,42.969,26.367,0
1506028255.981,79.102,19.043,126.465,53.223,22.461,0
1506028255.985,59.570,51.270,127.441,55.176,49.805,0
1506028255.989,64.453,-47.852,89.355,63.965,39.551,0
1506028255.993,89.844,-32.227,96.191,93.262,8.789,0
1506028255.997,55.664,160.156,155.762,63.477,-28.809,0
1506028256.001,33.691,155.762,153.320,25.879,36.621,0
1506028256.005,86.426,159.668,153.809,64.941,55.176,0
1506028256.009,90.332,101.074,141.113,61.035,-16.113,0
1506028256.013,47.852,49.805,144.531,27.832,-4.395,0
1506028256.017,42.969,87.402,167.480,42.480,25.879,0
1506028256.020,78.613,-3.906,154.297,79.102,14.648,0
1506028256.024,83.984,-36.133,170.898,67.383,15.137,0
1506028256.028,51.758,88.379,139.648,25.391,12.207,0
1506028256.032,58.594,117.676,118.652,37.109,-4.395,0
1506028256.036,66.406,100.586,81.543,28.809,4.395,0
1506028256.040,85.449,56.641,154.297,79.102,-27.344,0
1506028256.044,66.895,-39.062,226.562,88.379,-39.551,0
1506028256.048,13.184,28.809,89.355,6.348,11.230,0
1506028256.052,24.414,160.156,82.520,18.555,22.461,0
1506028256.056,72.266,171.875,173.340,70.312,19.043,0
1506028256.060,87.891,68.359,246.582,76.172,43.457,0
1506028256.063,36.133,20.996,169.922,24.902,35.645,0
1506028256.067,11.230,108.887,123.047,-0.977,12.695,0
1506028256.071,62.500,-19.531,197.754,50.293,44.434,0
1506028256.075,120.605,-42.480,177.246,91.797,42.969,0
1506028256.079,66.895,156.250,154.297,26.855,-7.812,0
1506028256.083,23.438,91.797,127.930,10.742,7.324,0
1506028256.087,111.328,126.465,169.922,97.656,40.527,0
1506028256.091,107.910,145.996,215.332,63.477,41.992,0
1506028256.095,32.715,29.785,135.254,-11.719,21.973,0
1506028256.099,62.500,38.574,87.891,31.738,32.227,0
1506028256.103,44.922,96.680,145.508,30.762,41.992,0
1506028256.106,43.945,23.926,199.219,33.203,29.297,0
1506028256.110,91.797,-74.219,200.684,74.219,-0.488,0
1506028256.114,57.129,40.039,140.625,40.039,-26.367,0
1506028256.118,41.504,118.164,154.785,25.391,24.414,0
1506028256.122,67.871,150.391,161.621,49.316,58.594,0
1506028256.126,67.383,123.047,77.148,33.203,34.180,0
1506028256.130,122.070,137.695,150.391,80.078,30.762,0
1506028256.134,127.930,132.812,186.523,75.195,42.480,0
1506028256.138,64.453,-8.301,158.203,13.672,53.711,0
1506028256.142,82.031,44.434,186.523,51.758,38.086,0
1506028256.145,54.688,119.629,174.316,36.133,-21.973,0
1506028256.149,-4.883,35.156,127.441,-16.602,-2.930,0
1506028256.153,20.508,19.043,67.383,17.090,53.223,0
1506028256.157,60.547,70.312,125.000,51.758,56.641,0
1506028256.161,51.270,75.195,135.254,34.668,7.324,0
1506028256.165,79.102,90.820,155.273,58.105,-4.395,0
1506028256.169,90.820,90.820,233.887,65.918,38.086,0
1506028256.173,52.734,81.543,182.129,42.480,44.922,0
1506028256.177,37.109,69.336,164.551,27.344,47.363,0
1506028256.181,41.992,111.816,133.789,17.090,58.105,0
1506028256.185,45.898,72.266,116.699,34.668,47.363,0
1506028256.188,61.523,32.227,144.531,64.941,32.227,0
1506028256.192,41.016,63.477,125.488,23.438,28.809,0
1506028256.196,46.875,34.668,116.699,28.809,20.996,0
1506028256.200,85.449,95.215,160.156,94.727,19.531,0
1506028256.204,30.762,93.262,208.984,45.410,39.551,0
1506028256.208,-18.555,69.336,204.590,-0.488,48.340,0
1506028256.212,-4.883,89.355,206.543,8.301,15.625,0
1506028256.216,14.160,89.355,228.516,9.766,4.883,0
1506028256.220,68.359,157.715,277.344,52.734,36.133,0
1506028256.224,98.633,114.258,310.547,75.195,29.297,0
1506028256.228,16.113,-34.180,255.859,-3.906,-5.859,0
1506028256.231,22.949,19.531,215.332,-3.906,3.418,0
1506028256.235,57.129,100.098,230.469,24.414,-4.395,0
1506028256.239,51.758,79.102,218.262,13.184,19.531,0
1506028256.243,51.758,108.398,213.379,-1.953,27.832,0
1506028256.247,52.246,77.637,211.426,9.766,-11.230,0
1506028256.251,50.781,62.012,212.402,10.742,-4.395,0
1506028256.255,43.457,128.418,225.098,-1.465,35.645,0
1506028256.259,59.082,80.078,208.496,24.414,39.551,0
1506028256.263,57.129,-30.273,221.191,36.621,16.602,0
1506028256.267,67.383,20.996,235.840,43.457,-0.977,0
1506028256.270,62.012,141.602,212.402,29.297,30.762,0
1506028256.274,58.105,160.645,217.285,38.086,53.711,0
1506028256.278,99.609,144.043,211.426,84.473,11.230,0
1506028256.282,91.797,104.980,224.609,65.430,9.766,0
1506028256.286,43.945,72.754,225.586,11.719,59.570,0
1506028256.290,34.180,96.680,101.562,21.973,66.406,0
1506028256.294,59.082,121.582,165.039,62.012,-6.348,0
1506028256.298,33.691,75.684,229.980,15.137,-29.297,0
1506028256.302,23.926,59.570,152.344,-12.695,23.926,0
1506028256.306,61.035,71.289,157.715,30.273,38.086,0
1506028256.310,71.777,83.984,191.406,41.016,3.906,0
1506028256.313,57.129,111.816,211.426,68.848,-1.953,0
1506028256.317,56.641,102.539,180.664,87.402,7.324,0
1506028256.321,43.945,118.652,170.898,37.598,29.785,0
1506028256.325,41.504,96.680,190.430,21.484,-0.977,0
1506028256.329,33.691,42.969,156.250,24.414,-4.395,0
1506028256.333,26.367,76.660,144.531,17.578,38.086,0
1506028256.337,55.176,92.773,187.500,51.270,49.316,0
1506028256.341,36.133,113.281,213.867,55.664,36.621,0
1506028256.345,9.277,104.980,170.898,29.297,23.438,0
1506028256.349,16.113,104.004,123.535,12.695,41.992,0
1506028256.353,20.508,84.961,121.582,12.695,27.832,0
1506028256.356,33.691,62.988,144.531,35.156,8.301,0
1506028256.360,37.598,36.133,169.922,39.551,34.668,0
1506028256.364,50.781,38.574,176.758,55.664,50.293,0
1506028256.368,40.527,100.586,154.297,48.340,48.828,0
1506028256.372,27.832,96.191,119.629,27.832,64.453,0
1506028256.376,53.711,87.891,141.602,48.828,81.055,0
1506028256.380,63.477,113.281,141.602,61.035,75.684,0
1506028256.384,45.898,76.660,89.844,42.969,50.781,0
1506028256.388,61.523,70.801,131.348,48.828,41.016,0
1506028256.392,78.613,85.938,154.297,68.848,63.477,0
1506028256.395,53.711,80.566,126.465,62.500,89.355,0
1506028256.399,36.621,64.941,139.160,38.086,90.332,0
1506028256.403,40.039,22.949,112.305,39.062,80.566,0
1506028256.407,44.922,82.031,128.418,46.387,95.215,0
1506028256.411,65.918,143.555,144.531,52.246,74.707,0
1506028256.415,70.312,97.168,133.301,59.570,31.250,0
1506028256.419,37.598,74.219,135.254,28.809,47.363,0
1506028256.423,38.574,96.680,145.508,29.297,82.031,0
1506028256.427,34.668,101.074,139.160,45.898,64.941,0
1506028256.431,34.668,77.148,136.230,52.246,23.438,0
1506028256.435,31.250,25.879,120.117,44.922,41.016,0
1506028256.438,24.902,39.551,113.281,40.039,73.730,0
1506028256.442,-4.395,60.059,104.492,16.602,34.180,0
1506028256.446,-2.930,121.582,95.215,17.090,34.668,0
1506028256.450,20.996,145.996,106.445,32.715,72.754,0
1506028256.454,6.836,79.590,105.469,14.648,81.055,0
1506028256.458,7.324,78.613,104.980,21.973,45.410,0
1506028256.462,4.395,98.633,86.426,20.020,-13.184,0
1506028256.466,33.203,98.145,94.727,31.250,9.277,0
1506028256.470,60.547,98.633,151.855,69.824,73.242,0
1506028256.474,-4.395,60.059,90.332,20.508,59.082,0
1506028256.478,-34.668,25.879,47.852,-16.113,23.438,0
1506028256.481,0.977,26.855,100.586,20.020,32.227,0
1506028256.485,67.871,91.309,145.996,71.289,62.500,0
1506028256.489,31.250,118.164,154.297,28.809,51.270,0
1506028256.493,-8.301,100.098,90.332,0.000,50.781,0
1506028256.497,22.949,60.547,88.379,22.949,67.383,0
1506028256.501,25.391,34.668,104.980,24.414,27.344,0
1506028256.505,49.316,84.473,129.883,58.594,27.832,0
1506028256.509,50.781,119.141,133.789,41.992,48.340,0
1506028256.513,7.324,89.355,76.660,4.883,68.848,0
1506028256.517,-10.254,58.105,88.867,17.090,69.336,0
1506028256.520,-0.977,89.844,78.125,18.555,64.453,0
1506028256.524,12.207,87.891,74.707,24.414,55.664,0
1506028256.528,26.855,77.148,131.836,47.363,35.645,0
1506028256.532,32.227,64.453,127.441,59.570,43.457,0
1506028256.536,2.930,40.527,69.336,30.762,59.570,0
1506028256.540,35.645,58.594,58.105,58.105,79.590,0
1506028256.544,55.176,31.738,50.293,72.266,84.473,0
1506028256.548,4.395,43.945,91.797,34.180,60.059,0
1506028256.552,38.574,62.988,169.434,76.660,58.594,0
1506028256.556,71.777,113.281,153.809,106.445,95.215,0
1506028256.560,11.230,124.023,116.211,55.664,83.008,0
1506028256.563,-13.672,84.961,76.660,15.137,65.918,0
1506028256.567,2.930,69.336,67.383,17.578,66.895,0
1506028256.571,24.414,46.387,94.727,42.480,77.637,0
1506028256.575,129.395,174.805,145.508,158.691,75.684,0
1506028256.579,127.441,147.949,90.820,166.992,42.480,0
1506028256.583,4.883,-36.133,31.250,37.109,39.551,0
1506028256.587,-43.457,-45.410,36.133,-20.508,76.172,0
1506028256.591,0.000,45.898,90.332,23.926,70.801,0
1506028256.595,31.738,108.887,124.512,57.129,55.664,0
1506028256.599,1.953,88.379,72.754,32.227,54.688,0
1506028256.603,-3.906,59.082,79.102,30.273,57.129,0
1506028256.606,-6.836,35.156,72.754,21.973,62.500,0
1506028256.610,20.996,71.777,91.309,64.453,24.902,0
1506028256.614,41.016,83.984,95.215,63.965,31.738,0
1506028256.618,15.625,59.082,64.453,31.738,44.922,0
1506028256.622,0.488,55.664,70.312,45.410,31.250,0
1506028256.626,1.953,59.570,31.250,45.410,23.926,0
1506028256.630,1.953,42.480,-18.555,25.879,36.621,0
1506028256.634,29.785,62.012,67.871,63.477,24.902,0
1506028256.638,47.363,33.691,94.238,84.473,14.648,0
1506028256.642,53.711,28.320,86.426,71.777,12.695,0
1506028256.645,65.918,75.195,125.000,74.707,0.488,0
1506028256.649,45.410,33.691,94.238,51.270,43.945,0
1506028256.653,29.785,46.387,75.684,40.039,53.223,0
1506028256.657,18.555,84.473,62.500,47.363,45.898,0
1506028256.661,2.441,69.336,69.824,45.898,53.223,0
1506028256.665,26.855,62.012,65.918,55.664,37.598,0
1506028256.669,46.387,46.875,47.852,64.941,68.848,0
1506028256.673,37.598,46.387,65.430,59.082,77.148,0
1506028256.677,34.180,68.848,57.617,58.594,72.754,0
1506028256.681,19.043,55.176,50.781,47.363,59.082,0
1506028256.685,35.156,65.918,54.688,61.523,38.086,0
1506028256.688,56.641,28.320,67.871,82.031,65.430,0
1506028256.692,31.738,0.488,94.727,70.801,44.434,0
1506028256.696,29.297,65.918,90.332,81.055,41.992,0
1506028256.700,28.809,66.406,82.520,77.148,66.895,0
1506028256.704,29.785,18.555,84.473,66.895,77.148,0
1506028256.708,42.480,35.645,63.965,75.684,95.703,0
1506028256.712,37.109,77.148,52.246,73.242,57.129,0
1506028256.716,31.738,80.566,42.969,71.777,49.805,0
1506028256.720,43.457,10.254,70.801,79.590,91.309,0
1506028256.724,81.543,40.527,146.973,118.164,95.215,0
1506028256.728,49.316,116.699,107.422,83.008,71.777,0
1506028256.731,36.621,105.469,23.438,43.945,48.340,0
1506028256.735,73.730,74.707,80.078,74.219,52.246,0
1506028256.739,59.570,33.691,12.207,79.590,78.613,0
1506028256.743,82.520,84.961,25.879,115.723,45.898,0
1506028256.747,81.543,123.047,204.102,118.164,28.320,0
1506028256.751,17.090,78.613,117.188,44.922,67.383,0
1506028256.755,1.465,58.594,77.637,25.391,100.098,0
1506028256.759,35.156,56.641,101.074,62.012,87.891,0
1506028256.763,68.848,16.113,100.586,96.191,55.176,0
1506028256.767,35.645,32.715,71.777,55.664,100.098,0
1506028256.770,21.484,110.840,27.344,35.645,108.887,0
1506028256.774,36.621,100.098,43.457,53.711,62.500,0
1506028256.778,46.875,77.637,111.816,61.523,17.090,0
1506028256.782,41.504,19.531,73.730,45.898,19.043,0
1506028256.786,67.871,24.414,20.508,68.848,32.227,0
1506028256.790,46.387,98.633,18.066,46.387,18.066,0
1506028256.794,11.719,85.449,49.805,10.254,-7.812,0
1506028256.798,51.758,96.680,94.727,50.293,23.926,0
1506028256.802,54.199,76.660,17.090,42.969,45.898,0
1506028256.806,34.668,49.316,-13.672,14.648,25.879,0
1506028256.810,45.898,26.367,94.238,23.926,30.273,0
1506028256.813,81.543,32.227,148.926,61.035,-3.906,0
1506028256.817,76.660,46.875,105.957,55.176,9.766,0
1506028256.821,40.039,20.996,44.922,22.461,43.945,0
1506028256.825,31.738,45.898,36.621,23.438,26.367,0
1506028256.829,38.086,101.074,63.477,25.879,24.902,0
1506028256.833,53.711,112.793,59.570,23.926,51.758,0
1506028256.837,55.664,105.957,49.805,26.855,43.945,0
1506028256.841,76.172,88.867,75.684,50.781,0.000,0
1506028256.845,63.477,35.645,50.293,37.109,8.301,0
1506028256.849,46.875,17.578,50.293,29.297,15.625,0
1506028256.853,61.035,55.664,45.410,48.340,28.809,0
1506028256.856,40.527,113.281,36.133,34.180,50.781,0
1506028256.860,29.785,81.543,61.035,14.648,14.648,0
1506028256.864,33.691,43.457,59.570,19.531,18.555,0
1506028256.868,39.062,49.316,65.918,23.438,41.504,0
1506028256.872,67.871,24.902,66.406,35.156,39.551,0
1506028256.876,57.129,-15.137,18.555,39.062,14.648,0
1506028256.880,28.809,41.016,57.617,27.832,-22.461,0
1506028256.884,29.297,76.660,71.289,23.926,15.137,0
1506028256.888,41.504,55.176,44.434,29.297,52.246,0
1506028256.892,34.180,31.250,68.848,24.902,15.625,0
1506028256.895,36.621,59.082,72.266,29.785,-3.906,0
1506028256.899,63.965,61.523,101.074,60.547,29.297,0
1506028256.903,25.879,30.762,72.754,26.855,53.711,0
1506028256.907,6.836,40.039,43.457,2.930,13.672,0
1506028256.911,38.574,65.430,73.242,31.250,-8.301,0
1506028256.915,26.367,67.383,52.734,30.273,18.066,0
1506028256.919,12.695,42.969,27.832,10.742,46.387,0
1506028256.923,2.930,47.852,4.395,-0.488,43.457,0
1506028256.927,56.641,76.660,55.664,56.152,15.137,0
1506028256.931,80.078,-8.789,96.191,75.195,-2.441,0
1506028256.935,-0.977,-35.645,-31.738,-17.090,27.344,0
1506028256.938,36.133,83.984,-33.203,12.207,10.254,0
1506028256.942,48.340,63.965,55.664,32.227,-27.344,0
1506028256.946,24.414,60.547,61.523,7.324,6.348,0
1506028256.950,29.297,78.125,44.922,12.695,-0.977,0
1506028256.954,34.668,77.637,49.805,21.973,-25.391,0
1506028256.958,40.527,73.242,28.320,29.785,-25.391,0
1506028256.962,34.668,31.738,9.766,24.414,5.859,0
1506028256.966,49.316,51.270,-47.363,48.340,39.551,0
1506028256.970,42.480,70.801,3.418,48.340,13.184,0
1506028256.974,31.738,76.172,87.402,28.320,-8.789,0
1506028256.978,27.344,73.730,30.273,24.902,16.602,0
1506028256.981,24.902,66.406,38.574,25.879,10.742,0
1506028256.985,29.297,52.734,64.453,34.180,-26.367,0
1506028256.989,29.297,43.945,61.523,36.133,-17.578,0
1506028256.993,44.922,55.176,54.688,50.781,-18.066,0
1506028256.997,48.828,45.898,59.570,60.059,-32.715,0
1506028257.001,55.176,67.383,61.035,66.406,-0.977,0
1506028257.005,37.598,14.648,40.039,41.016,32.227,0
1506028257.009,9.277,-27.832,11.230,10.742,28.809,0
1506028257.013,-0.488,62.988,-6.348,5.371,-8.789,0
1506028257.017,24.414,67.871,23.926,32.715,-15.137,0
1506028257.020,30.762,26.367,28.320,45.898,-7.324,0
1506028257.024,32.227,58.105,33.691,50.781,20.996,0
1506028257.028,53.223,82.520,37.598,65.918,11.230,0
1506028257.032,44.434,31.250,11.230,51.758,-9.277,0
1506028257.036,47.363,46.875,27.832,56.641,47.852,0
1506028257.040,69.336,78.125,41.016,76.172,47.852,0
1506028257.044,66.406,39.551,27.832,70.312,41.016,0
1506028257.048,70.312,68.359,32.227,78.613,47.363,0
1506028257.052,68.848,80.078,15.625,73.730,67.383,0
1506028257.056,59.082,50.781,8.301,51.758,61.523,0
1506028257.060,56.152,44.922,3.418,48.828,12.207,0
1506028257.063,45.410,41.992,-26.367,47.363,-1.953,0
1506028257.067,31.250,27.832,-8.789,39.062,26.367,0
1506028257.071,31.250,30.762,10.742,36.621,34.668,0
1506028257.075,33.203,48.340,3.906,36.621,-13.184,0
1506028257.079,41.992,14.648,4.883,38.574,-9.277,0
1506028257.083,63.965,-22.949,8.301,49.316,14.648,0
1506028257.087,61.035,25.879,1.953,48.340,5.371,0
1506028257.091,50.781,59.082,-11.230,47.363,-18.555,0
1506028257.095,67.383,69.824,-6.836,55.664,-11.719,0
1506028257.099,76.172,50.293,10.254,63.477,20.020,0
1506028257.103,65.430,19.043,1.953,56.152,20.020,0
1506028257.106,57.617,34.180,-3.418,45.410,21.484,0
1506028257.110,49.316,48.340,-9.277,42.480,-14.648,0
1506028257.114,71.289,42.480,10.742,56.152,-46.875,0
1506028257.118,93.750,39.551,32.227,70.312,-36.133,0
1506028257.122,71.289,-21.973,1.465,46.387,-31.738,0
1506028257.126,56.152,-16.602,-13.184,38.574,-16.602,0
1506028257.130,57.617,69.824,0.977,48.828,0.488,0
1506028257.134,62.500,51.758,15.137,54.688,-20.020,0
1506028257.138,52.734,66.406,16.602,46.875,-33.691,0
1506028257.142,57.129,86.426,-2.441,46.875,34.668,0
1506028257.145,71.289,53.711,-11.230,58.105,98.145,0
1506028257.149,66.406,41.504,23.926,55.176,88.379,0
1506028257.153,67.871,45.898,32.227,50.293,79.102,0
1506028257.157,64.941,42.480,34.180,51.270,67.383,0
1506028257.161,59.082,-0.488,41.016,55.664,54.688,0
1506028257.165,64.453,4.395,37.598,62.500,45.410,0
1506028257.169,60.059,40.527,17.578,53.711,49.805,0
1506028257.173,77.148,-29.297,-14.648,63.965,88.867,0
1506028257.177,92.285,-28.320,14.160,84.961,51.270,0
1506028257.181,57.129,41.016,35.645,52.734,22.461,0
1506028257.185,39.551,66.406,49.316,27.344,66.895,0
1506028257.188,46.387,56.641,56.152,39.062,72.266,0
1506028257.192,43.945,42.480,20.508,43.945,46.875,0
1506028257.196,61.035,60.059,39.551,60.547,20.020,0
1506028257.200,65.430,53.711,25.879,68.848,58.105,0
1506028257.204,45.898,29.297,-5.859,54.199,75.195,0
1506028257.208,50.781,40.527,29.297,53.223,22.949,0
1506028257.212,61.523,52.246,42.480,57.129,0.000,0
1506028257.216,48.828,40.039,30.273,48.828,20.508,0
1506028257.220,45.898,32.227,3.906,51.758,49.805,0
1506028257.224,47.363,50.781,-1.465,62.500,72.266,0
1506028257.228,44.922,36.133,27.832,53.223,62.012,0
1506028257.231,42.969,15.625,33.691,50.781,66.406,0
1506028257.235,47.852,23.438,32.715,58.105,73.242,0
1506028257.239,46.387,2.441,23.926,54.688,47.363,0
1506028257.243,41.504,6.348,13.184,45.898,45.410,0
1506028257.247,44.922,27.832,13.672,49.805,45.410,0
1506028257.251,39.551,31.738,12.207,55.176,48.828,0
1506028257.255,44.922,14.648,8.789,58.105,67.383,0
1506028257.259,55.176,19.043,11.230,58.594,55.176,0
1506028257.263,56.641,38.574,9.766,56.641,44.922,0
1506028257.267,65.430,19.531,16.602,65.430,51.270,0
1506028257.270,71.289,26.367,13.672,67.871,52.734,0
1506028257.274,67.383,48.828,6.836,65.918,54.688,0
1506028257.278,66.895,14.160,-9.766,66.406,69.824,0
1506028257.282,78.613,-12.695,-2.930,70.801,80.566,0
1506028257.286,81.543,-32.227,18.066,68.359,77.148,0
1506028257.290,77.637,-8.789,17.090,69.336,66.406,0
1506028257.294,78.613,52.246,28.320,78.125,69.824,0
1506028257.298,73.730,39.551,23.438,77.637,36.621,0
1506028257.302,71.777,48.828,17.090,76.660,36.621,0
1506028257.306,81.543,-26.367,24.414,79.590,60.059,0
1506028257.310,61.523,-43.945,7.324,61.035,61.035,0
1506028257.313,51.758,58.105,5.859,57.129,27.344,0
1506028257.317,72.754,59.082,21.484,77.637,45.410,0
1506028257.321,72.266,44.922,16.602,81.055,97.168,0
1506028257.325,66.406,54.199,32.715,79.102,83.008,0
1506028257.329,71.289,48.340,10.742,78.125,66.406,0
1506028257.333,54.199,22.949,-41.992,58.594,74.219,0
1506028257.337,42.969,20.020,11.230,56.152,98.633,0
1506028257.341,50.781,25.391,41.016,67.871,104.980,0
1506028257.345,59.082,20.508,29.297,70.312,57.617,0
1506028257.349,62.500,-3.418,23.438,74.219,31.738,0
1506028257.353,57.617,-14.160,17.578,72.266,63.477,0
1506028257.356,59.570,-4.883,25.879,66.406,80.078,0
1506028257.360,75.195,-68.848,25.391,74.219,53.711,0
1506028257.364,78.125,-69.824,2.441,74.219,58.594,0
1506028257.368,73.730,70.312,-29.297,73.242,105.957,0
1506028257.372,74.219,96.191,-17.090,80.078,79.102,0
1506028257.376,61.035,41.992,31.250,70.312,33.203,0
1506028257.380,46.387,36.621,25.391,52.246,61.523,0
1506028257.384,32.715,31.738,9.277,36.133,65.430,0
1506028257.388,37.109,13.672,25.879,45.898,59.570,0
1506028257.392,48.828,-59.082,35.156,61.035,34.668,0
1506028257.395,37.598,-33.203,8.789,40.039,40.039,0
1506028257.399,38.086,70.801,6.836,33.691,73.730,0
1506028257.403,43.945,62.012,7.324,48.340,40.527,0
1506028257.407,52.246,20.996,3.906,50.293,30.273,0
1506028257.411,63.477,-6.836,-14.160,55.176,63.477,0
1506028257.415,72.266,9.766,-9.766,69.336,66.406,0
1506028257.419,74.707,26.367,32.227,69.824,49.316,0
1506028257.423,66.406,35.645,27.344,61.523,49.316,0
1506028257.427,58.594,27.832,15.137,61.035,43.457,0
1506028257.431,69.336,8.301,22.461,76.172,46.875,0
1506028257.435,68.848,17.090,20.020,72.754,80.078,0
1506028257.438,57.617,-9.277,14.648,66.406,74.707,0
1506028257.442,66.406,-62.988,16.113,82.520,48.828,0
1506028257.446,70.801,-0.977,11.230,81.055,50.781,0
1506028257.450,61.523,29.785,20.508,74.707,27.344,0
1506028257.454,56.152,10.742,17.578,71.289,44.434,0
1506028257.458,54.199,33.203,9.277,71.777,73.730,0
1506028257.462,44.434,17.578,10.254,71.777,56.641,0
1506028257.466,51.758,29.785,15.625,73.730,56.152,0
1506028257.470,52.734,-20.996,5.371,71.777,78.125,0
1506028257.474,56.152,-86.914,17.090,72.754,67.383,0
1506028257.478,46.875,-11.230,14.160,68.848,27.344,0
1506028257.481,33.203,28.320,-6.348,65.430,29.785,0
1506028257.485,41.992,-4.395,9.766,64.941,67.871,0
1506028257.489,48.828,15.137,12.207,58.105,83.984,0
1506028257.493,43.945,23.926,19.531,59.082,63.477,0
1506028257.497,39.551,4.883,10.742,62.012,21.484,0
1506028257.501,40.527,-8.301,2.441,51.758,52.246,0
1506028257.505,55.664,-3.418,16.602,58.594,70.801,0
1506028257.509,53.711,-15.625,20.996,64.941,43.457,0
1506028257.513,52.246,-12.207,25.391,60.547,41.504,0
1506028257.517,57.617,24.414,3.418,60.059,55.664,0
1506028257.520,65.430,-8.789,-7.812,68.848,63.965,0
1506028257.524,62.988,-30.273,20.508,62.012,33.691,0
1506028257.528,65.430,35.156,45.410,67.383,45.898,0
1506028257.532,64.941,57.617,39.062,61.035,45.410,0
1506028257.536,43.945,12.695,6.348,33.203,18.066,0
1506028257.540,47.363,-19.531,9.766,54.199,-4.883,0
1506028257.544,60.547,-23.438,11.719,64.453,-14.648,0
1506028257.548,64.453,9.277,8.301,61.035,16.602,0
1506028257.552,56.641,-4.395,23.926,65.918,27.344,0
1506028257.556,58.105,-15.625,17.090,71.777,41.504,0
1506028257.560,60.059,51.758,-17.090,65.430,41.504,0
1506028257.563,71.777,17.090,9.766,64.453,19.043,0
1506028257.567,74.707,14.648,30.273,68.359,35.156,0
1506028257.571,62.500,65.918,30.273,66.406,46.387,0
1506028257.575,63.477,48.828,10.742,72.266,34.668,0
1506028257.579,66.895,41.504,-35.156,72.266,17.578,0
1506028257.583,49.805,23.926,6.348,64.453,0.977,0
1506028257.587,41.504,-26.855,36.621,62.500,36.621,0
1506028257.591,52.734,-35.156,14.648,63.477,49.805,0
1506028257.595,53.711,29.297,16.113,65.918,41.016,0
1506028257.599,48.340,38.086,15.625,68.848,25.879,0
1506028257.603,48.340,5.859,24.414,64.941,27.832,0
1506028257.606,56.641,-42.969,-12.207,67.383,65.430,0
1506028257.610,71.777,-30.273,-3.418,85.449,62.012,0
1506028257.614,58.594,12.207,23.438,76.172,59.570,0
1506028257.618,60.547,-5.371,-0.488,68.359,58.105,0
1506028257.622,72.754,-3.418,27.832,86.914,59.570,0
1506028257.626,50.293,34.668,43.945,72.754,55.664,0
1506028257.630,31.738,38.086,33.691,59.082,16.113,0
1506028257.634,36.133,32.227,28.320,61.035,8.301,0
1506028257.638,47.852,-15.137,12.695,50.293,53.711,0
1506028257.642,42.480,-41.016,11.719,52.246,34.668,0
1506028257.645,34.180,1.465,14.648,51.758,3.418,0
1506028257.649,41.016,24.414,19.043,59.082,19.531,0
1506028257.653,33.203,13.672,20.996,59.570,62.012,0
1506028257.657,31.250,7.324,12.695,50.781,59.570,0
1506028257.661,33.203,-4.883,7.324,56.641,30.273,0
1506028257.665,35.645,-14.160,-1.465,58.594,46.875,0
1506028257.669,54.199,-7.812,-24.902,54.688,58.594,0
1506028257.673,57.129,-35.645,5.371,62.500,49.805,0
1506028257.677,49.805,-46.875,35.156,65.430,22.949,0
1506028257.681,41.016,-12.695,-1.465,44.434,4.395,0
1506028257.685,34.180,25.391,-1.465,35.645,30.762,0
1506028257.688,34.668,21.484,-3.418,36.621,38.086,0
1506028257.692,41.016,1.953,10.742,44.922,46.875,0
1506028257.696,34.668,0.977,6.348,36.133,62.988,0
1506028257.700,33.691,-25.391,-67.871,32.227,39.062,0
1506028257.704,74.219,32.227,2.930,76.660,28.320,0
1506028257.708,83.008,33.203,35.156,83.984,41.016,0
1506028257.712,55.176,7.324,-17.090,48.340,28.320,0
1506028257.716,57.129,65.918,9.766,47.852,16.113,0
1506028257.720,61.035,40.039,5.859,61.523,27.832,0
1506028257.724,57.617,0.977,-4.395,57.617,20.508,0
1506028257.728,53.711,7.812,7.324,59.082,12.695,0
1506028257.731,53.223,-9.277,44.922,74.219,-22.461,0
1506028257.735,50.781,-0.977,30.273,70.801,-36.133,0
1506028257.739,40.039,16.113,4.883,54.688,15.137,0
1506028257.743,65.430,29.297,10.254,71.777,23.438,0
1506028257.747,72.754,20.020,2.441,78.613,-11.719,0
1506028257.751,41.504,-37.109,23.926,62.500,-13.672,0
1506028257.755,33.691,-23.438,15.625,61.523,34.668,0
1506028257.759,33.203,61.523,-11.719,58.105,45.410,0
1506028257.763,39.062,46.387,-5.859,57.617,3.906,0
1506028257.767,47.852,25.879,16.113,66.406,-23.926,0
1506028257.770,46.875,27.344,9.766,65.430,30.762,0
1506028257.774,60.547,25.391,7.812,73.242,37.109,0
1506028257.778,71.777,-12.695,22.949,84.961,13.672,0
1506028257.782,81.543,-55.664,-6.836,89.355,40.527,0
1506028257.786,73.242,-24.902,-26.367,82.520,46.387,0
1506028257.790,48.340,43.457,6.348,60.547,31.738,0
1506028257.794,38.574,6.836,17.090,60.547,27.832,0
1506028257.798,50.293,-41.992,16.113,71.777,12.695,0
1506028257.802,58.594,34.180,9.277,63.965,31.738,0
1506028257.806,54.688,59.570,7.324,66.895,23.438,0
1506028257.810,54.199,50.293,13.672,71.777,15.137,0
1506028257.813,65.918,34.668,12.207,60.547,19.531,0
1506028257.817,60.059,28.320,-3.906,64.453,36.621,0
1506028257.821,51.758,12.207,-11.719,66.895,33.691,0
1506028257.825,64.453,10.742,19.531,72.266,-16.602,0
1506028257.829,73.730,0.488,9.277,86.426,7.324,0
1506028257.833,67.383,-12.695,-15.625,76.660,51.758,0
1506028257.837,70.312,41.016,11.230,64.453,21.484,0
1506028257.841,68.848,62.988,12.207,65.430,-0.977,0
1506028257.845,56.152,42.969,4.883,61.523,20.996,0
1506028257.849,57.617,22.461,3.418,73.730,47.363,0
1506028257.853,84.961,-0.977,-16.602,90.332,25.391,0
1506028257.856,77.148,-11.230,-10.742,72.754,14.160,0
1506028257.860,71.777,15.137,26.367,77.637,16.602,0
1506028257.864,71.289,46.875,33.691,83.496,5.371,0
1506028257.868,46.387,53.711,37.598,66.406,27.832,0
1506028257.872,61.035,20.508,33.691,69.824,7.812,0
1506028257.876,69.824,0.488,0.977,75.195,11.719,0
1506028257.880,53.223,-59.570,5.371,59.570,22.949,0
1506028257.884,63.477,-118.164,43.945,64.941,2.441,0
1506028257.888,54.199,24.414,32.715,65.430,21.973,0
1506028257.892,30.273,101.074,11.719,42.480,64.941,0
1506028257.895,34.180,50.293,29.297,58.594,34.668,0
1506028257.899,48.828,49.805,34.668,78.125,-16.113,0
1506028257.903,46.387,51.758,21.484,57.617,7.812,0
1506028257.907,38.086,28.320,18.555,44.434,40.039,0
1506028257.911,37.598,20.996,20.996,52.734,23.438,0
1506028257.915,50.293,13.184,21.973,59.082,-20.996,0
1506028257.919,62.988,0.488,19.043,43.457,7.324,0
1506028257.923,67.871,12.695,19.043,47.852,45.898,0
1506028257.927,63.965,34.180,21.973,68.848,7.812,0
1506028257.931,62.012,37.109,26.367,67.383,21.484,0
1506028257.935,83.008,40.039,27.832,73.242,53.711,0
1506028257.938,80.078,36.621,27.344,76.660,28.809,0
1506028257.942,63.477,23.438,36.133,77.148,11.230,0
1506028257.946,72.754,3.418,36.133,69.824,-7.324,0
1506028257.950,82.031,-17.090,27.832,58.594,7.324,0
1506028257.954,67.871,-20.508,26.855,54.199,44.922,0
1506028257.958,50.293,40.039,30.273,57.129,42.480,0
1506028257.962,49.316,68.359,25.879,53.711,15.625,0
1506028257.966,59.570,50.293,26.855,41.992,36.133,0
1506028257.970,66.895,51.270,34.180,43.457,46.387,0
1506028257.974,46.387,40.039,38.086,37.598,15.625,0
1506028257.978,31.250,38.574,41.992,41.016,14.160,0
1506028257.981,41.504,20.020,48.340,46.387,31.738,0
1506028257.985,33.691,-3.906,50.781,36.133,43.945,0
1506028257.989,30.762,26.855,29.297,29.297,44.922,0
1506028257.993,38.574,33.691,38.086,25.391,37.109,0
1506028257.997,30.273,17.578,62.012,17.578,6.348,0
1506028258.001,27.344,14.160,55.176,13.672,12.695,0
1506028258.005,9.766,9.277,51.270,18.555,42.969,0
1506028258.009,-4.395,-28.320,49.316,16.113,31.738,0
1506028258.013,13.184,-55.176,57.129,30.762,23.438,0
1506028258.017,25.879,7.812,62.012,47.363,23.438,0
1506028258.020,-1.465,39.062,25.879,2.930,0.488,0
1506028258.024,-9.277,19.531,18.555,-16.113,-1.465,0
1506028258.028,24.414,12.695,38.086,20.508,19.531,0
1506028258.032,31.250,56.641,41.992,33.691,12.207,0
1506028258.036,13.184,53.711,32.715,22.461,40.527,0
1506028258.040,11.230,-6.836,49.805,31.250,67.871,0
1506028258.044,29.785,2.441,47.852,48.828,44.922,0
1506028258.048,42.480,31.250,16.602,58.105,18.066,0
1506028258.052,29.785,46.387,28.809,47.363,30.762,0
1506028258.056,33.691,63.477,76.660,55.176,46.387,0
1506028258.060,38.086,51.758,63.965,48.340,43.457,0
1506028258.063,27.832,10.254,41.016,34.668,27.832,0
1506028258.067,36.133,-12.207,47.363,48.828,11.230,0
1506028258.071,48.828,-29.785,35.156,61.035,43.457,0
1506028258.075,51.270,0.000,43.945,85.449,56.152,0
1506028258.079,45.898,49.316,51.270,84.961,44.434,0
1506028258.083,50.781,35.156,43.945,72.754,53.223,0
1506028258.087,62.500,31.738,44.922,78.613,86.426,0
1506028258.091,68.359,41.992,34.668,84.961,74.707,0
1506028258.095,72.754,49.805,34.180,94.727,32.715,0
1506028258.099,75.195,-5.371,43.457,100.098,22.461,0
1506028258.103,56.641,-49.805,31.738,91.797,29.785,0
1506028258.106,60.547,28.320,37.109,93.750,35.645,0
1506028258.110,72.266,58.105,36.133,99.121,13.184,0
1506028258.114,74.219,29.785,26.855,90.820,15.137,0
1506028258.118,83.008,17.090,33.203,89.355,48.340,0
1506028258.122,70.312,18.066,46.387,102.051,42.969,0
1506028258.126,41.992,30.273,54.199,114.258,-11.230,0
1506028258.130,33.203,8.789,33.203,108.887,-3.906,0
1506028258.134,54.199,-38.086,23.438,90.820,48.340,0
1506028258.138,55.176,-39.062,11.719,95.215,35.645,0
1506028258.142,62.012,33.691,41.992,112.305,10.742,0
1506028258.145,54.688,66.895,49.805,99.609,-10.742,0
1506028258.149,55.176,-19.043,24.902,100.098,0.488,0
1506028258.153,81.543,-73.730,42.480,118.164,-0.488,0
1506028258.157,69.336,22.461,25.879,104.492,-22.949,0
1506028258.161,42.480,99.609,29.297,80.078,-5.859,0
1506028258.165,25.879,70.801,32.715,62.988,7.324,0
1506028258.169,32.227,44.434,20.508,55.664,30.273,0
1506028258.173,38.086,33.203,20.508,58.594,17.090,0
1506028258.177,31.250,15.625,7.812,64.941,2.441,0
1506028258.181,30.273,9.766,13.184,62.988,14.160,0
1506028258.185,26.855,-6.348,20.996,56.641,10.254,0
1506028258.188,30.762,2.441,10.254,53.711,6.836,0
1506028258.192,45.898,8.789,17.578,62.500,19.043,0
1506028258.196,68.848,-7.324,40.039,75.195,22.949,0
1506028258.200,70.312,39.551,15.137,64.941,-4.883,0
1506028258.204,58.594,56.641,9.277,51.758,-12.695,0
1506028258.208,51.270,44.434,37.598,57.617,20.996,0
1506028258.212,50.781,25.391,20.996,56.152,10.254,0
1506028258.216,70.312,0.488,29.785,58.594,7.324,0
1506028258.220,87.402,7.812,41.016,64.941,52.734,0
1506028258.224,72.754,20.020,19.531,57.617,52.246,0
1506028258.228,69.824,30.273,35.156,59.570,20.996,0
1506028258.231,74.219,26.367,33.691,62.012,13.672,0
1506028258.235,60.547,41.992,3.906,59.082,11.230,0
1506028258.239,58.594,33.691,25.391,51.758,42.480,0
1506028258.243,62.012,38.086,46.387,59.570,33.203,0
1506028258.247,60.059,24.414,36.621,67.383,-10.742,0
1506028258.251,66.895,28.809,23.926,63.965,27.344,0
1506028258.255,82.031,31.738,22.949,81.543,60.547,0
1506028258.259,74.707,-13.672,31.250,83.496,20.020,0
1506028258.263,57.617,49.316,33.691,57.617,1.953,0
1506028258.267,76.172,86.426,48.828,77.148,25.879,0
1506028258.270,70.801,70.801,35.156,74.219,49.805,0
1506028258.274,57.129,20.996,23.438,55.176,32.227,0
1506028258.278,41.504,-0.488,33.691,63.965,10.254,0
1506028258.282,17.578,34.668,16.602,55.176,20.020,0
1506028258.286,23.438,41.992,13.184,47.852,22.949,0
1506028258.290,32.715,23.926,36.621,58.594,-10.742,0
1506028258.294,35.156,-6.348,15.137,67.871,-41.504,0
1506028258.298,43.457,-3.906,11.719,61.035,-1.465,0
1506028258.302,38.574,28.320,33.203,54.688,25.879,0
1506028258.306,31.738,46.875,22.949,52.734,4.883,0
1506028258.310,33.691,39.062,32.227,44.922,-19.043,0
1506028258.313,45.410,47.363,43.457,43.457,-21.484,0
1506028258.317,47.363,60.547,36.133,48.340,2.441,0
1506028258.321,53.223,30.762,15.137,44.922,20.020,0
1506028258.325,61.035,42.480,21.973,41.992,9.277,0
1506028258.329,52.246,45.410,27.344,46.387,-0.977,0
1506028258.333,49.805,33.203,27.344,51.758,-13.672,0
1506028258.337,53.711,46.875,20.996,46.387,-17.578,0
1506028258.341,63.477,1.953,14.160,44.434,-5.859,0
1506028258.345,68.848,-7.812,26.367,56.641,-11.719,0
1506028258.349,66.406,38.574,27.832,56.641,-26.855,0
1506028258.353,78.125,32.227,26.367,52.734,-15.137,0
1506028258.356,82.031,40.527,28.320,56.641,18.066,0
1506028258.360,77.637,23.926,31.250,63.965,6.836,0
1506028258.364,65.430,5.371,30.273,61.035,-10.742,0
1506028258.368,59.570,21.484,25.391,49.316,-2.441,0
1506028258.372,55.664,-6.348,-1.465,45.410,9.766,0
1506028258.376,48.828,-35.645,7.324,45.898,14.160,0
1506028258.380,68.848,4.395,49.805,51.270,-29.785,0
1506028258.384,66.406,2.930,28.320,42.969,-16.113,0
1506028258.388,45.410,-24.414,35.645,50.781,17.578,0
1506028258.392,53.223,6.348,62.500,71.777,-3.906,0
1506028258.395,55.664,39.551,27.344,46.387,-19.043,0
1506028258.399,41.504,43.945,5.859,20.020,-11.719,0
1506028258.403,38.086,58.105,15.625,26.367,-4.883,0
1506028258.407,41.992,38.086,34.668,43.457,-11.719,0
1506028258.411,39.551,7.812,42.969,43.945,-34.180,0
1506028258.415,32.715,20.020,-7.812,33.203,-5.859,0
1506028258.419,39.551,-0.488,6.348,41.504,20.508,0
1506028258.423,29.297,0.000,37.109,39.551,-7.812,0
1506028258.427,38.574,-10.254,9.766,43.945,-18.066,0
1506028258.431,49.805,14.160,52.734,49.316,-24.414,0
1506028258.435,45.410,51.270,47.363,41.992,-4.883,0
1506028258.438,47.363,22.949,-9.766,39.062,12.695,0
1506028258.442,45.898,16.602,13.184,39.551,-20.508,0
1506028258.446,51.270,11.719,36.133,48.828,-41.016,0
1506028258.450,57.129,-2.441,44.922,57.129,-0.488,0
1506028258.454,65.430,25.879,50.293,60.547,24.902,0
1506028258.458,53.223,56.641,14.648,48.828,27.344,0
1506028258.462,46.387,35.156,11.230,39.062,27.344,0
1506028258.466,54.199,26.367,40.527,47.852,9.277,0
1506028258.470,60.059,8.789,35.645,57.129,-2.441,0
1506028258.474,70.312,22.949,20.508,60.059,-17.578,0
1506028258.478,59.082,21.484,12.207,46.387,3.906,0
1506028258.481,60.547,41.016,47.363,47.852,22.461,0
1506028258.485,75.684,68.848,57.129,65.430,-14.648,0
1506028258.489,62.500,34.668,34.180,54.688,-23.926,0
1506028258.493,60.059,28.809,42.480,49.316,10.254,0
1506028258.497,61.523,20.996,26.855,56.641,4.883,0
1506028258.501,58.105,3.906,23.438,59.082,32.715,0
1506028258.505,61.035,53.223,52.246,53.223,55.176,0
1506028258.509,74.707,-37.109,66.406,75.684,37.109,0
1506028258.513,68.848,-88.379,57.129,94.238,1.465,0
1506028258.517,39.551,85.938,39.551,62.988,-8.789,0
1506028258.520,40.039,116.211,34.180,45.410,23.926,0
1506028258.524,49.316,62.500,34.180,59.082,43.945,0
1506028258.528,50.293,47.852,35.156,68.359,17.090,0
1506028258.532,49.805,41.504,33.203,69.824,-6.348,0
1506028258.536,57.617,29.785,25.391,68.848,44.922,0
1506028258.540,60.547,8.301,18.555,65.918,56.152,0
1506028258.544,51.758,1.465,25.391,70.312,25.391,0
1506028258.548,62.012,8.789,24.902,71.289,36.133,0
1506028258.552,63.477,-6.348,31.738,71.289,51.758,0
1506028258.556,53.223,7.324,31.250,72.266,65.430,0
1506028258.560,63.965,-18.555,33.691,71.777,61.035,0
1506028258.563,76.172,-7.812,24.902,78.125,26.855,0
1506028258.567,68.359,47.363,21.973,79.102,17.578,0
1506028258.571,66.895,41.504,43.945,73.730,42.480,0
1506028258.575,75.195,20.020,29.785,80.566,25.391,0
1506028258.579,54.688,-50.781,-7.812,63.477,-9.766,0
1506028258.583,74.707,36.621,40.039,83.984,51.270,0
1506028258.587,85.449,121.582,79.590,101.562,79.102,0
1506028258.591,66.406,73.730,44.434,76.172,40.039,0
1506028258.595,73.730,85.449,36.133,71.777,29.785,0
1506028258.599,74.707,40.527,32.715,71.289,25.879,0
1506028258.603,94.727,34.180,40.527,85.938,44.922,0
1506028258.606,94.238,48.828,42.969,91.309,50.293,0
1506028258.610,63.477,22.461,21.973,77.637,20.996,0
1506028258.614,56.641,18.555,13.184,68.848,43.457,0
1506028258.618,57.617,20.508,1.953,68.848,34.180,0
1506028258.622,69.824,41.992,-3.418,71.289,3.906,0
1506028258.626,62.988,48.828,8.789,62.012,20.020,0
1506028258.630,50.293,36.621,24.902,67.383,36.621,0
1506028258.634,67.871,28.320,28.809,76.660,42.969,0
1506028258.638,65.918,15.137,20.020,64.453,50.293,0
1506028258.642,66.406,25.879,29.785,71.777,67.383,0
1506028258.645,58.594,25.879,36.133,76.172,40.039,0
1506028258.649,60.059,18.066,32.227,73.242,13.672,0
1506028258.653,70.801,-13.184,32.715,78.125,16.113,0
1506028258.657,63.477,-18.555,39.551,82.031,37.598,0
1506028258.661,60.547,23.926,30.273,81.055,43.945,0
1506028258.665,44.434,39.551,28.320,78.613,14.160,0
1506028258.669,41.016,37.109,25.391,74.707,38.086,0
1506028258.673,59.570,34.668,25.391,77.148,73.242,0
1506028258.677,63.965,20.996,48.340,87.402,46.387,0
1506028258.681,58.105,-15.625,23.926,83.008,28.320,0
1506028258.685,51.758,-23.438,9.766,76.660,49.805,0
1506028258.688,52.246,6.836,34.668,77.148,51.758,0
1506028258.692,61.035,-20.508,52.246,84.473,35.156,0
1506028258.696,62.988,-24.902,62.012,87.402,24.414,0
1506028258.700,55.664,7.812,42.969,74.219,37.598,0
1506028258.704,66.406,26.855,47.363,83.496,42.480,0
1506028258.708,70.801,66.406,66.406,96.680,3.906,0
1506028258.712,56.641,58.594,43.457,80.078,-20.996,0
1506028258.716,56.641,42.969,43.457,79.590,-8.789,0
1506028258.720,71.289,56.641,47.852,93.262,20.020,0
1506028258.724,63.477,43.457,33.203,87.891,27.344,0
1506028258.728,46.875,-17.090,38.574,79.590,-25.879,0
1506028258.731,55.664,-0.977,28.320,73.242,-2.930,0
1506028258.735,55.176,27.832,11.719,64.941,55.664,0
1506028258.739,51.758,-32.715,19.531,69.824,39.062,0
1506028258.743,62.988,9.277,29.297,78.613,2.441,0
1506028258.747,50.781,75.195,45.410,69.824,2.441,0
1506028258.751,43.945,46.875,50.293,61.035,-0.488,0
1506028258.755,50.293,34.180,28.809,50.781,-17.578,0
1506028258.759,40.527,34.180,25.879,47.852,-0.488,0
1506028258.763,33.691,18.555,29.297,45.410,13.672,0
1506028258.767,43.457,-25.391,25.391,44.434,-11.230,0
1506028258.770,51.758,-15.137,30.762,59.570,-26.367,0
1506028258.774,47.852,13.672,49.805,56.152,-9.766,0
1506028258.778,57.617,25.391,37.598,64.453,-0.488,0
1506028258.782,54.688,50.781,5.859,69.824,12.695,0
1506028258.786,47.852,39.551,33.691,65.430,23.926,0
1506028258.790,55.176,39.551,56.641,62.988,8.789,0
1506028258.794,46.875,36.133,58.105,58.594,-6.348,0
1506028258.798,56.641,10.254,67.383,67.871,-13.672,0
1506028258.802,51.758,30.273,63.965,67.383,8.789,0
1506028258.806,40.039,-20.996,54.688,62.500,34.180,0
1506028258.810,63.477,-70.312,62.988,74.219,22.949,0
1506028258.813,53.223,2.441,50.293,71.289,-3.906,0
1506028258.817,49.316,31.250,54.688,71.777,-0.488,0
1506028258.821,63.965,38.574,72.266,80.078,21.484,0
1506028258.825,55.664,14.648,55.664,73.242,22.461,0
1506028258.829,42.480,0.000,43.457,65.430,19.531,0
1506028258.833,42.480,33.691,52.246,67.383,22.461,0
1506028258.837,50.781,41.992,61.523,70.801,25.391,0
1506028258.841,46.387,31.250,55.176,67.383,19.531,0
1506028258.845,44.434,5.371,54.199,67.383,12.207,0
1506028258.849,50.781,11.719,61.523,73.242,15.137,0
1506028258.853,36.621,-8.789,40.527,61.035,38.574,0
1506028258.856,53.223,-20.508,39.551,80.078,34.668,0
1506028258.860,63.965,22.949,48.828,90.820,-6.348,0
1506028258.864,24.414,28.809,43.457,52.246,-21.484,0
1506028258.868,24.902,40.527,40.527,51.758,15.625,0
1506028258.872,35.156,60.059,53.223,65.918,40.039,0
1506028258.876,36.133,-36.133,41.992,66.895,40.527,0
1506028258.880,45.410,-25.391,20.508,69.336,24.414,0
1506028258.884,41.016,77.637,25.391,73.730,19.043,0
1506028258.888,32.715,37.598,35.645,66.406,27.832,0
1506028258.892,23.926,26.367,56.152,54.199,-6.836,0
1506028258.895,14.160,47.363,56.152,55.176,-1.465,0
1506028258.899,29.785,38.574,56.641,61.035,23.438,0
1506028258.903,43.457,29.297,56.152,59.082,-12.695,0
1506028258.907,36.133,29.297,48.828,56.641,-40.039,0
1506028258.911,36.133,18.555,39.551,56.152,0.488,0
1506028258.915,37.109,16.602,40.527,62.988,22.949,0
1506028258.919,49.316,16.113,58.594,83.008,19.531,0
1506028258.923,46.387,7.324,48.340,72.754,18.066,0
1506028258.927,34.180,-21.484,27.344,52.734,17.578,0
1506028258.931,39.551,1.465,38.086,67.871,-5.371,0
1506028258.935,43.457,31.738,42.969,75.195,-0.977,0
1506028258.938,48.340,11.230,45.410,67.871,32.715,0
1506028258.942,56.641,52.734,41.992,66.895,1.465,0
1506028258.946,41.504,60.059,41.504,63.965,-2.930,0
1506028258.950,30.762,31.738,41.992,51.758,-4.883,0
1506028258.954,51.270,27.832,38.574,57.129,5.859,0
1506028258.958,61.035,44.434,38.574,70.801,11.719,0
1506028258.962,54.688,23.438,31.738,68.848,3.418,0
1506028258.966,49.316,1.953,29.297,65.918,9.277,0
1506028258.970,46.387,9.766,39.551,63.965,17.090,0
1506028258.974,53.223,22.949,45.410,58.105,25.879,0
1506028258.978,52.734,50.293,44.434,62.012,-11.230,0
1506028258.981,28.809,54.199,44.434,52.734,-33.691,0
1506028258.985,20.996,46.875,38.086,44.434,22.461,0
1506028258.989,42.480,27.832,27.832,54.199,25.879,0
1506028258.993,48.828,-0.977,27.344,54.688,5.371,0
1506028258.997,48.340,6.836,38.086,60.059,29.297,0
1506028259.001,38.574,21.484,29.785,63.965,45.410,0
1506028259.005,37.109,4.395,45.410,71.289,54.199,0
1506028259.009,49.805,59.082,53.223,77.148,42.480,0
1506028259.013,62.988,78.125,41.016,79.102,16.113,0
1506028259.017,65.430,46.875,49.316,79.102,45.898,0
1506028259.020,70.312,53.223,52.734,87.402,43.457,0
1506028259.024,60.059,32.227,30.762,78.125,22.949,0
1506028259.028,35.156,27.832,52.246,58.594,41.992,0
1506028259.032,38.574,34.668,71.777,67.383,28.320,0
1506028259.036,32.715,17.578,48.340,62.988,39.551,0
1506028259.040,34.180,28.320,52.246,60.547,14.160,0
1506028259.044,24.414,18.555,35.645,53.223,1.953,0
1506028259.048,28.809,0.977,16.113,51.758,35.645,0
1506028259.052,45.898,-11.719,47.852,70.801,33.691,0
1506028259.056,41.016,-47.852,52.246,67.383,28.809,0
1506028259.060,47.363,-15.625,52.246,67.871,28.320,0
1506028259.063,43.457,50.293,43.945,65.430,12.695,0
1506028259.067,36.621,44.434,34.180,65.430,-9.277,0
1506028259.071,46.387,10.254,52.246,71.777,-10.742,0
1506028259.075,48.340,19.531,43.457,70.801,1.953,0
1506028259.079,40.527,69.336,44.922,65.918,9.277,0
1506028259.083,43.945,58.594,51.758,63.477,9.277,0
1506028259.087,31.738,22.949,42.969,58.105,16.113,0
1506028259.091,23.926,29.785,39.551,49.805,32.715,0
1506028259.095,40.527,27.832,34.668,55.176,31.250,0
1506028259.099,41.504,22.949,39.062,59.570,15.625,0
1506028259.103,35.645,44.434,46.387,62.988,31.250,0
1506028259.106,45.410,18.555,44.922,75.195,69.824,0
1506028259.110,54.199,-30.273,62.012,77.637,40.527,0
1506028259.114,48.828,-11.719,53.711,72.754,24.902,0
1506028259.118,39.551,21.484,35.645,71.777,17.090,0
1506028259.122,43.457,31.738,33.691,71.289,2.441,0
1506028259.126,57.617,67.871,40.527,75.195,17.090,0
1506028259.130,59.570,57.129,47.363,76.172,-21.973,0
1506028259.134,54.199,1.465,42.969,68.359,-4.395,0
1506028259.138,56.152,-6.348,53.223,63.965,43.945,0
1506028259.142,53.711,15.625,16.602,67.871,27.344,0
1506028259.145,53.711,40.039,8.301,77.148,-21.484,0
1506028259.149,79.590,37.598,60.059,91.797,15.137,0
1506028259.153,88.379,27.832,65.430,91.309,74.707,0
1506028259.157,69.824,23.438,50.293,77.637,61.523,0
1506028259.161,58.594,19.043,22.461,67.383,34.668,0
1506028259.165,60.059,-7.812,27.832,66.406,36.621,0
1506028259.169,61.035,-8.301,46.387,74.219,80.566,0
1506028259.173,56.641,45.898,44.434,77.148,67.383,0
1506028259.177,62.500,48.340,41.504,77.637,15.625,0
1506028259.181,60.547,24.902,37.109,73.730,20.020,0
1506028259.185,58.105,5.859,40.527,71.289,42.969,0
1506028259.188,55.664,-0.977,49.316,69.824,35.156,0
1506028259.192,43.945,23.438,45.410,71.777,14.648,0
1506028259.196,60.547,28.809,44.434,77.148,32.227,0
1506028259.200,62.988,3.418,46.875,68.359,54.688,0
1506028259.204,53.223,0.977,41.016,60.059,54.199,0
1506028259.208,60.547,-7.324,42.969,68.848,40.039,0
1506028259.212,67.871,-41.016,50.293,77.637,22.949,0
1506028259.216,64.453,-3.418,41.992,75.684,14.160,0
1506028259.220,46.875,69.824,30.762,64.453,30.762,0
1506028259.224,42.480,53.711,33.691,56.152,31.250,0
1506028259.228,47.363,21.973,42.969,57.617,28.320,0
1506028259.231,62.500,46.387,55.664,69.336,57.129,0
1506028259.235,45.898,27.832,44.434,54.688,3.418,0
1506028259.239,23.438,2.441,33.691,39.062,-6.836,0
1506028259.243,27.832,37.109,41.504,48.340,48.828,0
1506028259.247,34.180,23.926,53.711,57.617,0.000,0
1506028259.251,37.598,-17.090,50.781,59.570,-8.301,0
1506028259.255,34.180,21.973,22.461,48.340,32.227,0
1506028259.259,29.785,35.156,16.602,35.645,14.648,0
1506028259.263,32.227,-9.766,20.508,37.109,-10.254,0
1506028259.267,34.668,24.414,16.602,48.828,6.348,0
1506028259.270,32.715,69.336,31.738,56.641,24.414,0
1506028259.274,43.457,34.668,51.758,48.828,30.273,0
1506028259.278,48.828,11.230,52.246,55.664,6.348,0
1506028259.282,38.574,5.859,49.316,65.430,-4.883,0
1506028259.286,31.738,9.766,36.621,53.711,39.062,0
1506028259.290,43.945,-38.086,50.293,56.641,32.227,0
1506028259.294,67.383,-64.941,57.129,79.590,-4.883,0
1506028259.298,50.293,33.691,20.508,69.336,-19.531,0
1506028259.302,40.527,76.172,37.109,53.223,3.906,0
1506028259.306,44.922,51.758,58.105,60.547,27.344,0
1506028259.310,44.922,41.992,51.270,63.965,16.602,0
1506028259.313,43.945,25.391,50.293,63.477,-10.254,0
1506028259.317,42.480,25.879,50.293,62.012,4.395,0
1506028259.321,44.434,6.348,55.176,66.406,36.621,0
1506028259.325,47.363,2.441,64.941,78.125,-13.672,0
1506028259.329,50.781,11.719,63.477,79.102,-28.809,0
1506028259.333,47.363,2.930,53.711,70.801,2.930,0
1506028259.337,54.688,22.461,44.434,80.078,14.160,0
1506028259.341,65.918,13.184,58.594,83.496,17.090,0
1506028259.345,62.012,10.742,73.242,80.078,18.066,0
1506028259.349,50.781,29.785,69.824,82.031,16.602,0
1506028259.353,53.223,24.902,61.523,77.637,15.137,0
1506028259.356,63.477,44.922,46.387,82.031,9.766,0
1506028259.360,56.152,38.086,47.852,76.660,16.113,0
1506028259.364,48.340,28.320,54.688,66.406,8.789,0
1506028259.368,47.852,1.465,47.363,67.383,35.645,0
1506028259.372,48.828,-5.371,48.828,70.312,10.254,0
1506028259.376,45.898,27.344,45.898,61.523,9.766,0
1506028259.380,46.387,31.250,46.387,59.082,25.391,0
1506028259.384,41.992,28.320,37.598,60.059,0.000,0
1506028259.388,47.363,29.785,32.227,55.664,45.898,0
1506028259.392,54.688,25.391,36.133,57.617,50.293,0
1506028259.395,44.434,30.762,41.992,66.895,5.371,0
1506028259.399,38.086,34.180,44.434,65.918,4.395,0
1506028259.403,41.504,29.785,36.621,54.688,16.602,0
1506028259.407,39.551,31.250,40.039,50.781,35.645,0
1506028259.411,42.480,33.691,46.875,52.246,38.574,0
1506028259.415,36.621,40.527,48.340,50.781,-21.484,0
1506028259.419,27.832,28.320,43.457,38.574,-39.062,0
1506028259.423,30.273,2.930,43.945,30.762,24.414,0
1506028259.427,23.926,22.461,56.641,34.180,14.648,0
1506028259.431,13.184,29.297,63.477,31.738,0.488,0
1506028259.435,13.184,4.395,63.477,24.902,35.645,0
1506028259.438,16.113,2.441,66.406,15.137,57.129,0
1506028259.442,6.348,0.977,82.031,14.160,41.992,0
1506028259.446,-2.441,-48.340,77.637,7.324,21.973,0
1506028259.450,1.953,-52.246,62.500,7.324,34.668,0
1506028259.454,-2.441,1.953,66.895,10.742,48.340,0
1506028259.458,-15.137,36.621,77.637,4.395,19.043,0
1506028259.462,-16.602,26.367,92.285,6.348,-31.250,0
1506028259.466,-9.766,-3.906,83.008,15.625,19.043,0
1506028259.470,-23.926,36.621,86.914,1.465,62.988,0
1506028259.474,-34.668,74.219,71.289,-20.508,38.086,0
1506028259.478,-39.062,11.719,78.125,-8.789,29.297,0
1506028259.481,-23.926,-19.043,112.305,8.789,44.922,0
1506028259.485,-4.883,46.387,107.910,12.207,48.828,0
1506028259.489,-8.789,46.387,87.402,12.695,33.203,0
1506028259.493,-2.441,-42.480,45.898,23.926,41.504,0
1506028259.497,3.906,-29.297,73.730,33.203,60.059,0
1506028259.501,12.207,77.637,110.840,31.738,68.359,0
1506028259.505,8.789,83.496,88.379,32.715,40.039,0
1506028259.509,-0.488,45.898,34.668,27.832,33.691,0
1506028259.513,16.602,2.441,52.734,29.297,52.734,0
1506028259.517,38.086,-35.645,82.031,43.457,29.785,0
1506028259.520,37.109,-32.715,74.707,39.551,33.691,0
1506028259.524,30.273,34.180,76.172,29.297,58.594,0
1506028259.528,22.949,64.941,76.172,36.621,56.641,0
1506028259.532,41.016,5.859,80.078,52.246,45.410,0
1506028259.536,49.316,-59.082,54.199,65.430,38.086,0
1506028259.540,24.414,13.672,39.551,59.082,23.926,0
1506028259.544,27.344,91.309,55.664,54.688,31.738,0
1506028259.548,47.852,56.152,79.102,64.941,25.391,0
1506028259.552,46.875,-5.859,63.965,63.965,20.508,0
1506028259.556,54.199,51.758,26.367,63.965,51.270,0
1506028259.560,54.688,50.293,25.391,63.477,42.969,0
1506028259.563,61.035,12.695,54.688,74.219,-3.418,0
1506028259.567,61.035,27.344,26.855,74.219,17.090,0
1506028259.571,45.410,22.949,19.043,61.523,62.012,0
1506028259.575,50.293,14.160,57.129,69.824,50.781,0
1506028259.579,46.387,2.930,52.734,70.801,23.926,0
1506028259.583,52.734,2.441,51.758,75.195,6.836,0
1506028259.587,61.523,-96.680,54.688,85.938,27.832,0
1506028259.591,83.496,-58.594,72.266,103.027,11.719,0
1506028259.595,78.125,80.078,59.570,105.469,-1.953,0
1506028259.599,39.062,55.664,13.184,77.148,27.832,0
1506028259.603,41.504,54.199,-9.766,75.195,31.250,0
1506028259.606,59.570,58.594,16.113,81.543,16.113,0
1506028259.610,67.383,33.203,32.227,75.684,11.719,0
1506028259.614,63.477,27.344,20.020,67.871,9.277,0
1506028259.618,59.570,-1.953,19.531,74.707,25.391,0
1506028259.622,63.477,-6.836,27.832,79.590,30.762,0
1506028259.626,63.477,6.836,31.738,79.590,-20.020,0
1506028259.630,62.500,-28.320,32.227,83.008,-10.254,0
1506028259.634,80.566,1.465,27.344,92.285,28.809,0
1506028259.638,84.473,20.996,41.016,94.238,13.184,0
1506028259.642,68.359,-4.883,64.941,90.820,-2.930,0
1506028259.645,72.266,-5.371,39.551,97.168,-9.277,0
1506028259.649,73.242,47.852,29.297,96.680,11.230,0
1506028259.653,60.547,68.848,8.789,77.637,22.461,0
1506028259.657,69.336,62.012,19.531,75.195,-1.465,0
1506028259.661,69.824,30.273,76.660,88.867,11.230,0
1506028259.665,52.246,-30.273,68.848,83.008,14.648,0
1506028259.669,44.922,13.184,82.031,78.613,9.766,0
1506028259.673,60.547,65.430,73.242,84.961,18.555,0
1506028259.677,79.590,35.156,48.828,80.566,36.133,0
1506028259.681,83.008,20.996,45.410,76.660,21.484,0
1506028259.685,67.383,14.648,62.500,87.891,-15.137,0
1506028259.688,58.105,0.977,62.012,87.402,20.508,0
1506028259.692,72.754,31.738,50.781,93.750,25.879,0
1506028259.696,81.543,45.410,54.199,107.422,8.301,0
1506028259.700,62.500,29.297,47.363,86.426,-12.207,0
1506028259.704,49.316,-13.672,38.086,65.918,14.648,0
1506028259.708,49.805,-64.941,32.715,71.289,50.293,0
1506028259.712,70.312,26.855,81.543,107.422,6.836,0
1506028259.716,89.844,2.930,116.211,122.559,11.230,0
1506028259.720,103.516,-16.113,-5.859,120.605,29.297,0
1506028259.724,82.520,102.051,-57.129,86.426,21.973,0
1506028259.728,52.734,125.488,67.383,47.852,-10.742,0
1506028259.731,42.969,57.129,89.355,59.570,-16.113,0
1506028259.735,43.457,11.230,64.941,75.195,44.434,0
1506028259.739,56.152,32.715,53.711,76.172,49.805,0
1506028259.743,62.988,24.902,43.945,79.590,1.953,0
1506028259.747,68.848,7.324,47.363,93.262,-1.953,0
1506028259.751,80.078,5.371,39.062,90.820,52.246,0
1506028259.755,85.938,26.367,43.945,94.238,74.219,0
1506028259.759,84.473,-1.953,60.059,99.609,42.969,0
1506028259.763,75.195,-85.449,49.316,91.797,45.410,0
1506028259.767,84.473,2.930,23.926,91.309,39.062,0
1506028259.770,70.801,125.488,22.949,83.984,31.250,0
1506028259.774,55.176,91.797,41.016,79.102,30.762,0
1506028259.778,76.172,77.148,24.414,90.332,14.160,0
1506028259.782,69.824,48.340,11.719,94.727,4.395,0
1506028259.786,59.570,28.809,41.992,99.121,20.020,0
1506028259.790,46.387,41.016,22.949,80.078,-6.348,0
1506028259.794,63.477,23.926,39.062,86.426,-22.949,0
1506028259.798,75.195,67.383,48.828,104.492,47.852,0
1506028259.802,44.922,58.594,47.852,77.148,47.363,0
1506028259.806,57.617,13.672,58.594,65.918,21.973,0
1506028259.810,62.012,-11.230,39.551,74.219,37.598,0
1506028259.813,67.871,3.906,38.574,90.820,50.781,0
1506028259.817,61.523,41.504,52.734,87.891,41.504,0
1506028259.821,54.688,-30.762,93.262,89.844,55.664,0
1506028259.825,68.359,-22.949,55.664,104.492,49.316,0
1506028259.829,59.082,80.078,18.066,96.191,-2.930,0
1506028259.833,66.895,78.613,51.270,97.656,1.465,0
1506028259.837,110.352,59.570,78.125,126.465,11.230,0
1506028259.841,111.328,72.754,73.730,134.277,30.273,0
1506028259.845,79.102,96.680,49.805,108.887,19.531,0
1506028259.849,86.914,39.062,59.082,108.887,-1.953,0
1506028259.853,99.609,-46.875,64.453,119.141,41.992,0
1506028259.856,87.402,-20.508,13.672,106.445,62.012,0
1506028259.860,65.430,66.406,1.465,98.633,26.855,0
1506028259.864,46.387,86.426,44.922,95.215,36.133,0
1506028259.868,46.875,53.223,63.477,92.285,36.133,0
1506028259.872,59.082,23.438,71.289,90.332,37.598,0
1506028259.876,70.801,21.484,77.637,94.727,47.363,0
1506028259.880,71.289,16.602,90.820,112.793,-3.906,0
1506028259.884,49.316,-30.762,55.176,87.891,-10.742,0
1506028259.888,46.387,5.859,41.504,65.918,3.906,0
1506028259.892,33.203,68.848,39.062,66.406,20.020,0
1506028259.895,33.691,65.918,38.574,62.988,25.391,0
1506028259.899,59.570,39.551,31.250,76.172,30.273,0
1506028259.903,64.941,-29.785,58.105,88.379,57.617,0
1506028259.907,60.059,-42.480,89.355,96.191,36.133,0
1506028259.911,61.523,3.906,31.250,91.797,13.672,0
1506028259.915,43.457,78.613,19.531,78.613,14.160,0
1506028259.919,31.250,90.820,35.645,66.406,18.555,0
1506028259.923,56.152,25.391,57.617,84.961,14.648,0
1506028259.927,68.359,52.734,64.941,101.562,-44.922,0
1506028259.931,50.781,9.766,38.086,70.312,-34.668,0
1506028259.935,43.457,-37.109,27.344,50.293,34.668,0
1506028259.938,42.480,54.688,6.348,56.152,24.414,0
1506028259.942,31.738,52.734,23.438,59.570,29.297,0
1506028259.946,40.039,21.973,81.055,66.895,29.297,0
1506028259.950,49.805,40.527,82.031,72.754,23.438,0
1506028259.954,38.574,15.137,38.086,65.430,29.785,0
1506028259.958,38.574,21.484,3.906,71.289,31.738,0
1506028259.962,36.621,56.641,14.160,57.129,47.363,0
1506028259.966,58.105,39.062,75.195,70.801,8.301,0
1506028259.970,70.312,39.062,91.309,89.844,5.859,0
1506028259.974,35.156,24.902,60.547,60.547,48.828,0
1506028259.978,39.551,-12.695,55.176,62.988,38.086,0
1506028259.981,64.941,51.270,56.152,73.242,27.344,0
1506028259.985,74.219,55.176,69.824,88.379,-6.836,0
1506028259.989,62.012,-37.598,42.480,87.402,-20.020,0
1506028259.993,56.641,35.645,29.297,66.895,8.789,0
1506028259.997,69.336,111.816,59.082,78.613,-20.996,0
1506028260.001,53.223,60.547,43.457,68.359,-1.953,0
1506028260.005,81.543,39.062,58.594,83.008,41.992,0
1506028260.009,102.539,62.988,33.691,92.285,30.762,0
1506028260.013,67.383,26.855,24.902,79.590,15.625,0
1506028260.017,43.457,49.316,65.430,84.473,13.184,0
1506028260.020,40.039,91.797,28.809,78.613,20.996,0
1506028260.024,41.992,55.176,22.461,76.172,38.574,0
1506028260.028,45.410,20.996,59.082,78.125,-4.395,0
1506028260.032,57.617,23.926,42.969,72.266,-39.551,0
1506028260.036,47.852,26.367,34.180,60.059,21.973,0
1506028260.040,46.875,36.133,58.105,78.125,56.152,0
1506028260.044,59.570,11.230,70.801,95.703,30.273,0
1506028260.048,21.973,-71.289,20.020,53.711,-4.395,0
1506028260.052,24.902,15.137,23.438,46.875,37.109,0
1506028260.056,64.453,74.707,67.871,86.914,52.734,0
1506028260.060,52.246,53.711,47.852,73.730,19.043,0
1506028260.063,52.246,49.805,45.898,71.777,5.859,0
1506028260.067,62.988,37.598,54.199,85.449,-2.441,0
1506028260.071,54.688,-16.602,44.922,69.824,5.371,0
1506028260.075,48.828,-3.418,34.180,57.129,9.277,0
1506028260.079,36.621,63.965,19.531,53.711,12.207,0
1506028260.083,41.016,58.594,50.781,57.617,22.461,0
1506028260.087,39.551,40.039,67.871,64.453,51.270,0
1506028260.091,28.320,48.828,59.082,66.895,10.742,0
1506028260.095,29.785,66.406,50.293,62.500,6.348,0
1506028260.099,34.180,42.480,43.457,60.059,66.895,0
1506028260.103,48.340,35.645,48.828,70.312,45.898,0
1506028260.106,59.570,44.434,84.473,88.379,23.926,0
1506028260.110,58.594,45.898,51.270,91.797,33.691,0
1506028260.114,45.410,34.180,15.625,70.312,46.875,0
1506028260.118,45.410,15.137,70.312,67.383,76.660,0
1506028260.122,51.270,35.156,77.637,81.055,57.617,0
1506028260.126,50.293,47.363,75.684,83.984,31.250,0
1506028260.130,60.547,25.879,65.918,83.008,23.438,0
1506028260.134,60.059,34.180,50.293,83.984,-10.254,0
1506028260.138,61.523,81.055,69.824,98.145,7.324,0
1506028260.142,57.129,66.406,73.242,86.426,51.270,0
1506028260.145,48.828,21.484,62.012,69.824,19.043,0
1506028260.149,56.641,-26.367,70.801,79.102,4.395,0
1506028260.153,73.242,-37.598,65.430,100.586,53.711,0
1506028260.157,78.125,68.359,35.156,104.492,46.387,0
1506028260.161,52.734,80.566,69.336,83.984,13.672,0
1506028260.165,46.387,58.594,110.352,77.148,20.020,0
1506028260.169,68.359,62.500,98.633,90.332,30.273,0
1506028260.173,66.406,45.410,79.590,89.844,53.711,0
1506028260.177,71.777,72.266,91.309,103.516,32.715,0
1506028260.181,87.891,63.965,100.586,113.281,3.906,0
1506028260.185,71.289,45.410,72.266,85.938,6.836,0
1506028260.188,74.219,44.434,64.453,88.379,40.039,0
1506028260.192,74.707,45.410,76.660,103.027,52.246,0
1506028260.196,56.152,65.918,73.242,91.309,20.996,0
1506028260.200,57.129,67.383,64.453,86.914,28.809,0
1506028260.204,60.059,43.457,67.871,85.938,51.758,0
1506028260.208,46.875,34.180,69.336,80.566,24.414,0
1506028260.212,37.109,35.645,65.918,76.660,15.137,0
1506028260.216,41.992,39.551,63.965,67.383,30.273,0
1506028260.220,47.852,45.410,63.965,59.570,30.273,0
1506028260.224,31.738,20.996,60.547,54.199,45.410,0
1506028260.228,21.484,-12.695,64.453,52.246,38.574,0
1506028260.231,19.043,48.828,62.988,43.945,46.387,0
1506028260.235,28.809,33.691,66.895,44.434,53.711,0
1506028260.239,29.785,-19.043,72.754,43.457,28.809,0
1506028260.243,15.625,63.965,66.895,33.203,2.930,0
1506028260.247,22.949,90.332,72.266,32.715,9.766,0
1506028260.251,26.855,26.367,100.586,37.598,39.551,0
1506028260.255,10.254,30.273,89.844,31.738,27.832,0
1506028260.259,-9.766,84.961,64.453,14.160,3.418,0
1506028260.263,-10.254,62.012,90.820,12.207,29.785,0
1506028260.267,-15.625,8.301,97.168,17.090,47.852,0
1506028260.270,-19.531,1.953,85.938,13.672,52.734,0
1506028260.274,-13.672,63.965,80.566,5.859,55.664,0
1506028260.278,-25.391,20.508,96.191,10.742,41.992,0
1506028260.282,-24.414,26.855,106.934,15.137,24.414,0
1506028260.286,-12.207,51.758,90.332,5.371,28.809,0
1506028260.290,-17.578,63.477,77.637,0.488,44.922,0
1506028260.294,-18.066,82.031,80.078,6.836,45.898,0
1506028260.298,-2.441,30.273,67.383,25.879,39.062,0
1506028260.302,-6.836,57.129,70.312,24.414,13.672,0
1506028260.306,-6.836,93.750,86.914,18.555,4.883,0
1506028260.310,18.066,82.520,104.980,35.156,16.113,0
1506028260.313,-4.883,62.500,104.492,30.273,1.953,0
1506028260.317,-12.695,52.246,92.773,19.043,-5.859,0
1506028260.321,16.602,37.598,83.008,24.902,28.809,0
1506028260.325,13.184,57.129,81.055,34.668,41.992,0
1506028260.329,4.395,24.902,68.848,32.227,31.738,0
1506028260.333,9.277,-13.672,53.711,32.715,35.645,0
1506028260.337,25.391,31.250,56.641,47.852,66.406,0
1506028260.341,30.273,42.969,37.598,49.805,69.336,0
1506028260.345,22.949,59.570,51.758,43.457,36.133,0
1506028260.349,30.762,66.895,80.566,57.617,-3.418,0
1506028260.353,28.809,44.434,74.219,63.965,13.672,0
1506028260.356,20.020,55.664,58.594,59.082,59.082,0
1506028260.360,25.391,35.156,57.129,61.035,6.348,0
1506028260.364,43.945,27.832,51.270,59.570,-20.508,0
1506028260.368,48.340,48.340,61.035,69.824,25.879,0
1506028260.372,27.832,47.363,59.570,68.359,31.250,0
1506028260.376,21.973,52.246,51.758,63.965,20.508,0
1506028260.380,34.180,28.809,52.246,69.824,23.438,0
1506028260.384,52.734,23.926,46.875,79.590,19.531,0
1506028260.388,53.711,30.273,44.922,86.914,50.781,0
1506028260.392,44.434,53.223,40.039,84.961,54.199,0
1506028260.395,36.621,39.062,43.945,80.566,16.113,0
1506028260.399,52.734,14.160,35.156,80.078,50.293,0
1506028260.403,62.500,30.762,49.316,85.938,42.969,0
1506028260.407,36.621,75.684,65.918,83.496,-14.160,0
1506028260.411,44.434,74.219,46.387,81.543,-13.184,0
1506028260.415,70.312,31.738,50.781,96.680,13.184,0
1506028260.419,65.918,54.688,48.340,103.516,33.203,0
1506028260.423,64.941,64.941,45.898,99.121,43.945,0
1506028260.427,68.359,48.828,39.551,99.609,56.152,0
1506028260.431,71.289,31.738,15.137,106.445,33.203,0
1506028260.435,74.219,27.832,34.180,101.562,12.695,0
1506028260.438,78.125,47.852,62.988,95.703,19.531,0
1506028260.442,73.730,41.504,47.852,99.609,17.578,0
1506028260.446,70.801,40.039,43.945,93.750,15.625,0
1506028260.450,86.426,-13.672,62.012,108.887,1.465,0
1506028260.454,77.148,-68.359,48.828,112.793,13.184,0
1506028260.458,68.359,0.488,36.621,102.051,24.902,0
1506028260.462,80.078,76.172,46.387,118.164,-0.977,0
1506028260.466,75.195,99.121,41.016,109.375,12.695,0
1506028260.470,57.129,85.449,42.480,89.355,52.246,0
1506028260.474,66.406,42.480,52.246,99.121,57.617,0
1506028260.478,76.660,49.805,56.152,106.445,12.695,0
1506028260.481,65.430,80.078,53.711,103.027,3.906,0
1506028260.485,61.035,58.594,54.199,100.098,10.742,0
1506028260.489,78.613,41.992,48.828,97.168,31.250,0
1506028260.493,78.125,20.996,61.523,117.188,13.184,0
1506028260.497,75.195,31.250,50.781,124.512,-12.695,0
1506028260.501,88.867,70.801,35.156,106.934,54.199,0
1506028260.505,86.914,33.203,61.523,124.023,71.289,0
1506028260.509,83.496,47.363,68.359,130.371,34.668,0
1506028260.513,86.914,103.516,55.664,121.582,26.367,0
1506028260.517,79.590,53.711,46.387,124.512,42.480,0
1506028260.520,76.172,40.527,47.363,120.117,40.527,0
1506028260.524,88.867,51.270,46.875,118.164,40.039,0
1506028260.528,91.797,-8.789,48.340,120.117,62.988,0
1506028260.532,79.102,49.316,54.688,115.723,48.828,0
1506028260.536,72.266,64.453,70.801,114.258,55.664,0
1506028260.540,68.359,-0.488,80.566,118.164,35.645,0
1506028260.544,60.059,58.594,66.895,106.934,-5.371,0
1506028260.548,69.824,78.125,67.871,104.004,21.973,0
1506028260.552,69.824,8.789,76.172,115.234,33.691,0
1506028260.556,69.824,28.809,64.941,108.398,18.555,0
1506028260.560,61.035,76.660,46.875,93.262,30.762,0
1506028260.563,52.246,94.238,48.828,103.027,29.785,0
1506028260.567,61.035,83.984,57.617,105.957,12.695,0
1506028260.571,67.383,57.129,41.016,100.098,19.043,0
1506028260.575,71.289,41.016,39.062,111.328,23.926,0
1506028260.579,71.289,54.199,44.434,111.816,34.180,0
1506028260.583,70.801,52.246,38.086,113.281,47.363,0
1506028260.587,71.289,21.973,42.969,115.234,41.504,0
1506028260.591,61.035,8.789,51.270,103.516,39.551,0
1506028260.595,69.824,20.996,62.012,110.840,22.949,0
1506028260.599,72.266,26.855,46.875,104.980,11.230,0
1506028260.603,87.402,47.852,45.410,115.234,26.855,0
1506028260.606,97.168,95.215,79.102,126.953,35.156,0
1506028260.610,75.684,82.031,48.340,101.562,16.602,0
1506028260.614,67.383,50.781,11.230,90.332,-17.578,0
1506028260.618,54.199,15.625,33.203,85.449,3.418,0
1506028260.622,54.199,41.504,45.410,83.984,34.668,0
1506028260.626,73.730,67.383,42.969,96.680,17.090,0
1506028260.630,63.477,38.574,62.500,94.727,7.324,0
1506028260.634,45.410,-8.789,69.824,77.637,13.672,0
1506028260.638,61.523,14.160,67.383,86.914,46.875,0
1506028260.642,66.406,90.332,63.477,96.680,32.715,0
1506028260.645,69.824,100.098,62.988,92.285,-8.789,0
1506028260.649,70.801,80.078,45.410,87.402,38.574,0
1506028260.653,68.848,37.109,45.898,91.309,41.992,0
1506028260.657,70.801,6.348,55.176,102.051,-19.043,0
1506028260.661,66.895,36.133,43.945,95.703,-4.395,0
1506028260.665,63.965,60.059,26.855,83.496,30.762,0
1506028260.669,67.871,51.270,39.062,98.633,46.875,0
1506028260.673,61.523,0.977,52.246,101.074,50.781,0
1506028260.677,54.688,-16.602,43.945,86.426,-3.418,0
1506028260.681,51.758,21.973,48.340,90.332,-12.207,0
1506028260.685,41.992,18.555,54.199,94.727,33.691,0
1506028260.688,48.828,8.789,54.199,92.285,35.645,0
1506028260.692,60.059,34.180,56.152,99.609,28.320,0
1506028260.696,53.711,18.555,55.176,98.145,18.555,0
1506028260.700,50.781,19.531,58.105,90.332,26.855,0
1506028260.704,64.453,45.898,71.289,100.586,40.527,0
1506028260.708,59.082,60.059,70.801,102.051,26.855,0
1506028260.712,49.805,50.781,43.945,103.516,5.371,0
1506028260.716,55.176,25.879,45.898,105.957,-3.418,0
1506028260.720,59.570,85.449,72.266,93.262,18.066,0
1506028260.724,65.430,85.449,72.754,89.844,12.207,0
1506028260.728,68.359,33.203,68.359,93.750,21.973,0
1506028260.731,77.637,55.664,69.824,87.402,41.992,0
1506028260.735,84.961,56.152,55.176,85.938,12.695,0
1506028260.739,76.660,18.066,51.270,88.379,14.160,0
1506028260.743,73.730,51.758,61.035,83.008,21.973,0
1506028260.747,68.848,41.992,63.965,79.590,-7.812,0
1506028260.751,64.941,20.996,37.109,80.566,22.949,0
1506028260.755,74.707,46.875,23.926,81.055,33.203,0
1506028260.759,76.172,13.672,62.012,75.195,19.531,0
1506028260.763,76.172,12.695,78.613,88.867,37.109,0
1506028260.767,70.801,75.684,68.848,93.262,11.719,0
1506028260.770,57.617,41.504,42.480,68.848,10.742,0
1506028260.774,64.941,16.602,49.805,69.336,32.227,0
1506028260.778,69.824,69.824,64.453,84.961,11.230,0
1506028260.782,45.898,67.871,53.223,74.707,14.160,0
1506028260.786,45.898,17.578,46.875,68.359,18.066,0
1506028260.790,64.453,21.484,48.340,79.590,31.738,0
1506028260.794,65.430,11.719,45.410,75.195,12.695,0
1506028260.798,58.105,31.738,44.922,70.312,-4.395,0
