timestamps,TP9,AF7,AF8,TP10,Right AUX,Marker0
1505864876.157,52.246,34.668,46.875,63.477,9.766,0
1505864876.161,48.828,34.668,74.707,70.801,14.648,0
1505864876.165,54.199,37.109,48.340,90.332,25.879,0
1505864876.169,55.176,45.898,21.973,89.355,-1.953,0
1505864876.173,54.199,45.898,29.785,81.543,7.324,0
1505864876.177,54.688,34.180,45.898,81.055,7.324,0
1505864876.181,51.758,36.621,65.430,80.566,-31.738,0
1505864876.185,50.293,35.156,48.828,72.266,-29.785,0
1505864876.188,46.387,30.273,71.289,62.500,-28.320,0
1505864876.192,34.180,32.715,76.172,54.688,8.789,0
1505864876.196,38.086,30.762,55.664,56.152,11.719,0
1505864876.200,40.039,30.273,39.551,62.012,-29.297,0
1505864876.204,34.668,35.156,40.039,58.594,12.207,0
1505864876.208,45.410,41.504,52.734,61.035,45.898,0
1505864876.212,48.828,32.227,48.340,84.473,20.996,0
1505864876.216,47.852,24.902,40.527,87.402,-7.324,0
1505864876.220,53.223,29.297,9.766,61.035,30.273,0
1505864876.224,56.641,30.762,27.344,59.570,50.781,0
1505864876.228,56.152,31.738,63.477,86.426,3.418,0
1505864876.231,57.129,39.062,62.012,104.980,8.301,0
1505864876.235,52.246,34.180,63.965,81.055,34.668,0
1505864876.239,41.992,27.832,48.828,59.082,26.367,0
1505864876.243,46.875,30.273,4.395,51.758,8.301,0
1505864876.247,47.852,31.738,22.461,51.758,-11.719,0
1505864876.251,32.227,25.879,63.477,50.781,-0.488,0
1505864876.255,38.574,30.273,30.273,67.871,16.602,0
1505864876.259,49.805,38.574,14.648,91.797,6.836,0
1505864876.263,46.875,42.969,57.129,95.215,-8.789,0
1505864876.267,44.434,44.434,88.867,77.637,-8.301,0
1505864876.270,44.922,30.273,80.078,73.242,-3.418,0
1505864876.274,45.410,25.879,25.879,83.008,-16.113,0
1505864876.278,42.480,26.367,-0.977,78.613,-35.156,0
1505864876.282,45.898,28.809,43.457,79.590,15.137,0
1505864876.286,51.758,28.320,79.590,87.402,21.973,0
1505864876.290,54.199,27.344,52.734,93.262,-9.277,0
1505864876.294,54.688,31.250,27.832,91.797,-18.555,0
1505864876.298,53.711,35.156,56.152,82.520,-7.812,0
1505864876.302,57.129,43.457,90.820,88.867,-18.555,0
1505864876.306,54.199,41.992,69.336,89.355,-36.621,0
1505864876.310,46.387,39.551,46.387,81.055,-0.488,0
1505864876.313,39.062,40.039,54.688,76.660,17.578,0
1505864876.317,38.574,33.691,58.105,71.289,-8.789,0
1505864876.321,34.180,29.785,68.359,60.547,-45.410,0
1505864876.325,23.926,23.926,54.688,60.547,-49.316,0
1505864876.329,29.297,26.367,20.996,75.195,-3.418,0
1505864876.333,42.969,31.738,47.363,75.195,1.953,0
1505864876.337,49.805,41.016,78.613,69.824,-28.809,0
1505864876.341,40.527,43.945,41.504,64.453,-28.809,0
1505864876.345,26.855,30.273,31.738,69.336,-6.836,0
1505864876.349,19.531,18.066,23.438,79.590,13.672,0
1505864876.353,17.578,13.672,23.926,56.641,-0.977,0
1505864876.356,26.855,26.855,59.570,41.016,15.625,0
1505864876.360,34.668,33.203,55.664,51.270,36.621,0
1505864876.364,27.344,27.344,38.574,39.551,30.762,0
1505864876.368,28.320,28.809,32.227,43.457,29.785,0
1505864876.372,37.598,32.227,21.484,59.570,5.371,0
1505864876.376,34.668,33.203,23.926,62.500,18.555,0
1505864876.380,37.598,35.645,18.555,70.801,-6.836,0
1505864876.384,45.898,31.250,-3.418,63.477,-33.203,0
1505864876.388,40.527,33.691,31.250,56.152,14.648,0
1505864876.392,47.852,41.016,65.918,75.684,33.691,0
1505864876.395,53.711,39.062,32.227,79.102,9.766,0
1505864876.399,45.410,38.086,41.992,58.594,-5.859,0
1505864876.403,44.922,36.133,70.312,51.270,31.250,0
1505864876.407,53.711,34.668,58.105,61.035,29.785,0
1505864876.411,58.105,37.598,67.383,71.777,29.785,0
1505864876.415,60.059,41.992,62.988,76.660,57.129,0
1505864876.419,60.547,40.039,60.547,74.219,38.086,0
1505864876.423,60.547,37.109,71.777,77.148,10.254,0
1505864876.427,54.688,33.203,75.684,82.031,-7.812,0
1505864876.431,53.711,32.715,86.426,83.008,23.438,0
1505864876.435,59.570,38.086,84.473,70.312,42.480,0
1505864876.438,58.105,43.945,2.930,62.988,-11.230,0
1505864876.442,52.246,39.062,-32.227,69.336,-39.062,0
1505864876.446,38.574,25.391,49.316,63.965,7.812,0
1505864876.450,41.016,27.832,94.727,70.312,47.852,0
1505864876.454,51.270,34.668,91.797,85.449,30.762,0
1505864876.458,54.199,33.203,77.637,63.477,-5.371,0
1505864876.462,55.176,35.156,70.801,69.336,7.812,0
1505864876.466,52.246,32.227,61.523,73.730,21.484,0
1505864876.470,55.176,31.738,36.133,75.684,12.207,0
1505864876.474,50.781,38.574,-24.414,73.242,-10.254,0
1505864876.478,44.922,33.691,6.348,45.410,30.273,0
1505864876.481,50.293,30.273,62.012,51.270,56.641,0
1505864876.485,49.316,31.738,36.621,51.758,34.180,0
1505864876.489,48.828,33.203,52.734,56.152,20.996,0
1505864876.493,48.828,31.250,86.914,66.895,18.555,0
1505864876.497,54.688,28.809,73.730,75.195,-0.488,0
1505864876.501,52.246,21.484,70.312,60.547,-1.953,0
1505864876.505,49.316,18.555,73.242,46.875,32.715,0
1505864876.509,40.527,23.926,50.293,56.641,29.785,0
1505864876.513,32.715,24.414,29.297,50.293,-8.789,0
1505864876.517,33.691,22.461,0.977,45.898,-22.949,0
1505864876.520,22.949,19.531,20.996,49.805,42.480,0
1505864876.524,30.762,22.949,42.969,60.059,57.617,0
1505864876.528,42.480,27.832,15.625,57.129,46.875,0
1505864876.532,37.598,28.320,43.457,40.527,32.227,0
1505864876.536,39.551,21.973,61.035,50.293,15.625,0
1505864876.540,47.363,27.832,28.320,68.359,49.316,0
1505864876.544,38.086,29.785,40.039,61.523,45.898,0
1505864876.548,34.180,18.555,62.988,75.195,34.668,0
1505864876.552,39.062,17.578,41.504,75.195,60.059,0
1505864876.556,35.156,21.484,31.738,30.762,42.480,0
1505864876.560,37.598,20.508,33.203,29.785,0.000,0
1505864876.563,39.062,21.484,29.785,50.781,5.371,0
1505864876.567,42.969,30.273,60.059,53.223,52.734,0
1505864876.571,42.969,22.949,51.758,49.805,70.312,0
1505864876.575,38.086,16.602,26.367,56.152,26.367,0
1505864876.579,41.504,21.973,3.906,61.035,33.203,0
1505864876.583,48.340,27.832,-12.695,64.941,53.711,0
1505864876.587,51.270,33.203,31.250,69.824,20.996,0
1505864876.591,51.270,32.227,87.402,76.172,18.555,0
1505864876.595,47.852,26.855,92.773,69.824,26.855,0
1505864876.599,44.922,25.391,87.402,58.105,41.992,0
1505864876.603,51.270,25.391,71.777,63.477,29.785,0
1505864876.606,54.199,28.320,48.340,70.312,10.254,0
1505864876.610,44.434,31.250,22.949,61.035,35.645,0
1505864876.614,36.133,26.855,0.000,66.406,39.062,0
1505864876.618,35.156,19.531,29.785,61.523,25.879,0
1505864876.622,34.180,20.020,72.266,49.316,20.508,0
1505864876.626,31.738,22.949,43.945,60.059,39.062,0
1505864876.630,36.133,21.484,14.160,58.105,21.973,0
1505864876.634,41.016,25.391,56.152,70.312,17.578,0
1505864876.638,39.062,25.879,83.008,75.195,28.809,0
1505864876.642,35.645,20.508,54.688,47.363,21.484,0
1505864876.645,34.180,20.508,41.992,51.270,-0.488,0
1505864876.649,36.133,25.391,66.406,71.289,-31.738,0
1505864876.653,37.109,32.715,34.180,62.012,-18.066,0
1505864876.657,36.621,39.551,25.391,56.641,30.762,0
1505864876.661,38.086,38.086,41.992,75.195,18.555,0
1505864876.665,35.156,35.645,40.039,66.406,-7.324,0
1505864876.669,40.039,38.574,76.172,50.781,17.578,0
1505864876.673,38.086,38.574,94.727,69.824,34.668,0
1505864876.677,31.738,37.598,78.125,70.312,19.531,0
1505864876.681,35.156,36.621,55.664,45.410,-13.672,0
1505864876.685,33.203,33.203,40.527,48.340,23.438,0
1505864876.688,34.668,38.086,46.875,54.688,40.527,0
1505864876.692,35.645,37.598,21.973,48.828,8.301,0
1505864876.696,40.039,37.109,-4.395,64.941,-4.395,0
1505864876.700,32.227,35.645,28.809,55.664,-16.602,0
1505864876.704,36.133,37.598,64.941,45.898,11.719,0
1505864876.708,54.199,48.828,90.332,70.801,24.414,0
1505864876.712,44.434,39.062,67.383,62.500,27.344,0
1505864876.716,46.875,31.738,18.066,64.941,44.434,0
1505864876.720,53.223,39.062,22.461,72.266,15.137,0
1505864876.724,35.645,24.902,50.293,46.387,3.906,0
1505864876.728,28.809,16.113,63.965,32.227,17.090,0
1505864876.731,41.992,27.344,34.668,52.246,-5.859,0
1505864876.735,50.781,36.133,29.785,72.754,18.066,0
1505864876.739,53.711,35.156,55.664,78.613,21.973,0
1505864876.743,46.387,36.133,52.246,73.242,-18.555,0
1505864876.747,36.133,39.062,70.312,74.219,12.695,0
1505864876.751,41.016,34.180,57.617,72.266,22.461,0
1505864876.755,51.758,33.691,72.754,78.613,0.000,0
1505864876.759,62.988,42.969,80.078,75.684,10.254,0
1505864876.763,56.641,50.293,32.227,68.359,26.367,0
1505864876.767,41.016,45.898,58.594,75.195,25.391,0
1505864876.770,43.457,41.992,77.148,75.195,-1.953,0
1505864876.774,46.875,38.086,52.246,70.801,-19.043,0
1505864876.778,56.152,46.875,47.363,66.406,-6.348,0
1505864876.782,62.012,44.434,57.129,69.336,9.277,0
1505864876.786,67.871,37.598,75.684,66.895,6.836,0
1505864876.790,68.848,42.480,78.125,70.801,4.395,0
1505864876.794,51.758,39.062,55.664,66.406,20.508,0
1505864876.798,44.434,33.691,68.359,57.129,-9.277,0
1505864876.802,41.504,28.320,69.824,63.477,-24.414,0
1505864876.806,41.504,33.691,76.660,56.152,11.719,0
1505864876.810,49.316,36.133,66.895,39.551,37.598,0
1505864876.813,47.363,30.762,46.387,33.691,18.066,0
1505864876.817,39.551,32.227,21.973,42.480,13.184,0
1505864876.821,33.691,36.133,-6.348,53.711,32.715,0
1505864876.825,35.645,38.574,41.992,61.035,24.902,0
1505864876.829,31.250,38.574,71.777,61.035,11.230,0
1505864876.833,29.785,32.227,48.828,62.500,16.602,0
1505864876.837,36.621,27.344,38.574,53.711,33.691,0
1505864876.841,30.273,27.832,31.738,38.086,27.832,0
1505864876.845,32.715,33.203,-0.977,54.199,6.348,0
1505864876.849,31.250,30.273,9.766,61.523,9.766,0
1505864876.853,23.438,26.367,16.113,37.109,27.344,0
1505864876.856,29.297,27.344,45.410,29.297,28.320,0
1505864876.860,35.156,29.297,79.102,41.016,13.184,0
1505864876.864,28.320,29.785,36.621,48.340,7.812,0
1505864876.868,33.203,34.180,22.949,68.848,16.113,0
1505864876.872,44.922,39.062,44.922,64.453,-0.488,0
1505864876.876,50.781,41.504,36.621,50.781,10.254,0
1505864876.880,70.312,47.852,23.926,80.078,15.137,0
1505864876.884,66.406,42.480,45.898,91.309,24.902,0
1505864876.888,39.551,24.902,52.246,84.473,31.738,0
1505864876.892,30.273,20.508,57.129,81.055,-18.066,0
1505864876.895,31.250,36.133,45.410,65.430,-29.297,0
1505864876.899,34.180,41.016,50.293,65.918,16.113,0
1505864876.903,44.922,34.668,67.383,62.988,44.434,0
1505864876.907,52.246,36.621,60.547,58.105,26.855,0
1505864876.911,42.480,37.109,41.992,57.129,3.418,0
1505864876.915,38.086,37.109,1.465,64.453,35.156,0
1505864876.919,31.738,38.086,15.625,73.730,52.246,0
1505864876.923,26.367,32.227,65.430,60.059,28.809,0
1505864876.927,41.992,31.250,56.152,67.871,42.480,0
1505864876.931,50.781,30.762,11.719,75.195,30.762,0
1505864876.935,55.176,13.184,-5.371,73.730,-6.348,0
1505864876.938,46.387,18.555,33.203,72.754,-10.254,0
1505864876.942,37.109,24.902,50.293,67.871,23.926,0
1505864876.946,49.316,13.184,8.789,84.961,26.855,0
1505864876.950,50.293,16.602,10.254,80.566,3.906,0
1505864876.954,48.828,23.926,70.801,74.219,52.734,0
1505864876.958,47.852,31.738,61.523,84.961,51.270,0
1505864876.962,38.574,25.879,39.062,68.848,9.277,0
1505864876.966,38.086,25.879,36.133,72.754,27.832,0
1505864876.970,48.340,29.785,22.461,87.891,37.598,0
1505864876.974,42.480,26.855,28.320,90.820,24.902,0
1505864876.978,34.180,29.297,31.250,85.938,24.902,0
1505864876.981,38.574,33.691,42.480,67.383,45.898,0
1505864876.985,25.879,25.879,54.199,74.707,66.895,0
1505864876.989,26.367,23.926,46.387,73.730,63.965,0
1505864876.993,40.039,28.809,33.203,80.566,41.016,0
1505864876.997,34.180,24.902,22.461,80.078,43.457,0
1505864877.001,39.062,33.203,32.715,65.430,51.758,0
1505864877.005,48.828,41.016,50.293,82.031,43.945,0
1505864877.009,43.457,40.527,68.848,68.848,41.504,0
1505864877.013,39.551,41.016,69.336,64.453,53.711,0
1505864877.017,47.852,48.340,65.430,96.680,53.711,0
1505864877.020,74.707,59.570,81.055,113.770,43.457,0
1505864877.024,91.309,74.707,51.270,123.535,25.879,0
1505864877.028,68.848,71.777,60.547,123.535,13.672,0
1505864877.032,56.152,62.012,92.773,100.098,32.715,0
1505864877.036,65.918,55.664,82.520,100.586,52.246,0
1505864877.040,65.430,51.270,73.730,101.074,25.391,0
1505864877.044,74.707,60.547,47.852,99.609,22.949,0
1505864877.048,68.848,63.965,10.742,88.867,55.664,0
1505864877.052,47.363,61.035,49.805,86.426,56.152,0
1505864877.056,51.758,54.688,89.355,102.539,61.035,0
1505864877.060,53.223,44.922,64.941,93.262,62.988,0
1505864877.063,52.734,44.434,52.246,97.656,60.059,0
1505864877.067,59.570,41.016,48.828,103.027,37.109,0
1505864877.071,50.781,31.738,18.555,78.613,11.230,0
1505864877.075,56.152,51.270,24.414,72.754,39.062,0
1505864877.079,61.035,52.734,41.504,78.125,71.777,0
1505864877.083,40.039,36.621,19.043,76.660,26.855,0
1505864877.087,37.598,38.086,31.250,89.844,24.414,0
1505864877.091,52.246,32.715,72.266,89.355,42.969,0
1505864877.095,63.477,47.852,86.426,91.797,18.066,0
1505864877.099,69.824,58.105,60.547,97.656,1.953,0
1505864877.103,63.477,45.410,26.855,100.098,9.766,0
1505864877.106,56.152,33.691,40.527,87.891,33.691,0
1505864877.110,52.246,39.062,70.801,80.078,20.996,0
1505864877.114,43.457,44.922,71.777,96.680,9.277,0
1505864877.118,46.875,37.109,82.520,82.520,-13.672,0
1505864877.122,53.711,35.156,75.195,64.941,-18.555,0
1505864877.126,49.805,36.621,73.242,71.289,0.977,0
1505864877.130,51.758,45.898,36.133,70.801,-11.719,0
1505864877.134,38.574,40.039,-3.906,84.473,-36.621,0
1505864877.138,36.621,33.203,46.875,75.684,-7.812,0
1505864877.142,46.875,36.621,68.359,58.594,-0.977,0
1505864877.145,42.969,26.367,47.852,68.359,-17.090,0
1505864877.149,44.434,18.066,38.086,73.730,1.953,0
1505864877.153,64.453,32.227,41.016,83.496,1.953,0
1505864877.157,71.289,34.180,10.742,77.637,0.000,0
1505864877.161,56.641,20.996,16.113,74.707,-12.695,0
1505864877.165,48.828,25.391,72.754,70.312,-3.906,0
1505864877.169,48.340,36.621,72.266,59.082,25.391,0
1505864877.173,52.246,34.180,48.828,60.059,13.672,0
1505864877.177,35.645,30.273,38.086,65.918,-16.602,0
1505864877.181,32.715,31.738,32.227,70.801,12.207,0
1505864877.185,63.965,43.945,54.688,75.684,16.113,0
1505864877.188,61.035,52.246,69.824,87.402,7.812,0
1505864877.192,50.293,50.781,76.172,101.074,10.742,0
1505864877.196,52.246,25.391,62.988,66.406,20.996,0
1505864877.200,45.898,10.742,3.906,58.105,33.691,0
1505864877.204,32.715,21.484,11.230,74.219,10.254,0
1505864877.208,31.738,23.926,33.203,55.176,-5.859,0
1505864877.212,47.852,28.809,36.621,69.336,-14.648,0
1505864877.216,65.430,35.645,64.941,55.176,18.555,0
1505864877.220,79.102,40.527,74.707,53.223,20.508,0
1505864877.224,59.082,35.645,58.105,70.801,-16.602,0
1505864877.228,30.273,33.691,41.992,76.660,-5.371,0
1505864877.231,38.086,43.457,68.359,91.309,2.441,0
1505864877.235,67.871,37.109,87.402,81.055,4.883,0
1505864877.239,64.941,34.668,74.707,60.059,34.668,0
1505864877.243,53.223,48.828,13.672,70.312,17.578,0
1505864877.247,44.922,41.504,4.883,72.266,-10.742,0
1505864877.251,39.551,26.855,72.754,62.988,9.277,0
1505864877.255,48.340,28.809,61.523,74.707,33.691,0
1505864877.259,54.199,43.457,44.434,82.520,60.547,0
1505864877.263,50.293,45.898,65.918,71.777,26.855,0
1505864877.267,55.176,41.016,59.570,72.754,-9.277,0
1505864877.270,57.617,36.133,58.105,75.684,-0.488,0
1505864877.274,41.016,39.062,64.453,70.312,19.531,0
1505864877.278,40.527,47.852,39.062,73.242,36.133,0
1505864877.282,41.992,38.086,6.348,69.336,38.574,0
1505864877.286,39.062,35.645,13.672,59.082,60.059,0
1505864877.290,32.227,41.016,48.340,62.988,77.637,0
1505864877.294,34.180,37.109,56.641,65.430,64.453,0
1505864877.298,40.039,31.738,34.668,67.871,83.496,0
1505864877.302,42.480,28.809,57.617,81.055,69.336,0
1505864877.306,45.410,35.156,99.121,83.496,36.621,0
1505864877.310,33.203,43.457,84.473,75.195,26.367,0
1505864877.313,39.062,43.457,56.152,77.148,23.926,0
1505864877.317,42.969,39.551,42.480,77.148,51.758,0
1505864877.321,52.734,57.129,52.734,78.125,61.035,0
1505864877.325,70.312,62.012,68.359,102.051,46.875,0
1505864877.329,60.059,43.457,45.410,115.234,6.836,0
1505864877.333,48.828,45.410,13.672,79.590,43.457,0
1505864877.337,55.176,52.246,5.859,73.730,56.641,0
1505864877.341,61.523,56.152,48.828,95.215,52.734,0
1505864877.345,60.547,50.781,77.637,84.961,60.059,0
1505864877.349,60.059,51.758,87.891,78.125,36.621,0
1505864877.353,60.059,58.594,89.355,88.379,46.387,0
1505864877.356,50.293,52.734,55.176,92.773,29.297,0
1505864877.360,32.227,43.945,46.875,84.473,22.949,0
1505864877.364,37.598,54.688,8.789,76.660,39.551,0
1505864877.368,62.500,62.012,-38.086,80.078,59.082,0
1505864877.372,42.480,41.992,38.086,68.848,51.270,0
1505864877.376,27.832,35.156,86.914,50.781,65.918,0
1505864877.380,35.645,45.410,95.703,74.707,107.910,0
1505864877.384,27.832,51.758,85.938,92.285,85.938,0
1505864877.388,20.508,48.340,34.668,75.684,64.941,0
1505864877.392,30.273,48.340,34.668,76.172,62.012,0
1505864877.395,40.527,50.781,81.543,95.703,62.988,0
1505864877.399,29.297,43.945,107.910,83.008,47.363,0
1505864877.403,22.949,41.992,110.352,57.617,57.617,0
1505864877.407,39.062,43.945,59.570,51.270,79.102,0
1505864877.411,41.992,45.410,31.250,47.852,49.805,0
1505864877.415,43.457,53.711,64.453,54.688,48.828,0
1505864877.419,38.574,49.805,64.941,55.176,59.570,0
1505864877.423,19.531,46.387,55.176,55.176,65.430,0
1505864877.427,28.809,42.969,35.156,75.195,58.594,0
1505864877.431,51.270,50.293,36.133,89.355,60.059,0
1505864877.435,59.082,63.965,88.379,96.191,57.617,0
1505864877.438,60.547,63.477,101.562,110.352,67.383,0
1505864877.442,75.684,76.660,99.121,116.211,55.176,0
1505864877.446,74.707,79.102,104.004,94.727,20.508,0
1505864877.450,68.848,60.547,98.145,67.383,55.664,0
1505864877.454,69.336,62.500,81.543,77.148,70.801,0
1505864877.458,65.918,62.012,67.871,95.215,41.504,0
1505864877.462,69.824,66.406,74.707,82.031,38.086,0
1505864877.466,74.219,72.754,50.781,78.125,34.180,0
1505864877.470,74.219,68.359,57.617,93.750,47.363,0
1505864877.474,78.125,69.824,82.520,95.215,44.434,0
1505864877.478,75.195,74.707,35.645,76.172,16.113,0
1505864877.481,71.777,81.055,33.691,86.426,29.297,0
1505864877.485,75.195,74.219,99.121,90.332,39.551,0
1505864877.489,74.219,71.289,112.305,78.613,10.254,0
1505864877.493,65.918,70.312,73.730,84.473,-23.926,0
1505864877.497,60.059,64.941,42.969,94.727,-1.953,0
1505864877.501,82.031,78.125,45.898,115.234,-8.301,0
1505864877.505,66.895,70.801,79.102,105.469,-31.738,0
1505864877.509,51.758,60.059,93.750,73.730,-41.504,1
1505864877.513,60.059,59.570,69.824,79.590,-15.137,0
1505864877.517,43.457,57.617,66.895,84.473,-0.488,0
1505864877.520,40.039,59.570,55.664,71.289,-30.762,0
1505864877.524,42.480,49.316,23.438,57.129,-28.320,0
1505864877.528,29.785,41.992,36.621,54.688,-1.465,0
1505864877.532,27.344,49.805,67.383,68.359,0.488,0
1505864877.536,41.016,47.363,74.219,52.734,-4.883,0
1505864877.540,35.645,35.645,38.574,46.387,-6.836,0
1505864877.544,27.344,42.480,33.203,68.359,-7.324,0
1505864877.548,24.414,39.551,34.668,52.246,-42.969,0
1505864877.552,19.043,36.621,32.715,33.203,-41.992,0
1505864877.556,29.297,41.016,54.199,49.805,7.812,0
1505864877.560,30.762,43.457,49.316,45.898,22.461,0
1505864877.563,32.227,42.480,51.270,51.270,-7.324,0
1505864877.567,41.992,37.109,35.645,61.523,-23.438,0
1505864877.571,35.645,38.574,25.879,48.828,7.812,0
1505864877.575,31.250,48.828,5.371,66.406,32.227,0
1505864877.579,33.203,50.293,29.297,76.660,41.504,0
1505864877.583,8.789,36.133,88.867,53.223,28.809,0
1505864877.587,4.883,26.367,86.426,51.270,-4.883,0
1505864877.591,15.625,19.531,72.266,47.363,0.488,0
1505864877.595,22.949,31.250,73.242,48.340,19.531,0
1505864877.599,30.273,35.645,57.129,65.918,29.297,0
1505864877.603,17.578,14.648,26.855,38.086,57.129,0
1505864877.606,4.883,-1.465,27.832,17.090,52.246,0
1505864877.610,27.832,1.465,12.207,27.344,33.203,0
1505864877.614,31.250,7.324,55.176,24.414,43.457,0
1505864877.618,2.441,8.301,11.230,25.879,57.129,0
1505864877.622,2.930,8.789,-5.859,34.180,41.992,0
1505864877.626,13.672,9.766,95.215,35.156,9.766,0
1505864877.630,15.625,14.648,43.945,20.996,-4.395,0
1505864877.634,16.113,11.230,-18.066,37.598,7.812,0
1505864877.638,25.391,14.160,23.926,57.129,-24.902,0
1505864877.642,14.648,17.578,59.570,39.062,-28.320,0
1505864877.645,1.953,18.066,63.965,20.996,-1.465,0
1505864877.649,15.137,22.461,45.410,38.574,6.348,0
1505864877.653,32.227,24.414,15.625,53.711,24.414,0
1505864877.657,25.879,20.508,13.184,51.758,19.531,0
1505864877.661,20.508,24.414,28.809,65.430,14.160,0
1505864877.665,22.461,17.090,35.645,56.152,26.855,0
1505864877.669,14.160,6.348,15.137,41.504,47.363,0
1505864877.673,22.461,15.625,21.973,41.992,37.109,0
1505864877.677,35.156,21.484,66.406,45.410,30.762,0
1505864877.681,46.387,28.809,50.293,57.129,36.621,0
1505864877.685,41.016,26.367,37.109,65.918,20.996,0
1505864877.688,29.297,27.344,43.457,60.547,20.020,0
1505864877.692,32.715,33.203,40.039,68.359,75.195,0
1505864877.696,41.016,33.691,59.082,76.172,82.031,0
1505864877.700,33.203,32.715,60.547,69.824,47.852,0
1505864877.704,21.484,23.438,53.223,64.453,55.664,0
1505864877.708,32.715,20.996,25.879,64.453,69.824,0
1505864877.712,38.086,27.832,42.969,52.246,88.867,0
1505864877.716,35.156,26.367,43.945,50.293,105.469,0
1505864877.720,40.039,26.855,25.391,61.035,74.707,0
1505864877.724,38.086,31.250,35.156,77.148,54.199,0
1505864877.728,34.180,29.785,35.156,83.984,53.711,0
1505864877.731,39.062,28.809,41.016,87.402,47.852,0
1505864877.735,38.574,26.367,49.316,74.707,82.031,0
1505864877.739,39.551,23.438,68.359,67.871,107.422,0
1505864877.743,43.457,19.531,75.195,85.449,64.941,0
1505864877.747,42.969,22.461,57.129,58.105,41.016,0
1505864877.751,34.180,17.578,61.523,41.992,81.543,0
1505864877.755,39.062,14.648,69.336,51.758,89.844,0
1505864877.759,37.598,18.555,24.414,53.223,65.430,0
1505864877.763,26.855,11.719,8.789,52.734,67.871,0
1505864877.767,37.109,13.184,2.930,56.641,73.242,0
1505864877.770,50.293,23.926,18.066,67.871,71.777,0
1505864877.774,57.617,34.668,19.043,79.590,62.500,0
1505864877.778,66.895,34.180,12.207,79.102,54.688,0
1505864877.782,51.758,21.484,49.316,59.082,62.988,0
1505864877.786,25.391,15.625,56.152,41.992,76.660,0
1505864877.790,31.250,23.438,57.129,47.852,41.504,0
1505864877.794,37.598,28.320,54.688,58.594,40.039,0
1505864877.798,28.809,24.902,26.367,53.223,60.547,0
1505864877.802,41.016,26.855,19.043,56.152,48.340,0
1505864877.806,49.805,29.297,19.531,57.129,74.219,0
1505864877.810,43.457,32.715,20.996,54.199,114.258,0
1505864877.813,33.691,33.691,39.062,65.430,116.699,0
1505864877.817,33.691,30.762,52.734,70.312,85.449,0
1505864877.821,39.062,33.203,38.574,53.223,69.336,0
1505864877.825,29.297,35.645,36.133,33.203,104.004,0
1505864877.829,29.785,33.691,20.020,49.316,119.141,0
1505864877.833,35.156,29.785,24.414,53.223,106.934,0
1505864877.837,38.086,29.297,69.336,39.551,125.977,0
1505864877.841,41.016,33.203,45.898,38.086,162.598,0
1505864877.845,43.457,36.621,37.109,44.434,138.184,0
1505864877.849,41.992,40.527,54.688,49.316,97.656,0
1505864877.853,41.504,39.551,31.250,43.945,126.465,0
1505864877.856,40.039,33.691,20.508,47.852,126.465,0
1505864877.860,35.645,32.227,41.504,49.805,118.164,0
1505864877.864,55.664,43.945,48.340,59.570,102.539,0
1505864877.868,50.293,35.645,47.852,59.570,94.238,0
1505864877.872,31.250,20.508,-4.395,41.016,105.469,0
1505864877.876,41.992,21.484,-21.973,37.598,102.051,0
1505864877.880,42.969,19.531,51.270,30.762,66.406,0
1505864877.884,43.945,22.949,56.641,24.902,72.266,0
1505864877.888,46.875,25.391,51.270,39.062,126.465,0
1505864877.892,38.086,22.461,50.781,47.852,102.051,0
1505864877.895,35.645,22.461,53.711,40.039,82.520,0
1505864877.899,38.086,24.902,54.688,40.527,83.496,0
1505864877.903,46.387,26.367,32.715,50.781,104.492,0
1505864877.907,41.992,23.438,29.297,57.617,106.445,0
1505864877.911,34.668,17.090,57.617,59.570,97.656,0
1505864877.915,40.039,19.043,65.918,62.500,51.270,0
1505864877.919,37.598,17.578,62.012,74.219,15.137,0
1505864877.923,41.016,15.625,71.289,75.684,-7.324,0
1505864877.927,44.922,17.578,43.945,58.594,-43.457,0
1505864877.931,47.852,20.996,11.719,58.105,-28.320,0
1505864877.935,54.688,27.832,32.715,62.988,-0.488,0
1505864877.938,50.781,21.973,67.871,62.500,22.949,0
1505864877.942,41.504,11.230,53.711,57.617,15.137,0
1505864877.946,41.992,16.113,12.207,52.246,10.742,0
1505864877.950,38.574,14.160,34.668,48.340,25.391,0
1505864877.954,51.758,30.273,52.734,66.406,35.645,0
1505864877.958,65.430,42.480,37.109,80.078,-0.977,0
1505864877.962,41.504,17.090,34.180,55.664,1.953,0
1505864877.966,40.039,17.090,55.176,58.594,14.160,0
1505864877.970,50.293,31.250,27.832,69.824,-18.066,0
1505864877.974,50.781,34.180,18.066,54.199,-43.457,0
1505864877.978,51.758,32.227,57.129,65.918,-19.531,0
1505864877.981,48.828,30.762,65.918,90.332,4.395,0
1505864877.985,50.781,33.691,66.406,74.219,-7.324,0
1505864877.989,49.316,37.598,42.480,49.316,-39.062,0
1505864877.993,50.781,42.969,46.387,56.152,-27.344,0
1505864877.997,53.711,45.898,42.969,76.172,8.301,0
1505864878.001,54.688,45.898,22.949,64.941,12.695,0
1505864878.005,57.617,52.734,34.180,63.965,17.090,0
1505864878.009,59.570,60.059,49.316,81.055,16.113,0
1505864878.013,62.012,62.012,61.523,66.895,3.418,0
1505864878.017,61.523,62.988,57.129,64.453,8.301,0
1505864878.020,59.570,59.570,61.035,72.266,46.387,0
1505864878.024,55.664,55.664,53.223,71.777,52.246,0
1505864878.028,54.688,58.594,46.875,79.590,51.270,0
1505864878.032,49.805,50.293,59.570,76.660,40.039,0
1505864878.036,45.898,47.363,42.969,51.270,69.824,0
1505864878.040,53.711,56.152,58.105,57.617,91.309,0
1505864878.044,64.453,59.570,40.527,69.336,61.523,0
1505864878.048,67.871,64.941,15.625,75.684,48.340,0
1505864878.052,68.359,61.035,50.293,83.984,62.012,0
1505864878.056,65.918,49.316,65.430,77.637,90.332,0
1505864878.060,69.824,49.805,49.805,83.496,65.918,0
1505864878.063,72.266,58.594,16.602,78.613,51.758,0
1505864878.067,67.383,58.594,22.949,73.242,95.703,0
1505864878.071,72.266,55.664,76.172,92.773,103.027,0
1505864878.075,74.707,57.129,98.633,80.566,72.266,0
1505864878.079,67.871,55.176,85.938,69.336,70.312,0
1505864878.083,69.336,55.664,74.219,96.680,92.285,0
1505864878.087,73.242,55.176,39.062,95.215,101.074,0
1505864878.091,64.453,50.781,57.617,84.961,101.562,0
1505864878.095,62.988,54.688,73.730,96.191,72.754,0
1505864878.099,65.430,54.199,51.758,101.074,52.246,0
1505864878.103,65.918,53.223,72.754,87.891,72.266,0
1505864878.106,67.383,53.711,63.965,73.730,60.547,0
1505864878.110,64.941,50.293,39.551,77.637,44.434,0
1505864878.114,56.152,45.898,46.387,86.426,55.664,0
1505864878.118,46.875,34.180,40.527,89.355,52.246,0
1505864878.122,51.758,32.227,47.363,74.219,22.461,0
1505864878.126,49.316,36.621,11.230,70.801,29.297,0
1505864878.130,40.527,28.809,27.344,84.473,50.293,0
1505864878.134,49.316,28.809,91.309,87.891,12.695,0
1505864878.138,52.246,37.598,87.402,78.613,-8.301,0
1505864878.142,50.293,43.945,64.453,72.754,8.789,0
1505864878.145,50.781,43.457,51.270,70.801,32.715,0
1505864878.149,50.781,38.086,83.496,70.801,-6.348,0
1505864878.153,48.828,36.133,83.496,68.359,-47.852,0
1505864878.157,43.457,43.945,62.012,76.172,-14.160,0
1505864878.161,42.969,44.922,55.176,77.637,-26.855,0
1505864878.165,41.016,41.016,31.738,69.824,-42.969,0
1505864878.169,38.574,34.668,39.062,52.734,-41.016,0
1505864878.173,35.156,33.691,62.012,39.062,-31.250,0
1505864878.177,38.574,40.527,23.438,60.547,-51.270,0
1505864878.181,39.551,41.504,11.230,62.500,-80.566,0
1505864878.185,28.320,36.133,56.641,48.340,-34.180,0
1505864878.188,26.367,37.598,93.750,47.852,-3.906,0
1505864878.192,33.691,38.574,73.242,49.316,-48.828,0
1505864878.196,47.852,39.551,63.965,62.988,-57.129,0
1505864878.200,44.434,43.457,74.707,65.918,-35.645,0
1505864878.204,38.574,27.344,47.852,54.688,-55.176,0
1505864878.208,35.645,15.137,29.297,50.781,-78.613,0
1505864878.212,37.109,22.949,27.344,62.012,-69.336,0
1505864878.216,45.898,24.902,30.762,63.477,-48.828,0
1505864878.220,49.805,23.926,58.105,73.242,-51.758,0
1505864878.224,54.688,25.879,47.852,74.219,-55.176,0
1505864878.228,54.688,21.973,38.574,68.848,-48.828,0
1505864878.231,51.270,28.320,57.129,73.242,-64.453,0
1505864878.235,59.570,36.621,9.277,72.754,-56.152,0
1505864878.239,62.012,30.762,0.488,81.543,-38.574,0
1505864878.243,49.316,28.320,58.105,81.543,-44.922,0
1505864878.247,41.504,26.367,106.934,56.152,-42.480,0
1505864878.251,47.852,32.227,109.375,48.828,-26.367,0
1505864878.255,54.199,39.551,72.266,59.082,-53.711,0
1505864878.259,46.387,35.156,49.805,62.012,-80.566,0
1505864878.263,41.992,29.297,50.781,65.918,-31.250,0
1505864878.267,47.852,33.203,31.250,81.055,-21.484,0
1505864878.270,52.246,33.203,41.016,87.402,-40.039,0
1505864878.274,55.176,33.203,66.895,72.754,-42.480,0
1505864878.278,51.758,34.180,59.570,76.660,-33.691,0
1505864878.282,54.688,35.645,65.430,94.727,-28.320,0
1505864878.286,61.523,40.527,60.059,92.285,-39.062,0
1505864878.290,56.152,39.062,23.438,80.078,-25.391,0
1505864878.294,53.223,40.527,48.828,73.730,-5.371,0
1505864878.298,57.617,44.434,79.590,81.055,-28.809,0
1505864878.302,47.852,30.762,30.273,75.195,-57.617,0
1505864878.306,32.227,23.438,19.043,60.547,-17.578,0
1505864878.310,33.691,32.227,73.730,57.617,0.000,0
1505864878.313,37.598,33.691,57.129,57.617,-3.906,0
1505864878.317,31.250,26.855,25.879,55.176,-6.348,0
1505864878.321,23.438,26.367,55.664,53.223,-10.254,0
1505864878.325,22.949,25.391,54.688,49.316,-17.578,0
1505864878.329,24.414,23.438,39.062,52.734,-22.949,0
1505864878.333,21.973,23.438,46.875,72.266,-36.621,0
1505864878.337,21.484,24.902,44.434,43.945,-20.020,0
1505864878.341,22.949,32.715,47.852,36.621,3.906,0
1505864878.345,29.297,29.297,38.086,60.059,-43.945,0
1505864878.349,36.621,24.902,8.789,44.434,-22.949,0
1505864878.353,34.180,31.250,37.598,42.969,21.484,0
1505864878.356,30.762,28.809,40.039,55.176,19.043,0
1505864878.360,38.574,28.809,-9.766,60.059,29.785,0
1505864878.364,46.875,32.715,47.852,64.453,24.414,0
1505864878.368,41.992,21.484,71.289,61.523,17.578,0
1505864878.372,40.039,15.625,35.645,48.340,12.695,0
1505864878.376,36.133,20.508,43.945,46.875,-10.742,0
1505864878.380,44.922,34.668,60.059,53.711,-7.324,0
1505864878.384,52.246,35.645,62.012,80.078,13.672,0
1505864878.388,48.340,30.273,49.316,94.727,12.207,0
1505864878.392,51.758,34.180,42.480,73.730,2.441,0
1505864878.395,43.945,34.668,32.227,56.152,13.672,0
1505864878.399,44.922,32.715,54.688,45.898,14.160,0
1505864878.403,58.594,34.668,64.941,59.082,9.766,0
1505864878.407,53.711,37.598,21.973,69.336,22.461,0
1505864878.411,49.316,36.621,42.969,56.152,33.691,0
1505864878.415,59.082,43.945,70.312,64.941,24.902,0
1505864878.419,56.152,39.062,54.199,69.824,40.527,0
1505864878.423,48.340,23.438,34.180,83.496,53.223,0
1505864878.427,50.293,28.809,2.441,79.102,23.926,0
1505864878.431,48.828,41.504,37.109,66.406,32.227,0
1505864878.435,44.434,37.109,78.613,79.102,15.625,0
1505864878.438,38.086,27.344,84.961,74.219,2.930,0
1505864878.442,38.086,27.832,77.637,74.219,26.855,0
1505864878.446,38.574,28.809,71.289,60.547,15.137,0
1505864878.450,37.109,26.367,57.617,60.547,34.668,0
1505864878.454,35.156,26.367,31.738,85.938,31.250,0
1505864878.458,32.715,24.414,33.691,59.570,3.418,0
1505864878.462,35.156,22.461,17.578,45.898,10.742,0
1505864878.466,32.715,22.949,14.160,51.270,25.391,0
1505864878.470,34.668,24.414,21.484,50.781,9.277,0
1505864878.474,40.527,30.762,36.621,64.941,20.996,0
1505864878.478,40.039,32.715,47.852,65.430,16.602,0
1505864878.481,44.922,34.180,56.641,72.754,-7.812,0
1505864878.485,47.852,32.715,32.715,75.684,25.391,0
1505864878.489,30.273,24.414,-1.465,60.059,56.641,0
1505864878.493,25.879,27.344,61.035,65.430,54.199,0
1505864878.497,30.273,27.344,98.145,58.105,40.527,0
1505864878.501,32.227,29.785,78.613,46.387,46.387,0
1505864878.505,30.273,30.762,57.617,60.547,18.555,0
1505864878.509,24.902,29.785,53.223,64.941,32.227,0
1505864878.513,35.156,36.621,52.246,51.758,19.043,0
1505864878.517,39.551,40.527,28.809,57.617,26.855,0
1505864878.520,42.480,41.016,1.953,65.918,55.664,0
1505864878.524,52.734,39.551,17.578,55.176,18.555,0
1505864878.528,46.875,40.039,29.297,63.965,13.184,0
1505864878.532,39.551,42.969,48.340,69.336,45.898,0
1505864878.536,47.363,39.551,75.684,72.754,55.664,0
1505864878.540,39.551,30.762,68.848,63.477,34.668,0
1505864878.544,31.738,28.320,48.340,56.641,13.672,0
1505864878.548,40.527,33.203,35.645,71.289,52.246,0
1505864878.552,42.480,29.785,42.969,72.754,52.734,0
1505864878.556,42.480,24.902,41.992,63.965,46.387,0
1505864878.560,43.945,29.785,42.480,61.523,67.383,0
1505864878.563,37.598,25.391,33.203,52.734,49.316,0
1505864878.567,40.039,23.926,40.039,46.387,47.852,0
1505864878.571,45.898,33.203,52.246,59.082,37.109,0
1505864878.575,41.016,35.645,60.547,62.988,46.875,0
1505864878.579,41.504,38.086,60.059,68.848,91.309,0
1505864878.583,45.410,33.203,68.359,61.035,69.336,0
1505864878.587,46.875,34.668,71.777,54.688,56.152,0
1505864878.591,53.223,41.016,74.219,74.219,86.914,0
1505864878.595,57.129,37.109,85.449,87.891,79.590,0
1505864878.599,51.270,31.738,82.031,67.871,62.012,0
1505864878.603,51.758,29.297,62.500,51.758,62.012,0
1505864878.606,52.246,31.250,28.809,72.266,86.914,0
1505864878.610,48.340,27.832,29.785,66.895,72.266,0
1505864878.614,49.805,29.785,43.945,60.547,67.871,0
1505864878.618,46.387,30.762,65.918,71.777,69.336,0
1505864878.622,39.062,26.367,70.312,62.012,44.922,0
1505864878.626,38.574,32.715,43.945,56.641,61.523,0
1505864878.630,41.504,33.691,14.648,66.895,13.184,0
1505864878.634,36.133,29.297,14.160,74.707,4.395,0
1505864878.638,37.109,36.133,61.035,71.777,51.758,0
1505864878.642,41.992,36.621,79.590,72.754,46.875,0
1505864878.645,40.039,34.668,63.477,78.125,57.617,0
1505864878.649,46.387,33.203,50.781,70.801,63.965,0
1505864878.653,52.246,29.785,48.340,62.500,81.055,0
1505864878.657,45.898,40.527,61.523,68.848,87.402,0
1505864878.661,38.574,48.340,55.176,65.918,64.941,0
1505864878.665,39.062,48.828,47.852,59.082,41.504,0
1505864878.669,36.133,45.410,49.805,65.430,51.758,0
1505864878.673,38.086,42.480,55.176,67.871,86.426,0
1505864878.677,42.480,38.574,49.316,64.453,85.938,0
1505864878.681,43.945,37.109,47.363,66.895,60.547,0
1505864878.685,45.410,42.480,37.598,72.754,52.246,0
1505864878.688,41.992,32.715,32.227,78.125,44.434,0
1505864878.692,38.086,29.297,56.641,69.824,44.922,0
1505864878.696,41.992,34.668,51.758,53.223,67.383,0
1505864878.700,41.504,27.832,31.250,37.598,66.406,0
1505864878.704,45.898,35.156,44.434,59.082,53.711,0
1505864878.708,51.758,38.574,43.945,73.730,53.711,0
1505864878.712,41.504,28.320,6.348,70.312,74.707,0
1505864878.716,42.969,25.391,32.715,65.430,105.957,0
1505864878.720,61.035,31.250,71.289,80.078,71.777,0
1505864878.724,52.246,32.227,47.363,79.102,79.102,0
1505864878.728,33.691,25.391,32.715,59.570,131.348,0
1505864878.731,41.992,24.414,44.434,73.730,123.047,0
1505864878.735,44.434,24.902,46.875,69.336,106.445,0
1505864878.739,48.340,32.227,-2.441,57.129,110.352,0
1505864878.743,49.316,36.621,-38.086,65.918,151.855,0
1505864878.747,40.527,31.250,3.906,84.961,156.738,0
1505864878.751,32.715,20.996,57.617,83.496,121.094,0
1505864878.755,27.832,15.625,57.129,65.918,125.488,0
1505864878.759,21.973,18.066,10.742,63.477,147.461,0
1505864878.763,16.113,15.137,30.273,57.129,151.855,2
1505864878.767,23.926,15.137,49.316,48.828,141.602,0
1505864878.770,21.484,16.602,17.578,49.805,171.875,0
1505864878.774,16.113,11.230,15.137,47.852,198.730,0
1505864878.778,19.531,7.812,43.457,51.270,186.523,0
1505864878.782,20.020,13.184,41.504,64.453,178.223,0
1505864878.786,22.949,22.461,13.184,59.082,194.824,0
1505864878.790,33.691,29.785,2.930,64.941,180.176,0
1505864878.794,48.828,38.574,35.645,73.242,160.645,0
1505864878.798,58.105,40.527,27.832,70.801,167.969,0
1505864878.802,53.711,37.109,2.930,79.590,183.105,0
1505864878.806,32.715,26.367,50.293,71.777,175.781,0
1505864878.810,36.621,24.414,100.098,76.660,154.785,0
1505864878.813,54.199,38.574,83.496,102.051,168.945,0
1505864878.817,49.316,40.039,62.500,93.262,187.012,0
1505864878.821,55.176,45.898,56.641,98.145,195.801,0
1505864878.825,56.152,51.270,65.918,101.562,189.941,0
1505864878.829,49.805,45.410,64.941,88.379,200.195,0
1505864878.833,60.547,54.688,52.246,85.938,220.215,0
1505864878.837,56.641,55.664,22.461,83.008,197.266,0
1505864878.841,49.316,46.875,18.555,94.727,212.402,0
1505864878.845,47.363,43.457,31.250,96.680,218.262,0
1505864878.849,49.805,42.480,45.410,78.613,198.730,0
1505864878.853,60.059,48.340,30.762,78.125,182.617,0
1505864878.856,62.012,52.734,41.016,89.355,169.922,0
1505864878.860,58.594,44.922,94.238,99.121,168.945,0
1505864878.864,60.547,38.574,88.379,110.352,197.266,0
1505864878.868,63.965,32.715,101.562,105.957,171.387,0
1505864878.872,69.336,45.898,45.898,106.445,132.324,0
1505864878.876,67.383,64.941,22.461,111.816,145.508,0
1505864878.880,66.895,69.336,115.234,104.980,146.973,0
1505864878.884,67.383,68.359,118.652,93.262,153.320,0
1505864878.888,54.688,58.594,80.078,74.707,156.250,0
1505864878.892,49.316,50.781,54.688,75.684,173.828,0
1505864878.895,49.805,45.898,38.574,95.703,156.250,0
1505864878.899,51.270,41.504,62.500,96.680,93.750,0
1505864878.903,51.270,42.969,65.918,75.195,95.215,0
1505864878.907,50.293,43.457,44.434,69.824,129.395,0
1505864878.911,49.316,44.434,73.242,73.730,116.699,0
1505864878.915,50.293,45.898,68.359,76.660,106.445,0
1505864878.919,56.641,48.828,53.711,89.844,74.707,0
1505864878.923,48.340,44.922,56.641,78.613,87.402,0
1505864878.927,48.340,40.527,72.754,75.195,106.934,0
1505864878.931,58.594,44.434,64.941,95.215,59.570,0
1505864878.935,50.293,43.945,50.293,92.285,81.055,0
1505864878.938,42.969,43.945,48.340,79.102,100.098,0
1505864878.942,48.828,46.387,31.738,84.961,86.914,0
1505864878.946,48.340,42.480,55.664,89.355,89.355,0
1505864878.950,45.898,42.969,59.570,78.125,83.496,0
1505864878.954,46.875,40.039,37.109,64.453,85.938,0
1505864878.958,45.410,35.645,43.945,67.383,72.266,0
1505864878.962,43.945,38.086,63.477,69.336,26.855,0
1505864878.966,48.340,38.086,68.848,74.707,33.203,0
1505864878.970,46.875,37.598,51.270,73.242,52.734,0
1505864878.974,47.852,45.898,24.414,76.660,57.129,0
1505864878.978,57.617,48.340,43.457,95.703,29.297,0
1505864878.981,49.316,45.898,56.152,84.473,17.578,0
1505864878.985,49.316,43.945,72.266,70.801,43.457,0
1505864878.989,60.547,47.363,95.703,87.402,3.418,0
1505864878.993,56.641,52.734,80.566,78.613,5.371,0
1505864878.997,48.828,46.387,69.336,69.336,41.504,0
1505864879.001,48.340,37.598,43.945,63.477,50.781,0
1505864879.005,54.199,38.574,21.973,70.312,53.223,0
1505864879.009,58.594,46.387,11.230,90.332,20.996,0
1505864879.013,57.129,45.410,46.875,68.359,24.902,0
1505864879.017,55.176,41.016,104.004,70.801,41.016,0
1505864879.020,63.965,42.480,89.355,84.473,33.691,0
1505864879.024,69.824,53.711,44.434,68.848,47.363,0
1505864879.028,54.199,46.875,57.617,74.707,54.199,0
1505864879.032,50.781,35.645,27.344,71.289,38.086,0
1505864879.036,58.105,41.992,21.484,52.734,29.785,0
1505864879.040,56.641,42.480,91.309,61.523,15.625,0
1505864879.044,59.570,44.922,80.566,70.801,38.574,0
1505864879.048,65.430,39.551,69.824,71.289,24.414,0
1505864879.052,62.988,34.668,70.312,65.918,10.742,0
1505864879.056,61.523,37.598,63.477,60.059,38.574,0
1505864879.060,61.523,37.109,76.660,68.359,58.105,0
1505864879.063,58.105,36.133,71.777,80.078,32.227,0
1505864879.067,52.246,35.156,25.391,72.266,1.465,0
1505864879.071,46.387,33.691,14.160,62.500,37.109,0
1505864879.075,46.875,42.480,60.059,51.270,41.504,0
1505864879.079,41.504,39.062,68.848,49.316,33.203,0
1505864879.083,41.504,31.250,45.898,51.270,15.625,0
1505864879.087,43.945,40.527,56.641,43.945,22.949,0
1505864879.091,43.945,43.457,82.520,56.641,42.969,0
1505864879.095,42.480,36.621,59.570,71.777,20.996,0
1505864879.099,36.133,33.691,55.176,61.523,11.719,0
1505864879.103,44.434,34.668,78.613,45.410,48.340,0
1505864879.106,56.152,41.504,78.613,61.523,38.574,0
1505864879.110,56.641,47.852,75.195,73.242,21.484,0
1505864879.114,56.641,41.504,63.477,59.570,16.113,0
1505864879.118,57.617,36.133,15.137,55.176,24.902,0
1505864879.122,59.082,32.715,-12.207,56.641,25.391,0
1505864879.126,58.105,42.480,32.227,64.941,24.902,0
1505864879.130,61.523,55.664,47.852,71.289,27.832,0
1505864879.134,58.105,39.062,47.363,68.359,50.781,0
1505864879.138,49.805,34.668,82.031,70.312,27.832,0
1505864879.142,36.133,38.574,68.848,59.082,-13.672,0
1505864879.145,38.086,39.551,54.199,50.781,-11.719,0
1505864879.149,44.434,40.527,62.012,50.781,13.184,0
1505864879.153,41.504,32.715,53.223,50.293,26.367,0
1505864879.157,47.852,31.738,54.199,54.199,6.348,0
1505864879.161,56.152,39.551,60.547,56.641,-5.371,0
1505864879.165,53.223,36.133,47.363,61.035,9.277,0
1505864879.169,48.828,33.203,34.180,68.359,22.461,0
1505864879.173,44.922,33.691,46.875,47.852,28.320,0
1505864879.177,46.387,30.762,72.266,49.316,35.645,0
1505864879.181,61.035,35.645,48.340,65.918,0.000,0
1505864879.185,59.570,36.621,9.277,71.289,-15.625,0
1505864879.188,46.387,33.691,43.457,78.125,-11.719,0
1505864879.192,48.340,38.086,71.777,63.477,25.391,0
1505864879.196,51.758,38.574,47.363,57.129,21.484,0
1505864879.200,51.270,33.691,33.203,59.082,9.277,0
1505864879.204,59.082,40.039,52.246,59.082,50.781,0
1505864879.208,57.129,45.898,62.500,63.965,28.809,0
1505864879.212,51.270,44.922,24.902,59.570,25.391,0
1505864879.216,46.387,41.504,2.930,56.641,53.711,0
1505864879.220,49.316,45.410,46.875,65.918,58.105,0
1505864879.224,50.781,46.875,56.152,62.500,34.668,0
1505864879.228,38.086,35.156,53.223,45.410,6.836,0
1505864879.231,41.504,39.062,37.109,64.941,11.230,0
1505864879.235,44.434,50.293,34.180,69.824,41.504,0
1505864879.239,40.039,49.316,72.266,68.848,51.270,0
1505864879.243,46.875,39.062,73.730,70.312,32.715,0
1505864879.247,63.477,40.527,50.293,55.176,3.418,0
1505864879.251,50.293,36.621,41.016,41.504,-7.324,0
1505864879.255,29.785,31.250,40.039,36.621,16.602,0
1505864879.259,34.180,41.016,35.645,54.688,30.762,0
1505864879.263,32.715,38.574,33.691,58.105,34.180,3
1505864879.267,30.273,31.250,40.039,39.551,20.996,0
1505864879.270,35.645,30.273,41.992,38.086,5.371,0
1505864879.274,36.621,31.738,56.152,48.828,17.578,0
1505864879.278,24.902,28.320,55.664,51.758,23.926,0
1505864879.282,22.461,34.180,37.109,54.199,32.227,0
1505864879.286,41.016,39.062,33.203,48.828,25.879,0
1505864879.290,36.133,30.762,36.133,36.621,-0.488,0
1505864879.294,34.668,33.203,41.016,46.875,-5.859,0
1505864879.298,46.875,38.086,48.828,55.664,27.344,0
1505864879.302,35.156,25.879,62.012,57.617,27.832,0
1505864879.306,22.461,18.555,34.668,58.105,9.766,0
1505864879.310,26.855,27.832,34.180,46.875,23.926,0
1505864879.313,35.156,24.414,46.387,50.293,20.508,0
1505864879.317,40.039,20.020,33.691,70.312,15.625,0
1505864879.321,39.062,28.809,57.617,62.012,-5.371,0
1505864879.325,34.668,36.621,89.844,44.434,-27.832,0
1505864879.329,34.180,41.992,77.148,53.223,5.371,0
1505864879.333,49.805,41.992,47.363,73.730,-16.113,0
1505864879.337,59.082,28.320,46.387,86.914,-20.508,0
1505864879.341,50.293,23.438,57.617,68.359,15.625,0
1505864879.345,51.758,27.832,50.781,55.664,12.695,0
1505864879.349,48.340,27.832,49.805,73.730,-0.488,0
1505864879.353,56.641,34.180,54.199,79.102,-8.789,0
1505864879.356,47.363,25.879,22.949,56.152,4.883,0
1505864879.360,40.527,23.926,0.000,65.430,5.371,0
1505864879.364,50.781,31.250,30.273,79.102,1.465,0
1505864879.368,39.062,30.273,62.988,71.289,-34.180,0
1505864879.372,41.992,28.809,46.387,69.336,-19.043,0
1505864879.376,48.828,30.273,32.715,56.152,20.020,0
1505864879.380,42.480,26.367,48.340,56.152,-22.461,0
1505864879.384,33.691,17.578,30.273,66.406,-25.391,0
1505864879.388,46.875,26.367,2.441,76.660,-5.371,0
1505864879.392,50.293,30.762,29.785,57.129,-48.828,0
1505864879.395,25.879,18.555,41.504,18.066,-54.688,0
1505864879.399,30.273,15.137,24.414,44.922,-8.301,0
1505864879.403,54.199,25.391,5.371,62.500,2.930,0
1505864879.407,65.918,31.250,-5.859,50.781,-19.531,0
1505864879.411,67.383,36.133,4.395,66.895,-36.621,0
1505864879.415,54.688,34.668,30.762,63.477,-8.301,0
1505864879.419,46.875,34.668,21.973,59.082,-4.883,0
1505864879.423,46.387,33.203,27.344,57.129,-31.738,0
1505864879.427,51.270,28.320,45.410,62.012,-25.879,0
1505864879.431,51.270,25.391,37.109,61.523,1.465,0
1505864879.435,46.875,25.879,34.180,71.777,-7.812,0
1505864879.438,44.434,27.344,40.039,78.613,-35.156,0
1505864879.442,53.223,34.668,60.547,60.547,-21.484,0
1505864879.446,64.453,36.133,0.977,50.781,-1.465,0
1505864879.450,60.059,32.227,-25.879,44.922,-29.297,0
1505864879.454,42.480,26.855,60.059,64.453,-40.527,0
1505864879.458,40.527,41.016,87.402,81.055,-30.762,0
1505864879.462,50.293,38.574,45.898,68.359,-11.719,0
1505864879.466,49.316,20.020,17.578,76.660,13.672,0
1505864879.470,57.129,20.996,39.551,85.938,-11.719,0
1505864879.474,57.617,20.996,73.242,67.871,-26.367,0
1505864879.478,56.152,27.832,49.316,74.707,0.977,0
1505864879.481,43.945,18.066,26.855,86.914,-4.883,0
1505864879.485,44.434,4.395,42.480,66.406,5.859,0
1505864879.489,37.598,10.742,33.691,63.477,12.207,0
1505864879.493,31.250,20.020,-5.859,74.707,8.301,0
1505864879.497,55.176,24.902,15.137,88.867,2.441,0
1505864879.501,65.918,27.344,74.707,97.656,-2.930,0
1505864879.505,62.012,21.973,64.941,91.309,6.348,0
1505864879.509,60.059,20.508,58.594,88.867,16.602,0
1505864879.513,57.129,29.785,9.766,94.727,0.488,0
1505864879.517,50.781,18.555,0.977,80.566,-28.809,0
1505864879.520,52.734,10.742,17.090,72.754,3.418,0
1505864879.524,57.617,15.625,5.371,71.777,36.133,0
1505864879.528,67.383,32.227,62.012,79.590,7.812,0
1505864879.532,69.824,42.969,80.566,84.473,1.465,0
1505864879.536,59.082,30.273,46.875,73.730,30.273,0
1505864879.540,56.152,20.020,14.648,86.426,15.137,0
1505864879.544,65.918,29.297,14.160,95.703,11.230,0
1505864879.548,66.406,24.414,12.695,79.590,28.809,0
1505864879.552,60.547,13.672,38.086,71.289,23.438,0
1505864879.556,55.664,18.555,60.547,76.660,19.531,0
1505864879.560,60.547,24.902,63.965,77.148,-14.160,0
1505864879.563,59.082,25.879,40.527,67.871,-23.926,0
1505864879.567,47.363,30.273,17.578,77.637,11.719,0
1505864879.571,46.387,29.785,38.574,79.102,8.789,0
1505864879.575,45.898,13.672,13.184,52.246,-2.930,0
1505864879.579,57.129,21.484,-20.508,60.059,16.602,0
1505864879.583,70.312,32.715,37.109,68.359,36.621,0
1505864879.587,60.547,28.809,79.590,63.965,39.551,0
1505864879.591,56.641,23.926,71.289,66.406,27.344,0
1505864879.595,46.387,28.809,63.965,77.148,16.602,0
1505864879.599,32.715,34.668,50.293,96.680,7.812,0
1505864879.603,39.062,30.762,49.316,79.102,3.418,0
1505864879.606,46.387,32.715,40.527,59.570,10.742,0
1505864879.610,45.898,40.527,-6.836,79.590,33.203,0
1505864879.614,50.781,34.180,12.695,75.684,39.551,0
1505864879.618,45.898,21.973,49.805,44.922,9.277,0
1505864879.622,33.203,24.414,26.367,59.082,-1.465,0
1505864879.626,48.340,36.133,14.648,70.312,15.137,0
1505864879.630,55.664,35.156,37.598,51.270,5.859,0
1505864879.634,40.527,38.086,65.918,62.988,9.766,0
1505864879.638,35.156,31.738,72.266,69.824,16.113,0
1505864879.642,36.621,19.531,52.734,65.430,25.879,0
1505864879.645,42.480,27.832,43.457,62.012,13.184,0
1505864879.649,45.898,23.926,39.551,57.617,-1.465,0
1505864879.653,34.668,14.160,23.926,53.711,3.418,0
1505864879.657,29.785,14.160,36.133,40.527,8.301,0
1505864879.661,51.758,28.809,54.688,50.781,20.996,0
1505864879.665,63.477,36.621,46.387,68.359,-9.277,0
1505864879.669,42.480,24.414,13.184,62.500,-12.695,0
1505864879.673,36.621,15.137,52.246,43.945,17.578,0
1505864879.677,46.387,19.043,73.730,50.293,19.043,0
1505864879.681,30.273,13.672,42.969,54.688,31.250,0
1505864879.685,27.832,5.371,48.828,35.645,12.207,0
1505864879.688,35.156,8.789,45.898,35.645,-12.695,0
1505864879.692,32.227,15.137,2.441,37.109,-20.508,0
1505864879.696,37.109,20.020,20.508,45.898,-29.297,0
1505864879.700,42.480,38.574,4.395,58.105,-11.230,0
1505864879.704,36.621,29.297,-43.457,53.711,20.020,0
1505864879.708,33.691,1.465,20.020,62.988,5.859,0
1505864879.712,27.832,9.766,81.543,62.988,-21.484,0
1505864879.716,21.973,24.902,77.637,53.223,0.977,0
1505864879.720,33.691,19.043,56.152,41.992,22.461,0
1505864879.724,45.410,4.883,14.648,29.297,36.621,0
1505864879.728,48.340,13.672,10.254,30.273,-3.906,0
1505864879.731,30.273,24.414,58.105,48.340,-1.465,0
1505864879.735,30.762,22.949,41.992,71.289,15.137,0
1505864879.739,38.574,14.160,25.879,67.871,-1.465,0
1505864879.743,35.156,11.719,31.738,43.945,17.578,0
1505864879.747,34.180,25.391,23.926,43.457,27.344,0
1505864879.751,15.137,12.695,-5.859,41.016,35.645,0
1505864879.755,19.043,3.418,0.977,57.129,4.395,0
1505864879.759,28.320,13.184,32.715,49.805,-3.418,0
1505864879.763,33.691,11.719,20.996,36.621,34.180,4
1505864879.767,48.828,11.719,18.066,61.035,16.602,0
1505864879.770,36.133,16.602,10.254,55.664,-0.977,0
1505864879.774,16.113,26.855,23.438,44.434,-5.859,0
1505864879.778,10.742,18.555,69.824,37.598,10.742,0
1505864879.782,4.395,5.371,66.895,22.461,20.996,0
1505864879.786,11.230,8.789,30.273,41.504,25.391,0
1505864879.790,28.809,26.855,18.555,65.918,32.715,0
1505864879.794,21.484,27.832,-3.418,50.781,16.113,0
1505864879.798,15.137,21.973,-19.043,46.875,5.859,0
1505864879.802,10.742,29.297,-0.977,52.246,6.836,0
1505864879.806,-0.977,20.020,28.320,26.367,32.227,0
1505864879.810,13.672,22.949,14.648,35.156,47.363,0
1505864879.813,34.668,24.902,-10.254,47.363,24.902,0
1505864879.817,35.645,30.762,21.484,57.129,33.203,0
1505864879.821,24.902,34.180,51.270,53.711,53.223,0
1505864879.825,37.598,31.738,53.711,63.965,54.199,0
1505864879.829,41.992,35.156,30.273,73.242,26.855,0
1505864879.833,16.602,26.855,3.906,44.434,15.137,0
1505864879.837,10.254,17.578,-22.461,45.410,44.434,0
1505864879.841,16.602,11.719,-27.832,36.621,67.383,0
1505864879.845,36.621,16.113,47.363,33.203,48.340,0
1505864879.849,32.227,17.578,61.523,43.945,24.902,0
1505864879.853,8.789,16.602,17.578,41.992,69.824,0
1505864879.856,38.574,27.344,32.227,58.105,62.500,0
1505864879.860,46.875,19.531,16.602,49.805,52.734,0
1505864879.864,18.066,13.184,-12.207,44.434,62.988,0
1505864879.868,4.395,19.043,-7.324,35.156,55.664,0
1505864879.872,28.809,28.320,12.695,32.715,75.195,0
1505864879.876,54.199,25.879,44.434,47.852,56.641,0
1505864879.880,49.316,11.230,2.441,58.594,25.391,0
1505864879.884,40.527,14.160,-5.371,44.434,30.273,0
1505864879.888,41.992,18.066,35.156,38.086,38.574,0
1505864879.892,44.434,18.066,51.758,45.898,36.133,0
1505864879.895,20.996,16.113,37.109,45.898,28.809,0
1505864879.899,4.395,13.672,11.719,39.551,45.410,0
1505864879.903,16.602,8.789,5.859,41.504,46.387,0
1505864879.907,17.578,15.137,16.602,37.598,41.016,0
1505864879.911,4.883,9.766,20.996,28.809,76.172,0
1505864879.915,7.812,-4.395,25.391,35.645,70.801,0
1505864879.919,16.113,2.930,8.789,29.785,75.195,0
1505864879.923,14.648,10.742,4.395,30.762,82.520,0
1505864879.927,10.254,-0.977,-34.668,37.109,68.359,0
1505864879.931,7.324,-9.766,-81.055,50.293,71.777,0
1505864879.935,18.066,13.184,-4.395,59.570,68.359,0
1505864879.938,14.160,10.742,2.930,47.852,55.664,0
1505864879.942,6.348,-4.883,-5.371,14.160,63.965,0
1505864879.946,16.113,-0.977,27.832,3.418,58.105,0
1505864879.950,6.836,3.906,19.531,29.297,36.133,0
1505864879.954,19.043,8.789,38.086,26.855,60.547,0
1505864879.958,30.762,6.836,39.551,28.320,79.102,0
1505864879.962,7.324,5.859,0.977,30.762,41.016,0
1505864879.966,12.695,14.160,-6.348,43.945,26.367,0
1505864879.970,50.293,28.809,3.418,70.801,55.176,0
1505864879.974,58.594,43.457,12.695,83.008,85.938,0
1505864879.978,59.570,49.316,71.289,86.914,64.453,0
1505864879.981,63.965,42.480,79.102,86.426,17.578,0
1505864879.985,58.594,41.016,42.969,77.637,48.340,0
1505864879.989,61.523,45.410,33.203,83.984,61.523,0
1505864879.993,71.289,48.340,46.875,97.656,54.688,0
1505864879.997,71.289,47.363,50.293,85.938,58.105,0
1505864880.001,46.875,48.828,38.574,60.059,83.008,0
1505864880.005,47.852,49.805,51.758,64.941,80.566,0
1505864880.009,52.734,41.504,52.246,82.031,74.219,0
1505864880.013,44.434,43.945,11.719,82.031,55.664,0
1505864880.017,62.012,52.246,-14.160,74.707,42.969,0
1505864880.020,42.969,39.551,-2.441,76.172,48.828,0
1505864880.024,34.668,30.762,50.781,92.285,40.527,0
1505864880.028,48.828,30.762,71.777,69.336,28.320,0
1505864880.032,28.320,24.902,42.969,42.969,26.855,0
1505864880.036,29.785,22.461,46.387,50.293,41.992,0
1505864880.040,39.551,23.438,67.871,52.734,37.109,0
1505864880.044,20.996,25.391,36.133,49.316,72.266,0
1505864880.048,10.742,25.879,-10.742,53.223,252.930,0
1505864880.052,22.461,26.367,18.555,61.523,494.629,0
1505864880.056,40.527,26.367,28.320,41.992,689.453,0
1505864880.060,50.293,30.273,-7.812,35.645,834.473,0
1505864880.063,52.246,34.668,13.184,49.316,946.777,0
1505864880.067,48.828,34.180,45.410,70.312,973.145,0
1505864880.071,33.203,33.691,39.062,64.453,964.355,0
1505864880.075,49.805,43.457,28.320,70.312,961.426,0
1505864880.079,58.594,42.969,17.090,79.102,931.152,0
1505864880.083,51.270,30.762,16.113,66.406,873.047,0
1505864880.087,43.457,25.391,26.855,74.219,818.848,0
1505864880.091,37.109,21.484,-28.320,66.406,804.199,0
1505864880.095,54.199,32.227,-50.781,66.406,766.602,0
1505864880.099,57.617,40.039,60.059,89.844,713.867,0
1505864880.103,44.434,25.391,71.289,61.035,673.340,0
1505864880.106,40.527,23.438,47.363,46.875,643.555,0
1505864880.110,34.668,34.668,67.871,69.336,610.352,0
1505864880.114,40.527,35.156,58.594,71.777,557.129,0
1505864880.118,44.434,27.344,34.668,68.848,502.441,0
1505864880.122,31.250,24.414,8.789,64.941,496.094,0
1505864880.126,37.598,25.391,15.625,72.266,477.051,0
1505864880.130,50.293,27.832,48.340,80.566,389.160,0
1505864880.134,50.293,35.156,48.828,85.938,346.191,0
1505864880.138,39.551,25.391,-4.883,70.312,364.746,0
1505864880.142,28.809,12.695,10.254,51.758,328.613,0
1505864880.145,34.180,27.832,60.059,69.336,297.852,0
1505864880.149,39.062,24.902,24.414,74.707,315.918,0
1505864880.153,33.691,9.766,5.371,60.059,308.594,0
1505864880.157,43.945,18.555,49.805,65.430,273.438,0
1505864880.161,43.457,23.926,52.246,66.895,229.004,0
1505864880.165,37.109,18.066,30.273,64.453,221.680,0
1505864880.169,37.598,20.020,28.320,74.219,216.797,0
1505864880.173,40.527,22.949,30.273,73.730,206.055,0
1505864880.177,40.527,21.973,29.785,64.453,187.012,0
1505864880.181,32.715,17.090,-6.836,53.223,186.523,0
1505864880.185,37.109,17.090,-41.992,62.988,191.406,0
1505864880.188,40.039,16.113,-11.230,70.801,142.578,0
1505864880.192,32.715,14.648,36.621,75.195,116.699,0
1505864880.196,27.832,22.949,13.672,66.406,137.207,0
1505864880.200,29.297,20.996,-1.465,42.480,138.672,0
1505864880.204,30.273,11.719,48.828,56.152,164.062,0
1505864880.208,24.414,13.672,63.965,72.266,147.461,0
1505864880.212,23.438,21.484,15.137,66.406,121.582,0
1505864880.216,17.578,17.578,28.320,51.270,145.508,0
1505864880.220,20.508,11.230,66.406,55.176,92.285,0
1505864880.224,12.695,10.742,21.973,58.594,93.262,0
1505864880.228,10.254,15.625,12.695,39.062,130.371,0
1505864880.231,17.578,13.672,28.320,42.480,106.445,0
1505864880.235,26.367,7.812,44.922,57.129,80.078,0
1505864880.239,37.598,19.531,39.551,62.012,68.848,0
1505864880.243,33.691,21.484,20.508,63.965,75.684,0
1505864880.247,23.926,15.625,41.016,61.523,82.520,0
1505864880.251,30.273,18.555,29.297,65.918,87.891,0
1505864880.255,30.762,20.996,32.715,60.059,101.562,0
1505864880.259,25.391,20.020,48.340,43.457,107.422,0
1505864880.263,34.180,21.484,34.668,46.875,84.473,5
1505864880.267,32.715,24.902,31.250,59.082,69.336,0
1505864880.270,25.879,28.320,35.156,53.223,91.797,0
1505864880.274,35.156,28.320,20.996,44.434,94.727,0
1505864880.278,38.574,21.973,37.598,43.457,63.965,0
1505864880.282,36.133,21.484,38.086,39.062,79.102,0
1505864880.286,31.250,23.438,2.441,34.668,102.051,0
1505864880.290,23.438,20.508,7.812,37.109,83.984,0
1505864880.294,20.508,20.508,34.668,43.457,82.520,0
1505864880.298,18.555,16.113,31.738,44.434,86.426,0
1505864880.302,26.367,20.996,35.156,51.270,62.012,0
1505864880.306,25.391,34.180,31.250,46.875,63.477,0
1505864880.310,23.438,34.668,13.672,36.133,37.598,0
1505864880.313,22.461,30.273,38.574,34.668,29.297,0
1505864880.317,26.367,31.738,24.902,36.621,75.684,0
1505864880.321,21.973,27.344,43.945,36.133,88.867,0
1505864880.325,16.113,20.020,82.031,32.227,83.984,0
1505864880.329,17.090,18.555,69.824,37.109,60.059,0
1505864880.333,20.996,21.973,40.527,38.574,77.637,0
1505864880.337,34.180,31.738,52.734,50.293,72.266,0
1505864880.341,28.320,25.391,75.195,38.574,44.922,0
1505864880.345,17.578,14.160,61.035,21.484,71.777,0
1505864880.349,26.367,17.578,50.293,32.715,65.918,0
1505864880.353,29.297,19.531,7.324,53.711,42.969,0
1505864880.356,29.785,24.414,20.508,39.551,1.465,0
1505864880.360,35.645,36.621,90.332,28.809,19.043,0
1505864880.364,48.828,45.898,91.797,58.594,60.059,0
1505864880.368,54.199,46.875,60.547,72.754,62.500,0
1505864880.372,50.293,48.340,52.246,76.660,70.801,0
1505864880.376,48.828,54.199,69.824,72.266,40.527,0
1505864880.380,54.199,55.176,84.473,62.012,48.340,0
1505864880.384,51.270,51.758,65.918,67.871,38.574,0
1505864880.388,49.316,47.852,14.648,78.613,24.902,0
1505864880.392,46.387,39.551,16.602,64.941,57.129,0
1505864880.395,34.668,34.180,40.527,61.523,25.391,0
1505864880.399,32.715,31.738,47.852,50.781,-11.230,0
1505864880.403,36.133,33.203,71.289,51.758,-21.484,0
1505864880.407,33.203,33.203,64.941,73.730,11.230,0
1505864880.411,27.344,27.344,41.504,65.430,15.625,0
1505864880.415,30.762,30.273,6.836,47.852,-13.672,0
1505864880.419,37.598,34.668,-1.953,52.246,-13.672,0
1505864880.423,43.945,36.133,23.438,73.242,-8.301,0
1505864880.427,44.434,36.133,33.691,78.613,0.488,0
1505864880.431,44.434,35.156,-4.883,67.871,-9.277,0
1505864880.435,50.293,33.203,-41.504,70.312,7.812,0
1505864880.438,51.758,29.297,16.602,67.383,8.789,0
1505864880.442,48.828,26.855,18.555,71.777,-34.668,0
1505864880.446,49.316,28.809,12.207,77.637,-37.109,0
1505864880.450,45.410,31.738,18.066,55.176,-23.926,0
1505864880.454,40.039,27.344,-10.254,50.293,-6.836,0
1505864880.458,40.039,25.879,5.859,48.828,-38.574,0
1505864880.462,40.527,35.156,18.066,57.617,-41.504,0
1505864880.466,38.086,36.133,-14.160,69.336,-18.066,0
1505864880.470,44.922,38.574,-6.836,62.500,-26.367,0
1505864880.474,50.293,42.969,17.090,56.641,-45.410,0
1505864880.478,47.852,36.621,-0.488,47.852,-38.574,0
1505864880.481,48.828,38.574,-16.113,46.875,6.836,0
1505864880.485,47.852,41.016,8.301,58.594,0.000,0
1505864880.489,45.410,41.992,20.996,62.988,-39.062,0
1505864880.493,41.504,40.527,-4.395,62.500,-51.270,0
1505864880.497,39.551,34.180,21.484,69.336,-71.289,0
1505864880.501,38.574,30.273,31.250,61.523,-61.523,0
1505864880.505,41.016,27.344,16.113,54.688,-80.078,0
1505864880.509,40.039,33.691,16.602,66.895,-78.613,0
1505864880.513,35.645,37.598,-11.230,71.289,-50.293,0
1505864880.517,39.551,41.992,15.625,75.195,-73.730,0
1505864880.520,45.898,33.203,28.809,55.176,-88.867,0
1505864880.524,40.527,24.414,16.113,37.109,-80.078,0
1505864880.528,32.227,32.227,34.180,43.457,-65.918,0
1505864880.532,34.668,33.203,25.391,44.922,-72.266,0
1505864880.536,40.527,32.227,1.953,57.129,-69.824,0
1505864880.540,41.016,36.621,15.625,67.871,-79.102,0
1505864880.544,42.480,39.062,45.410,83.008,-67.383,0
1505864880.548,44.434,35.645,43.457,75.195,-60.059,0
1505864880.552,47.363,34.668,1.953,56.152,-91.309,0
1505864880.556,41.504,36.133,15.137,54.199,-71.777,0
1505864880.560,37.109,32.227,34.668,62.500,-74.707,0
1505864880.563,42.969,24.902,18.066,67.383,-104.492,0
1505864880.567,44.434,21.973,13.184,65.430,-73.242,0
1505864880.571,41.992,25.391,11.230,69.336,-52.246,0
1505864880.575,42.480,30.762,45.410,64.453,-55.176,0
1505864880.579,43.457,31.250,28.809,54.199,-66.406,0
1505864880.583,44.434,33.691,6.348,60.547,-89.844,0
1505864880.587,43.457,33.203,42.480,61.035,-82.520,0
1505864880.591,39.551,33.203,66.895,54.688,-89.355,0
1505864880.595,48.340,42.480,35.645,67.383,-103.516,0
1505864880.599,43.945,40.039,13.184,56.152,-104.004,0
1505864880.603,41.016,35.645,46.875,51.758,-77.637,0
1505864880.606,39.062,31.738,66.406,55.664,-92.773,0
1505864880.610,37.598,35.645,26.855,58.594,-102.051,0
1505864880.614,36.133,36.133,3.418,62.500,-71.289,0
1505864880.618,30.762,29.785,48.828,51.758,-48.340,0
1505864880.622,39.551,31.250,60.059,58.105,-59.082,0
1505864880.626,33.203,24.414,46.875,62.500,-59.082,0
1505864880.630,39.062,24.902,51.270,57.129,-59.570,0
1505864880.634,41.504,28.809,41.504,51.270,-53.711,0
1505864880.638,41.016,29.785,3.906,59.570,-73.730,0
1505864880.642,43.457,32.715,30.273,63.965,-118.652,0
1505864880.645,43.457,41.016,66.406,72.266,-109.375,0
1505864880.649,50.293,40.527,41.992,74.707,-92.773,0
1505864880.653,55.664,34.668,29.785,69.336,-95.703,0
1505864880.657,53.223,38.086,43.457,82.520,-83.496,0
1505864880.661,53.223,39.062,79.102,80.078,-67.871,0
1505864880.665,51.270,35.156,78.125,66.895,-82.520,0
1505864880.669,53.711,38.574,59.570,72.266,-86.426,0
1505864880.673,54.688,36.133,56.641,76.660,-75.195,0
1505864880.677,50.293,31.738,24.414,62.012,-64.453,0
1505864880.681,53.711,38.086,39.062,60.547,-53.711,0
1505864880.685,48.340,35.645,33.203,75.684,-62.500,0
1505864880.688,41.016,31.250,12.695,73.242,-74.219,0
1505864880.692,36.621,35.156,31.738,59.570,-59.082,0
1505864880.696,38.086,33.203,5.859,58.594,-47.852,0
1505864880.700,39.551,30.762,5.859,52.734,-60.059,0
1505864880.704,27.832,29.785,57.129,67.383,-68.848,0
1505864880.708,25.879,33.691,67.383,80.078,-38.574,0
1505864880.712,32.715,35.156,60.059,60.059,-40.039,0
1505864880.716,27.832,26.855,53.711,62.500,-59.082,0
1505864880.720,20.508,21.484,32.715,61.035,-25.391,0
1505864880.724,27.344,24.414,36.621,49.316,-37.109,0
1505864880.728,42.480,34.668,49.316,74.707,-57.617,0
1505864880.731,41.016,31.250,29.785,74.707,-67.383,0
1505864880.735,35.645,29.297,15.137,58.105,-66.895,0
1505864880.739,40.527,31.738,36.133,78.613,-62.012,0
1505864880.743,41.992,28.809,40.039,86.914,-60.547,0
1505864880.747,37.109,30.762,54.688,84.961,-31.738,0
1505864880.751,34.180,29.297,56.152,78.125,-62.988,0
1505864880.755,35.645,23.926,35.645,71.289,-62.012,0
1505864880.759,37.109,23.926,60.547,73.242,-41.016,0
1505864880.763,41.504,32.227,45.410,72.754,-69.336,0
1505864880.767,40.527,35.645,54.199,75.684,-40.039,0
1505864880.770,37.109,29.785,80.566,74.219,-28.320,0
1505864880.774,40.527,33.203,69.336,83.984,-62.500,0
1505864880.778,41.992,37.598,94.238,99.609,-52.734,0
1505864880.782,45.410,42.480,105.469,92.773,-32.227,0
1505864880.786,55.176,48.828,49.805,88.379,-43.945,0
1505864880.790,52.734,41.992,24.414,90.820,-34.668,0
1505864880.794,41.016,37.109,64.453,79.102,-42.480,0
1505864880.798,37.109,35.645,70.801,89.844,-55.176,0
1505864880.802,43.457,35.645,55.664,90.332,-49.316,0
1505864880.806,45.898,43.945,16.113,83.984,-35.156,0
1505864880.810,41.992,45.898,36.133,100.098,-62.012,0
1505864880.813,46.387,46.387,67.383,100.098,-58.594,0
1505864880.817,45.410,40.039,71.777,82.031,-28.320,0
1505864880.821,37.109,36.621,53.223,67.383,-49.316,0
1505864880.825,37.109,40.527,38.574,78.613,-44.922,0
1505864880.829,36.621,40.039,41.992,66.406,-26.855,0
1505864880.833,40.039,42.480,30.762,52.734,-44.434,0
1505864880.837,39.551,44.922,54.199,50.781,-61.035,0
1505864880.841,30.762,46.387,57.129,67.383,-35.156,0
1505864880.845,27.344,39.551,42.480,73.242,-13.184,0
1505864880.849,30.762,35.156,33.203,44.434,-6.836,0
1505864880.853,33.691,37.109,30.762,47.852,-12.207,0
1505864880.856,34.180,29.297,22.461,50.293,1.953,0
1505864880.860,39.062,22.949,33.203,57.129,-31.250,0
1505864880.864,37.109,28.320,70.312,57.617,-47.363,0
1505864880.868,42.969,39.551,83.496,51.270,-47.363,0
1505864880.872,45.410,41.504,78.613,68.848,-39.062,0
1505864880.876,41.016,38.574,45.898,73.242,-2.441,0
1505864880.880,43.457,39.551,55.176,75.684,-44.922,0
1505864880.884,35.645,36.621,44.434,79.102,-47.363,0
1505864880.888,36.621,36.621,9.766,71.777,-9.766,0
1505864880.892,38.574,35.645,26.367,63.477,-13.184,0
1505864880.895,36.133,35.645,60.547,70.801,-11.230,0
1505864880.899,30.273,38.574,66.406,75.195,-12.695,0
1505864880.903,32.715,33.691,62.500,52.246,-7.324,0
1505864880.907,40.527,30.762,57.129,47.852,-14.160,0
1505864880.911,38.574,38.086,14.160,75.195,-17.578,0
1505864880.915,41.016,36.133,34.180,67.383,4.883,0
1505864880.919,44.434,31.250,77.148,56.152,12.695,0
1505864880.923,48.828,34.180,67.871,69.824,-3.418,0
1505864880.927,43.945,29.297,74.219,73.242,-16.113,0
1505864880.931,49.316,39.551,58.594,60.547,-28.809,0
1505864880.935,58.594,51.270,71.289,68.359,-14.648,0
1505864880.938,50.781,39.551,88.867,82.520,-3.418,0
1505864880.942,45.898,37.109,53.223,83.496,-7.324,0
1505864880.946,41.016,34.180,46.387,81.543,-14.160,0
1505864880.950,41.992,23.438,59.570,83.008,-20.996,0
1505864880.954,45.410,27.344,72.266,71.289,0.977,0
1505864880.958,47.363,34.180,56.152,63.477,-42.480,0
1505864880.962,47.852,37.598,34.180,71.777,-33.203,0
1505864880.966,50.781,43.457,44.922,75.195,16.113,0
1505864880.970,56.152,47.363,58.594,83.984,-26.855,0
1505864880.974,49.805,44.922,78.125,75.684,-27.344,0
1505864880.978,45.410,41.504,55.664,68.848,40.039,0
1505864880.981,46.387,41.504,15.625,69.824,40.039,0
1505864880.985,45.898,39.062,37.109,70.801,6.348,0
1505864880.989,38.086,32.227,75.684,62.012,29.297,0
1505864880.993,37.598,36.133,43.457,56.641,45.898,0
1505864880.997,46.387,45.898,26.367,80.566,-3.418,0
1505864881.001,41.016,44.922,68.848,75.684,0.000,0
1505864881.005,32.715,40.527,61.035,64.941,8.301,0
1505864881.009,32.227,51.758,35.645,60.547,-12.207,0
1505864881.013,36.621,56.641,46.875,50.293,13.184,0
1505864881.017,26.855,38.086,71.777,48.828,14.648,0
1505864881.020,24.414,32.227,78.125,54.688,16.113,0
1505864881.024,30.762,34.668,19.531,44.434,20.508,0
1505864881.028,35.156,37.598,-10.254,43.457,8.301,0
1505864881.032,39.551,37.109,34.668,55.176,11.230,0
1505864881.036,35.156,33.691,90.332,46.387,32.715,0
1505864881.040,33.691,29.785,70.801,55.664,59.082,0
1505864881.044,36.133,30.762,48.340,67.383,32.715,0
1505864881.048,30.762,27.832,71.289,55.664,5.859,0
1505864881.052,25.879,23.926,78.125,42.969,9.277,0
1505864881.056,30.762,27.832,83.008,56.641,-10.254,0
1505864881.060,32.715,20.996,73.730,60.547,-41.992,0
1505864881.063,31.738,15.625,63.477,60.059,-29.785,0
1505864881.067,30.273,28.809,83.496,55.664,10.742,0
1505864881.071,38.086,38.574,43.945,41.016,2.930,0
1505864881.075,35.645,35.156,-10.742,47.363,-34.180,0
1505864881.079,25.879,31.250,60.547,50.781,-19.531,0
1505864881.083,34.180,32.715,102.051,61.523,31.250,0
1505864881.087,34.668,35.645,81.055,58.105,-8.789,0
1505864881.091,25.391,33.203,76.172,53.223,-45.898,0
1505864881.095,28.809,28.809,49.805,54.199,-16.113,0
1505864881.099,42.480,41.016,43.457,60.547,-19.531,0
1505864881.103,44.434,48.340,63.477,61.523,-33.691,0
1505864881.106,36.133,34.180,74.707,61.035,-41.504,0
1505864881.110,29.297,30.762,73.242,52.246,-44.922,0
1505864881.114,29.785,38.574,59.570,58.594,-7.324,0
1505864881.118,37.109,40.527,34.180,64.941,-18.555,0
1505864881.122,38.574,41.992,55.664,65.430,-58.594,0
1505864881.126,34.180,38.574,41.016,70.312,-21.973,0
1505864881.130,36.621,35.645,11.230,70.312,-20.996,0
1505864881.134,42.969,34.180,65.918,56.152,-36.621,0
1505864881.138,41.992,34.180,83.984,50.781,4.883,0
1505864881.142,35.645,40.039,71.289,65.430,11.719,0
1505864881.145,40.527,42.480,60.547,69.336,-17.578,0
1505864881.149,38.086,22.949,62.988,55.176,-29.297,0
1505864881.153,30.762,18.555,92.285,49.805,-53.711,0
1505864881.157,35.156,35.156,78.613,56.641,-36.133,0
1505864881.161,34.180,33.203,58.105,59.082,-10.254,0
1505864881.165,35.156,31.738,63.965,57.617,-24.902,0
1505864881.169,35.156,31.738,89.355,58.594,-32.715,0
1505864881.173,32.715,36.621,49.316,57.617,-21.973,0
1505864881.177,41.504,48.828,20.020,72.266,-2.930,0
1505864881.181,45.410,50.293,83.008,78.613,-1.953,0
1505864881.185,45.410,47.363,73.730,65.918,-11.719,0
1505864881.188,49.805,41.992,47.852,66.406,-9.277,0
1505864881.192,54.688,41.016,69.336,62.988,-20.996,0
1505864881.196,60.547,43.457,64.453,56.641,-72.266,0
1505864881.200,51.270,41.016,42.969,49.805,-44.922,0
1505864881.204,41.016,36.621,71.289,70.312,-27.832,0
1505864881.208,46.387,41.016,83.008,87.891,-70.312,0
1505864881.212,47.852,39.062,-2.441,82.031,-35.645,0
1505864881.216,56.641,40.527,11.230,70.801,-20.508,0
1505864881.220,60.059,47.363,92.285,51.270,-52.246,0
1505864881.224,46.387,45.410,93.750,55.664,-54.688,0
1505864881.228,50.293,47.852,91.797,66.895,-35.645,0
1505864881.231,56.641,51.270,44.922,78.125,-17.578,0
1505864881.235,52.246,53.711,37.598,84.961,-8.301,0
1505864881.239,51.758,54.199,106.934,73.730,-37.109,0
1505864881.243,53.223,57.617,93.262,64.941,-39.062,0
1505864881.247,46.875,52.246,53.223,64.941,0.977,0
1505864881.251,48.828,47.363,59.570,69.336,-29.785,0
1505864881.255,45.410,42.969,81.543,73.730,-59.570,0
1505864881.259,34.668,35.645,52.734,70.801,-24.414,0
1505864881.263,36.621,32.715,35.645,69.824,-22.461,0
1505864881.267,35.645,31.250,72.266,66.406,-31.250,0
1505864881.270,32.715,30.762,63.477,52.246,-35.156,0
1505864881.274,41.016,38.574,56.641,47.363,-11.230,0
1505864881.278,46.875,40.527,58.105,62.988,-7.812,0
1505864881.282,37.109,30.273,48.340,72.754,-22.949,0
1505864881.286,41.016,33.691,39.551,79.102,-23.926,0
1505864881.290,43.457,41.504,43.945,68.359,-56.152,0
1505864881.294,38.574,37.598,56.152,65.430,-39.551,0
1505864881.298,47.852,34.668,58.105,76.660,-27.344,0
1505864881.302,57.617,40.039,58.594,82.520,-43.457,0
1505864881.306,57.617,50.781,12.207,83.008,-18.066,0
1505864881.310,54.199,44.434,37.598,83.496,6.836,0
1505864881.313,49.316,36.621,79.590,72.266,-4.395,0
1505864881.317,40.527,37.598,83.008,71.777,-1.465,0
1505864881.321,34.668,38.574,66.895,63.477,-2.930,0
1505864881.325,36.621,40.039,51.758,58.105,-9.766,0
1505864881.329,34.668,36.133,38.086,58.105,-6.836,0
1505864881.333,36.621,36.621,15.625,43.457,-0.488,0
1505864881.337,41.992,39.062,17.090,48.828,6.836,0
1505864881.341,42.969,40.527,21.484,55.664,-2.441,0
1505864881.345,37.598,39.551,28.809,74.707,-12.207,0
1505864881.349,26.855,31.738,36.133,70.801,-20.020,0
1505864881.353,32.227,35.156,29.297,61.035,-18.066,0
1505864881.356,46.875,41.016,42.480,62.988,1.465,0
1505864881.360,45.898,36.133,35.645,62.012,8.789,0
1505864881.364,38.574,32.227,4.883,61.035,-14.160,0
1505864881.368,32.715,33.203,34.668,57.617,-11.230,0
1505864881.372,37.109,37.109,83.496,71.777,-1.953,0
1505864881.376,44.434,41.992,65.918,89.844,0.977,0
1505864881.380,38.574,35.645,37.598,70.801,4.395,0
1505864881.384,28.320,30.762,32.227,56.641,1.953,0
1505864881.388,23.438,32.715,7.812,56.152,-12.695,0
1505864881.392,15.625,30.273,51.270,52.734,-26.367,0
1505864881.395,23.926,41.504,63.477,58.594,-17.578,0
1505864881.399,30.762,45.898,28.320,56.641,-1.953,0
1505864881.403,27.832,38.086,52.246,62.988,-22.461,0
1505864881.407,31.738,40.527,21.484,65.430,-47.852,0
1505864881.411,29.785,30.273,1.465,50.781,-18.555,0
1505864881.415,34.180,21.484,45.410,49.805,-5.859,0
1505864881.419,40.527,40.527,39.062,69.824,-15.137,0
1505864881.423,40.039,49.316,37.109,65.430,-16.113,0
1505864881.427,36.621,40.527,20.508,50.781,-28.320,0
1505864881.431,37.109,40.039,13.672,60.059,-20.020,0
1505864881.435,24.414,33.691,45.898,54.199,-10.254,0
1505864881.438,13.184,28.320,52.734,31.738,-32.227,0
1505864881.442,22.949,33.691,26.367,37.598,-27.344,0
1505864881.446,36.133,40.039,-2.441,55.664,-14.160,0
1505864881.450,38.086,38.574,55.176,53.223,-3.906,0
1505864881.454,33.203,36.133,58.105,58.105,1.953,0
1505864881.458,32.227,35.156,33.203,61.035,-5.371,0
1505864881.462,31.250,36.621,80.566,72.266,-25.879,0
1505864881.466,32.227,36.133,79.590,50.781,-29.297,0
1505864881.470,36.133,34.180,46.875,33.691,-19.531,0
1505864881.474,36.621,36.621,28.320,38.574,-4.395,0
1505864881.478,40.039,36.621,6.836,40.527,-19.043,0
1505864881.481,37.598,34.668,2.441,41.992,-72.266,0
1505864881.485,21.973,21.973,36.621,25.879,-41.016,0
1505864881.489,27.832,26.367,57.617,31.250,5.371,0
1505864881.493,41.016,35.156,84.473,51.758,-14.648,0
1505864881.497,42.480,36.133,44.922,63.965,-34.180,0
1505864881.501,52.734,47.852,29.297,68.359,-41.016,0
1505864881.505,43.457,48.828,41.016,56.152,-41.016,0
1505864881.509,41.016,46.875,16.113,53.223,-41.992,0
1505864881.513,46.387,46.875,24.902,62.988,-41.016,0
1505864881.517,41.504,46.875,0.000,60.547,-36.133,0
1505864881.520,42.480,45.410,-23.926,54.199,-31.250,0
1505864881.524,44.922,42.969,18.555,46.387,-23.926,0
1505864881.528,40.527,41.016,74.707,44.434,-32.227,0
1505864881.532,41.016,39.551,89.355,40.039,4.883,0
1505864881.536,49.805,42.969,89.355,46.875,6.836,0
1505864881.540,50.293,43.457,76.172,58.594,-40.527,0
1505864881.544,50.293,49.316,29.297,59.082,-48.828,0
1505864881.548,49.316,44.434,43.457,59.570,-4.883,0
1505864881.552,42.969,35.645,61.035,52.246,-13.672,0
1505864881.556,41.504,43.945,50.293,51.758,-56.641,0
1505864881.560,43.945,47.363,62.988,57.129,-9.277,0
1505864881.563,52.734,54.199,39.062,67.871,-47.852,0
1505864881.567,56.152,54.688,-0.488,86.914,-484.375,0
1505864881.571,45.410,43.457,57.617,78.125,-798.828,0
1505864881.575,41.016,41.992,113.770,65.918,-718.750,0
1505864881.579,38.086,47.363,89.355,37.598,-641.602,0
1505864881.583,31.738,53.711,52.734,36.133,-614.258,0
1505864881.587,34.180,52.246,27.832,54.199,-577.637,0
1505864881.591,44.922,54.688,40.039,32.715,-501.953,0
1505864881.595,59.082,66.406,49.316,31.738,-447.266,0
1505864881.599,45.898,61.523,64.941,42.969,-449.219,0
1505864881.603,23.438,51.758,67.871,41.016,-428.711,0
1505864881.606,41.992,60.059,41.504,47.363,-384.277,0
1505864881.610,53.711,57.129,20.020,54.199,-377.441,0
1505864881.614,43.945,46.387,28.320,47.852,-354.492,0
1505864881.618,42.480,47.852,45.410,37.109,-307.129,0
1505864881.622,43.457,47.852,59.082,41.992,-312.988,0
1505864881.626,39.062,46.875,62.500,58.105,-252.930,0
1505864881.630,38.574,50.781,42.480,66.406,-219.238,0
1505864881.634,39.551,49.805,37.598,60.547,-207.031,0
1505864881.638,39.062,45.898,49.316,58.594,-203.125,0
1505864881.642,46.387,50.781,41.504,53.711,-210.449,0
1505864881.645,58.105,60.547,48.828,57.129,-187.988,0
1505864881.649,52.246,54.199,43.457,56.641,-180.176,0
1505864881.653,39.551,41.016,61.523,56.152,-144.531,0
1505864881.657,45.898,43.945,85.938,54.688,-136.230,0
1505864881.661,33.203,42.480,70.801,53.223,-164.062,0
1505864881.665,33.203,39.062,65.918,65.430,-162.109,0
1505864881.669,43.457,43.457,56.152,71.777,-129.883,0
1505864881.673,40.039,43.945,18.066,67.871,-100.586,0
1505864881.677,49.316,42.969,30.762,67.383,-93.262,0
1505864881.681,48.828,41.504,35.645,74.707,-72.754,0
1505864881.685,45.410,42.969,20.508,66.895,-41.992,0
1505864881.688,48.340,48.340,47.363,45.898,-36.133,0
1505864881.692,35.645,41.016,82.031,41.504,-47.363,0
1505864881.696,33.203,23.926,78.125,54.688,-33.203,0
1505864881.700,34.668,24.902,31.250,57.617,-24.414,0
1505864881.704,26.367,39.551,34.180,51.270,-32.715,0
1505864881.708,27.344,43.945,49.316,62.500,-53.711,0
1505864881.712,31.738,43.457,43.457,57.617,-35.156,0
1505864881.716,34.180,40.527,53.711,59.082,-4.395,0
1505864881.720,39.062,39.551,41.992,75.684,-21.484,0
1505864881.724,45.898,41.504,28.320,85.938,-9.766,0
1505864881.728,39.062,40.039,27.344,72.754,24.414,0
1505864881.731,21.973,45.410,-0.977,68.848,-4.395,0
1505864881.735,34.668,47.363,-2.930,75.684,-43.457,0
1505864881.739,37.598,33.203,36.621,57.617,-43.945,0
1505864881.743,36.621,39.551,67.871,49.805,-27.344,0
1505864881.747,33.691,41.016,60.547,46.387,-47.363,0
1505864881.751,31.250,42.969,37.598,56.152,-20.996,0
1505864881.755,36.133,44.922,61.035,59.570,3.418,0
1505864881.759,51.270,48.340,55.664,54.199,-22.949,0
1505864881.763,59.570,53.223,-8.301,59.570,-35.645,0
1505864881.767,45.898,46.387,11.719,58.105,-46.875,0
1505864881.770,48.340,50.293,23.438,55.176,-25.879,0
1505864881.774,59.570,53.223,7.812,66.895,-4.883,0
1505864881.778,52.734,41.992,36.621,71.777,-47.363,0
1505864881.782,33.203,32.715,50.781,56.641,-35.645,0
1505864881.786,37.598,38.574,51.758,57.617,7.324,0
1505864881.790,54.688,38.574,40.039,54.688,-17.090,0
1505864881.794,43.457,44.434,62.500,51.758,-21.973,0
1505864881.798,28.320,45.410,69.336,66.895,-20.508,0
1505864881.802,25.879,39.551,44.434,57.617,-10.254,0
1505864881.806,22.949,42.969,28.809,61.035,12.207,0
1505864881.810,24.414,34.668,74.219,66.406,10.742,0
1505864881.813,33.691,28.320,95.703,56.152,0.000,0
1505864881.817,38.086,32.227,61.523,49.316,-12.207,0
1505864881.821,32.227,41.504,33.691,61.035,10.254,0
1505864881.825,36.621,46.387,6.836,90.332,-17.578,0
1505864881.829,36.133,44.922,-15.137,84.473,-22.461,0
1505864881.833,28.809,40.527,38.086,69.824,-5.371,0
1505864881.837,18.555,24.414,56.152,60.059,-7.324,0
1505864881.841,29.297,26.367,43.945,61.523,-0.488,0
1505864881.845,35.156,34.180,53.711,66.406,-4.883,0
1505864881.849,34.180,35.645,46.387,70.801,14.160,0
1505864881.853,58.594,32.715,37.109,76.172,1.465,0
1505864881.856,66.406,28.320,33.203,64.453,-31.250,0
1505864881.860,39.551,27.832,51.758,52.734,-39.551,0
1505864881.864,20.996,35.156,55.664,67.871,-26.367,0
1505864881.868,34.668,44.922,41.992,79.590,-17.578,0
1505864881.872,45.898,25.391,2.441,71.777,-28.320,0
1505864881.876,36.133,33.203,8.789,75.195,-25.879,0
1505864881.880,28.809,38.086,48.828,66.406,-24.902,0
1505864881.884,31.250,18.066,74.219,59.082,-41.504,0
1505864881.888,27.832,23.438,101.074,63.965,-21.484,0
1505864881.892,28.320,25.391,80.078,63.477,-28.809,0
1505864881.895,33.203,22.949,55.176,65.918,-60.547,0
1505864881.899,35.645,28.809,37.598,68.848,-59.082,0
1505864881.903,31.250,27.344,19.531,58.105,-61.035,0
1505864881.907,22.949,19.043,11.230,56.152,-28.809,0
1505864881.911,29.785,20.508,-9.766,63.965,-23.926,0
1505864881.915,25.391,21.973,8.301,79.590,-32.227,0
1505864881.919,29.297,15.137,74.219,83.984,-21.484,0
1505864881.923,47.852,14.648,106.445,91.309,-6.836,0
1505864881.927,42.480,39.062,102.539,113.281,-9.766,0
1505864881.931,21.973,42.969,89.844,107.422,-32.715,0
1505864881.935,18.555,35.156,54.199,126.465,-36.621,0
1505864881.938,28.320,41.504,33.691,121.094,-16.113,0
1505864881.942,37.598,34.668,37.598,104.492,-27.344,0
1505864881.946,37.109,38.086,-5.371,120.605,-86.426,0
1505864881.950,48.828,51.758,-13.184,132.812,-94.727,0
1505864881.954,51.758,44.922,51.270,130.371,-113.281,0
1505864881.958,42.480,32.715,60.547,119.629,-157.715,0
1505864881.962,35.645,28.809,61.523,103.516,-181.152,0
1505864881.966,23.438,23.438,59.570,90.820,-184.082,0
1505864881.970,34.668,25.879,36.621,89.355,-180.176,0
1505864881.974,30.762,33.203,37.109,98.633,-194.336,0
1505864881.978,20.508,31.250,36.133,103.516,-189.453,0
1505864881.981,32.715,33.691,7.812,90.820,-182.129,0
1505864881.985,38.086,40.527,-5.371,108.398,-191.406,0
1505864881.989,40.527,42.480,32.227,125.488,-154.297,0
1505864881.993,43.457,34.180,25.879,102.051,-157.715,0
1505864881.997,36.133,24.414,5.859,84.473,-158.691,0
1505864882.001,24.902,31.250,24.414,83.496,-151.855,0
1505864882.005,24.902,36.133,19.531,95.215,-196.289,0
1505864882.009,27.344,28.809,41.504,96.191,-190.430,0
1505864882.013,38.086,27.344,37.598,80.566,-137.207,0
1505864882.017,39.062,26.367,16.602,76.172,-102.051,0
1505864882.020,35.156,26.855,22.461,78.125,-101.074,0
1505864882.024,28.809,37.598,22.461,70.312,-90.332,0
1505864882.028,34.668,36.621,34.180,92.285,-70.801,0
1505864882.032,44.922,25.391,39.551,100.586,-101.562,0
1505864882.036,41.016,27.344,56.641,77.637,-93.750,0
1505864882.040,43.945,40.039,26.367,77.148,-84.961,0
1505864882.044,36.133,41.016,24.902,66.895,-46.875,0
1505864882.048,34.668,32.227,42.969,73.242,-32.227,0
1505864882.052,31.250,28.320,16.113,81.543,-89.355,0
1505864882.056,22.461,22.949,20.020,69.336,-74.219,0
1505864882.060,20.996,29.297,37.598,79.590,-54.199,0
1505864882.063,35.156,34.180,45.898,80.566,-75.684,0
1505864882.067,32.227,25.391,31.250,57.129,-85.449,0
1505864882.071,24.414,41.992,41.992,59.570,-23.926,0
1505864882.075,32.227,45.410,25.879,67.871,-23.926,0
1505864882.079,26.855,24.902,12.207,62.012,-50.293,0
1505864882.083,22.949,27.344,18.066,66.895,-22.949,0
1505864882.087,32.715,36.133,10.254,67.383,-25.879,0
1505864882.091,42.969,42.480,44.922,60.547,0.977,0
1505864882.095,45.898,36.621,58.594,70.801,-18.555,0
1505864882.099,36.133,32.715,52.246,69.824,-41.992,0
1505864882.103,29.785,48.340,40.527,62.012,-1.953,0
1505864882.106,36.133,42.480,17.090,73.730,-6.836,0
1505864882.110,43.945,35.156,18.555,78.125,10.254,0
1505864882.114,32.227,36.621,20.020,68.359,32.227,0
1505864882.118,34.668,23.438,5.371,58.105,16.113,0
1505864882.122,22.461,30.273,41.016,47.363,-18.555,0
1505864882.126,16.602,33.691,53.223,38.574,-15.137,0
1505864882.130,41.504,34.180,46.387,55.664,-9.277,0
1505864882.134,35.645,31.738,-8.301,52.246,-15.625,0
1505864882.138,18.555,25.391,-44.434,46.387,-26.367,0
1505864882.142,32.715,36.621,57.129,64.941,-22.461,0
1505864882.145,35.156,49.805,97.656,51.758,-20.508,0
1505864882.149,15.625,41.992,67.383,39.551,-26.855,0
1505864882.153,27.344,49.805,54.199,64.453,-31.250,0
1505864882.157,36.133,53.711,69.824,70.312,-24.414,0
1505864882.161,34.180,39.551,35.645,55.176,-18.066,0
1505864882.165,23.926,39.551,-0.977,65.430,-26.855,0
1505864882.169,10.742,33.203,33.203,58.594,-30.762,0
1505864882.173,18.066,31.738,69.336,34.668,-10.742,0
1505864882.177,34.180,48.828,50.781,48.828,0.977,0
1505864882.181,29.297,55.664,20.020,74.219,-0.488,0
1505864882.185,29.297,53.223,57.129,69.336,-19.531,0
1505864882.188,28.320,54.688,58.105,56.641,-15.625,0
1505864882.192,17.090,48.828,57.617,78.613,-16.602,0
1505864882.196,41.016,54.199,90.820,82.031,-21.484,0
1505864882.200,54.688,54.199,63.477,65.430,-27.344,0
1505864882.204,34.668,51.270,20.020,83.008,-21.484,0
1505864882.208,29.297,51.758,56.152,84.961,42.969,0
1505864882.212,35.156,40.039,86.914,64.453,27.344,0
1505864882.216,29.785,30.762,62.988,58.105,0.488,0
1505864882.220,30.273,31.250,42.969,67.871,-28.809,0
1505864882.224,41.504,40.527,41.504,67.871,-62.500,0
1505864882.228,37.109,40.039,66.895,58.594,-51.270,0
1505864882.231,24.902,39.551,78.613,62.500,-38.086,0
1505864882.235,36.621,41.016,79.590,89.355,7.324,0
1505864882.239,33.203,28.320,58.105,84.961,32.227,0
1505864882.243,27.344,35.645,28.320,74.707,25.391,0
1505864882.247,34.180,35.645,64.941,90.332,0.000,0
1505864882.251,32.715,22.461,76.660,83.984,-44.922,0
1505864882.255,25.879,28.320,57.617,71.289,-51.758,0
1505864882.259,22.461,35.645,52.734,74.219,-1.465,0
1505864882.263,27.344,32.227,32.715,65.918,22.949,0
1505864882.267,32.715,38.574,6.836,57.617,23.438,0
1505864882.270,49.805,42.969,18.066,64.941,32.227,0
1505864882.274,59.082,40.527,45.898,72.266,59.082,0
1505864882.278,60.547,52.246,44.434,90.820,54.688,0
1505864882.282,54.688,49.316,5.859,84.473,10.254,0
1505864882.286,54.199,46.387,51.270,76.660,56.641,0
1505864882.290,69.336,65.430,134.766,89.844,66.406,0
1505864882.294,58.594,54.199,93.750,74.707,10.254,0
1505864882.298,42.969,45.898,30.762,54.688,-28.320,0
1505864882.302,47.363,50.293,41.992,50.293,-23.438,0
1505864882.306,25.879,42.480,59.082,56.641,0.488,0
1505864882.310,13.672,51.270,63.965,59.570,6.348,0
1505864882.313,30.273,48.828,63.965,41.504,-8.301,0
1505864882.317,47.852,42.480,52.246,53.223,13.184,0
1505864882.321,49.316,51.270,-2.441,72.754,15.137,0
1505864882.325,51.758,50.781,-6.348,66.406,6.348,0
1505864882.329,40.039,40.039,57.617,65.918,21.973,0
1505864882.333,39.062,32.715,43.457,66.895,37.109,0
1505864882.337,40.039,24.414,14.648,62.500,41.016,0
1505864882.341,43.945,28.320,24.902,64.453,35.156,0
1505864882.345,47.363,28.320,33.691,65.918,44.922,0
1505864882.349,44.434,35.156,35.645,71.289,31.250,0
1505864882.353,37.109,39.062,18.066,55.176,30.762,0
1505864882.356,39.551,46.875,-11.719,45.898,51.270,0
1505864882.360,57.129,43.945,26.855,62.988,30.762,0
1505864882.364,63.965,31.738,45.898,89.844,54.199,0
1505864882.368,56.641,43.457,55.176,88.379,47.363,0
1505864882.372,59.570,60.059,58.594,78.125,1.465,0
1505864882.376,55.664,45.898,20.996,79.102,16.602,0
1505864882.380,43.457,29.297,47.363,86.914,20.020,0
1505864882.384,51.270,37.598,78.613,69.824,22.949,0
1505864882.388,50.293,37.109,46.387,53.223,58.105,0
1505864882.392,37.109,41.992,25.391,50.781,86.914,0
1505864882.395,41.992,43.945,12.207,51.758,54.688,0
1505864882.399,54.199,34.668,-7.324,67.871,-4.395,0
1505864882.403,48.340,39.551,31.250,65.430,11.230,0
1505864882.407,39.551,37.598,68.848,44.922,84.473,0
1505864882.411,53.223,49.316,64.941,62.012,54.688,0
1505864882.415,40.527,43.457,46.875,66.895,-7.812,0
1505864882.419,9.277,21.973,25.391,45.410,24.902,0
1505864882.423,22.461,25.879,15.625,47.852,54.199,0
1505864882.427,34.668,27.832,58.594,54.199,34.668,0
1505864882.431,29.785,28.320,85.449,61.035,23.926,0
1505864882.435,37.109,35.156,43.457,63.965,48.828,0
1505864882.438,38.574,34.180,18.066,61.035,68.359,0
1505864882.442,26.855,29.785,19.043,74.707,73.242,0
1505864882.446,23.926,33.203,61.035,77.148,64.453,0
1505864882.450,30.762,25.879,67.383,46.387,95.215,0
1505864882.454,41.992,30.762,27.832,51.758,126.465,0
1505864882.458,49.316,35.156,21.484,62.500,90.332,0
1505864882.462,49.805,37.109,32.715,57.617,70.801,0
1505864882.466,46.387,39.062,57.617,64.941,66.895,0
1505864882.470,43.945,35.645,99.121,68.848,34.668,0
1505864882.474,39.551,36.133,68.848,76.172,63.965,0
1505864882.478,37.598,37.598,32.715,70.312,113.281,0
1505864882.481,49.316,42.480,8.789,65.918,106.934,0
1505864882.485,55.664,55.176,-16.113,69.824,94.727,0
1505864882.489,45.898,63.965,31.250,62.988,65.918,0
1505864882.493,27.832,43.945,56.641,68.848,88.867,0
1505864882.497,30.273,30.762,37.109,64.453,101.074,0
1505864882.501,48.340,45.898,46.875,52.246,92.773,0
1505864882.505,39.062,47.363,40.527,44.922,121.094,0
1505864882.509,24.902,41.016,36.621,43.945,111.816,0
1505864882.513,35.645,47.852,62.012,60.547,76.660,0
1505864882.517,38.086,48.340,47.363,74.707,72.266,0
1505864882.520,35.645,41.992,35.156,72.266,90.332,0
1505864882.524,39.062,47.363,50.781,74.707,99.121,0
1505864882.528,36.621,49.805,34.668,65.430,88.867,0
1505864882.532,34.668,42.969,-32.227,51.758,76.172,0
1505864882.536,26.367,41.016,-16.113,56.152,98.633,0
1505864882.540,17.578,32.227,49.805,52.246,116.699,0
1505864882.544,17.578,31.250,52.246,43.457,99.121,0
1505864882.548,17.578,30.273,53.711,40.039,85.938,0
1505864882.552,17.578,18.066,25.879,36.133,87.891,0
1505864882.556,24.414,21.484,18.555,47.852,95.215,0
1505864882.560,24.414,28.809,53.711,62.012,120.117,0
1505864882.563,17.578,26.855,-4.883,64.453,113.770,0
1505864882.567,17.578,27.344,-32.227,58.594,130.859,0
1505864882.571,15.625,24.414,63.477,56.152,128.418,0
1505864882.575,5.371,22.461,87.891,50.293,106.445,0
1505864882.579,3.418,23.438,79.102,40.039,125.000,0
1505864882.583,4.883,20.508,53.711,32.227,140.137,0
1505864882.587,7.324,19.043,43.945,41.504,120.605,0
1505864882.591,13.672,20.508,41.992,55.664,125.977,0
1505864882.595,17.090,21.484,22.461,64.453,157.715,0
1505864882.599,13.672,21.973,22.461,56.152,158.691,0
1505864882.603,24.902,21.973,16.113,57.129,148.438,0
1505864882.606,39.551,26.855,26.855,76.172,123.535,0
1505864882.610,27.344,30.273,-1.465,57.129,125.000,0
1505864882.614,25.391,29.785,-46.875,47.363,147.461,0
1505864882.618,47.363,40.039,45.410,68.359,144.043,0
1505864882.622,41.504,42.480,54.199,71.289,125.488,0
1505864882.626,21.484,26.855,20.020,53.711,135.254,0
1505864882.630,31.738,25.879,60.059,57.617,158.691,0
1505864882.634,30.762,30.762,44.922,68.359,182.617,0
1505864882.638,26.367,30.762,5.371,68.359,195.801,0
1505864882.642,33.691,26.855,14.160,74.219,202.637,0
1505864882.645,31.250,32.227,28.809,57.617,175.781,0
1505864882.649,37.109,37.109,26.855,42.480,143.555,0
1505864882.653,40.527,34.668,30.273,43.945,156.250,0
1505864882.657,29.785,36.621,13.184,38.086,180.176,0
1505864882.661,21.484,24.414,-44.922,30.273,172.363,0
1505864882.665,23.926,19.531,-33.203,28.320,153.320,0
1505864882.669,26.855,20.508,54.199,20.996,158.203,0
1505864882.673,27.832,24.902,80.078,24.902,161.133,0
1505864882.677,23.926,29.785,59.082,44.434,205.566,0
1505864882.681,22.949,25.391,48.340,36.133,202.637,0
1505864882.685,32.227,25.879,36.621,20.508,192.871,0
1505864882.688,34.180,24.902,22.949,25.879,183.105,0
1505864882.692,31.738,21.973,24.902,24.902,176.758,0
1505864882.696,31.250,24.414,26.855,34.180,170.898,0
1505864882.700,27.344,27.832,26.855,44.922,172.852,0
1505864882.704,20.996,23.926,30.273,38.086,216.309,0
1505864882.708,20.020,20.996,48.340,31.250,215.820,0
1505864882.712,17.090,13.184,32.227,27.344,223.145,0
1505864882.716,8.789,5.859,26.855,18.066,257.812,0
1505864882.720,15.137,11.230,44.922,37.598,246.582,0
1505864882.724,23.438,17.578,32.715,53.711,228.516,0
1505864882.728,21.484,19.531,36.621,45.410,231.934,0
1505864882.731,8.301,11.719,53.711,41.504,210.449,0
1505864882.735,9.766,15.137,47.852,39.551,192.383,0
1505864882.739,22.461,22.949,41.016,53.223,190.430,0
1505864882.743,23.926,23.926,41.992,54.688,187.500,0
1505864882.747,20.996,20.020,33.691,38.574,171.387,0
1505864882.751,22.949,19.531,43.945,39.551,169.434,0
1505864882.755,33.691,21.973,48.340,50.781,151.367,0
1505864882.759,35.156,20.020,17.578,43.457,116.699,0
1505864882.763,34.668,22.461,-22.461,51.270,139.648,0
1505864882.767,34.180,24.902,-16.602,73.242,135.254,0
1505864882.770,34.180,30.762,15.625,81.543,104.492,0
1505864882.774,26.367,20.996,27.344,50.781,95.215,0
1505864882.778,23.926,15.137,29.785,29.297,89.844,0
1505864882.782,32.715,16.113,35.645,33.691,71.289,0
1505864882.786,27.344,7.812,49.316,42.480,23.438,0
1505864882.790,24.902,13.672,50.293,49.805,23.926,0
1505864882.794,33.203,20.508,20.508,42.480,61.523,0
1505864882.798,40.527,26.367,37.109,48.340,66.406,0
1505864882.802,43.945,37.109,38.574,64.453,31.738,0
1505864882.806,30.762,41.016,13.672,68.359,21.973,0
1505864882.810,26.367,36.133,28.809,64.941,25.391,0
1505864882.813,29.297,32.227,28.320,64.453,22.461,0
1505864882.817,28.320,33.691,38.574,80.566,6.348,0
1505864882.821,28.320,35.156,69.824,69.824,-11.719,0
1505864882.825,25.879,33.691,65.918,38.574,-6.836,0
1505864882.829,24.902,24.902,25.879,27.832,-14.648,0
1505864882.833,24.902,17.578,28.809,20.996,-43.457,0
1505864882.837,23.926,23.926,64.941,23.926,-25.391,0
1505864882.841,23.438,37.598,41.016,33.691,-9.766,0
1505864882.845,26.367,31.250,46.387,46.875,-49.316,0
1505864882.849,23.438,24.902,31.738,57.617,-58.105,0
1505864882.853,19.531,33.691,16.602,39.551,-24.902,0
1505864882.856,18.066,37.109,47.852,29.785,-19.531,0
1505864882.860,11.719,39.551,36.133,39.551,-30.273,0
1505864882.864,7.324,33.691,35.645,36.133,-13.184,0
1505864882.868,5.371,30.762,40.527,34.180,2.441,0
1505864882.872,5.859,35.645,45.410,37.598,-3.418,0
1505864882.876,13.672,32.227,63.965,47.363,-11.230,0
1505864882.880,22.949,37.109,61.523,57.617,-18.555,0
1505864882.884,17.578,31.250,53.711,53.223,-13.672,0
1505864882.888,10.254,19.043,43.945,42.480,-24.414,0
1505864882.892,10.254,28.320,27.832,54.199,-66.895,0
1505864882.895,16.602,34.180,37.109,55.664,-50.293,0
1505864882.899,33.203,34.668,45.410,55.176,-31.250,0
1505864882.903,37.598,31.250,62.012,62.500,-6.836,0
1505864882.907,35.156,30.273,46.875,64.453,7.812,0
1505864882.911,22.949,29.297,-1.465,56.641,13.184,0
1505864882.915,27.832,26.855,30.273,53.711,30.273,0
1505864882.919,38.086,26.367,59.570,64.453,-12.695,0
1505864882.923,29.297,24.414,59.570,68.359,-29.297,0
1505864882.927,35.645,28.320,54.688,64.453,-22.949,0
1505864882.931,37.598,30.273,37.109,56.152,2.930,0
1505864882.935,39.062,31.250,26.855,56.641,-17.090,0
1505864882.938,42.480,35.156,19.043,60.547,-41.504,0
1505864882.942,41.992,33.691,21.973,51.270,-19.043,0
1505864882.946,43.945,32.227,13.184,49.805,-20.508,0
1505864882.950,38.574,28.320,33.203,62.500,-20.996,0
1505864882.954,38.086,33.691,38.574,58.594,-15.137,0
1505864882.958,44.922,41.504,31.738,64.453,-16.602,0
1505864882.962,47.852,37.598,46.875,81.055,-34.668,0
1505864882.966,41.504,38.086,38.086,66.895,-33.691,0
1505864882.970,39.551,38.574,41.992,60.547,-5.371,0
1505864882.974,43.457,37.109,34.180,68.359,9.766,0
1505864882.978,40.527,39.062,12.207,67.871,-7.812,0
1505864882.981,38.574,37.598,45.410,70.801,-36.133,0
1505864882.985,31.250,35.645,78.125,74.219,-14.648,0
1505864882.989,29.297,33.203,47.852,67.383,1.465,0
1505864882.993,33.691,33.203,8.301,62.988,-1.953,0
1505864882.997,38.086,39.062,24.902,61.523,15.625,0
1505864883.001,38.574,41.992,41.016,83.008,15.137,0
1505864883.005,35.645,39.551,29.785,74.707,2.930,0
1505864883.009,28.320,29.297,23.926,44.922,7.324,0
1505864883.013,29.297,31.250,23.926,51.270,36.133,0
1505864883.017,34.668,38.574,17.090,48.340,57.617,0
1505864883.020,35.645,38.086,28.809,53.223,26.367,0
1505864883.024,32.227,37.598,35.645,62.988,-8.301,0
1505864883.028,24.902,37.109,50.293,53.711,-21.973,0
1505864883.032,20.508,35.156,65.430,53.711,41.504,0
1505864883.036,23.926,29.785,32.227,56.152,59.082,0
1505864883.040,20.996,25.391,-1.465,53.223,23.438,0
1505864883.044,25.391,31.738,33.691,59.082,61.035,0
1505864883.048,35.156,37.598,66.895,60.547,94.238,0
1505864883.052,40.527,39.062,59.082,59.570,61.035,0
1505864883.056,43.945,46.387,23.926,63.965,55.176,0
1505864883.060,38.574,45.898,31.738,65.918,77.148,0
1505864883.063,35.156,42.969,19.043,60.059,45.898,0
1505864883.067,41.504,42.480,16.602,61.523,40.039,0
1505864883.071,46.387,42.480,51.758,69.824,53.711,0
1505864883.075,41.016,36.621,37.109,65.430,60.547,0
1505864883.079,34.180,26.855,18.066,64.941,104.004,0
1505864883.083,38.086,27.344,30.273,83.008,81.543,0
1505864883.087,56.152,43.945,46.387,87.891,61.035,0
1505864883.091,54.688,46.387,28.809,87.402,88.379,0
1505864883.095,44.922,31.738,35.645,82.520,106.445,0
1505864883.099,46.875,34.180,11.719,68.848,114.746,0
1505864883.103,47.852,40.039,-15.625,73.730,106.934,0
1505864883.106,41.016,36.621,20.020,64.453,111.816,0
1505864883.110,41.016,34.180,31.738,55.664,122.559,0
1505864883.114,42.480,39.551,21.484,61.523,112.305,0
1505864883.118,42.969,41.992,18.066,59.082,116.211,0
1505864883.122,39.551,36.133,41.504,59.570,121.582,0
1505864883.126,41.016,39.062,72.266,70.312,118.164,0
1505864883.130,50.293,42.969,32.715,80.078,99.609,0
1505864883.134,51.758,40.039,-1.953,62.500,92.773,0
1505864883.138,40.527,40.527,27.832,85.449,110.840,0
1505864883.142,45.410,41.016,39.062,98.633,127.441,0
1505864883.145,46.875,38.574,41.992,47.363,105.957,0
1505864883.149,36.133,41.504,48.340,35.156,105.469,0
1505864883.153,37.598,40.039,57.129,41.504,152.832,0
1505864883.157,30.273,37.598,51.270,35.156,139.648,0
1505864883.161,33.691,43.457,21.484,44.922,120.605,0
1505864883.165,39.551,42.969,21.484,55.664,121.582,0
1505864883.169,34.668,39.062,34.180,53.711,155.273,0
1505864883.173,40.039,42.480,31.250,62.500,148.926,0
1505864883.177,44.922,43.945,51.270,63.965,101.074,0
1505864883.181,40.039,42.969,37.598,48.340,109.375,0
1505864883.185,35.156,40.527,16.602,49.805,144.531,0
1505864883.188,41.992,43.945,34.180,57.617,131.348,0
1505864883.192,51.758,56.152,40.039,57.129,92.285,0
1505864883.196,41.016,53.711,62.012,49.805,113.281,0
1505864883.200,38.574,49.805,67.383,54.688,119.141,0
1505864883.204,43.457,55.176,47.852,69.824,116.211,0
1505864883.208,42.969,54.199,36.621,67.871,111.328,0
1505864883.212,41.992,48.340,11.230,46.387,98.633,0
1505864883.216,39.062,44.434,55.664,44.922,91.309,0
1505864883.220,43.457,46.387,95.703,71.777,74.219,0
1505864883.224,41.992,43.945,69.824,72.754,79.590,0
1505864883.228,38.574,31.250,74.707,60.059,106.934,0
1505864883.231,45.410,25.391,75.195,52.246,93.262,0
1505864883.235,50.781,37.109,45.410,50.293,85.938,0
1505864883.239,44.434,41.016,19.531,60.059,117.676,0
1505864883.243,35.156,37.598,23.926,60.059,151.855,0
1505864883.247,53.711,46.875,89.844,62.500,127.930,0
1505864883.251,63.965,49.316,79.590,80.566,84.473,0
1505864883.255,49.805,43.945,64.941,85.938,107.422,0
1505864883.259,41.016,41.504,92.285,71.289,119.629,0
1505864883.263,45.410,43.945,96.191,63.477,112.305,0
1505864883.267,54.688,46.875,71.289,73.242,104.492,0
1505864883.270,54.688,49.805,73.730,82.031,124.512,0
1505864883.274,64.941,58.105,82.031,89.355,134.277,0
1505864883.278,70.801,61.523,60.547,87.891,120.605,0
1505864883.282,66.895,62.500,62.012,91.309,108.887,0
1505864883.286,62.988,66.895,48.340,89.844,131.348,0
1505864883.290,70.801,72.266,14.648,90.820,139.648,0
1505864883.294,68.848,68.359,50.781,97.656,103.027,0
1505864883.298,60.547,66.406,103.516,98.145,98.633,0
1505864883.302,69.824,72.266,104.004,96.191,115.234,0
1505864883.306,74.707,75.684,74.219,92.773,109.375,0
1505864883.310,75.684,79.102,72.266,105.957,86.914,0
1505864883.313,71.289,75.195,82.520,92.773,80.566,0
1505864883.317,65.430,67.383,64.453,98.633,93.750,0
1505864883.321,62.500,62.988,63.477,98.145,74.219,0
1505864883.325,57.617,61.035,66.406,73.242,78.125,0
1505864883.329,61.035,65.918,42.480,88.379,116.699,0
1505864883.333,54.688,56.152,44.922,86.426,106.445,0
1505864883.337,36.621,35.645,69.824,61.035,87.402,0
1505864883.341,26.367,26.855,3.418,32.715,77.148,0
1505864883.345,24.902,20.996,-22.949,25.879,89.844,0
1505864883.349,23.926,16.113,73.242,35.156,115.234,0
1505864883.353,19.531,12.207,104.492,35.645,84.473,0
1505864883.356,24.414,19.531,52.246,36.621,65.918,0
1505864883.360,23.438,23.438,20.020,53.223,77.637,0
1505864883.364,24.414,22.461,51.270,52.246,121.582,0
1505864883.368,29.785,17.578,57.617,36.133,111.328,0
1505864883.372,30.762,18.066,42.480,49.316,71.289,0
1505864883.376,37.109,30.762,17.578,54.199,76.660,0
1505864883.380,42.480,31.250,14.648,54.688,105.469,0
1505864883.384,42.969,33.691,14.160,59.082,123.535,0
1505864883.388,40.527,28.809,-14.160,50.293,135.254,0
1505864883.392,25.879,15.625,26.367,47.363,120.117,0
1505864883.395,21.484,14.160,63.965,42.969,75.684,0
1505864883.399,27.344,10.742,48.340,54.688,57.617,0
1505864883.403,20.996,1.953,32.715,48.340,82.520,0
1505864883.407,13.672,8.789,13.672,20.020,105.957,0
1505864883.411,17.578,23.926,24.902,31.738,106.445,0
1505864883.415,10.254,23.438,29.297,35.156,121.094,0
1505864883.419,6.836,15.625,11.719,32.715,120.117,0
1505864883.423,12.207,18.555,6.836,34.180,111.328,0
1505864883.427,14.648,18.555,2.930,37.598,116.211,0
1505864883.431,17.578,18.066,28.809,48.340,103.516,0
1505864883.435,13.184,19.043,38.574,45.898,109.375,0
1505864883.438,14.648,19.531,22.461,38.086,112.305,0
1505864883.442,20.020,18.555,34.668,41.016,77.637,0
1505864883.446,21.973,19.531,48.340,36.133,63.477,0
1505864883.450,24.414,20.996,49.316,26.855,102.051,0
1505864883.454,27.832,21.973,48.828,30.273,132.812,0
1505864883.458,23.438,19.043,59.570,39.551,106.445,0
1505864883.462,18.555,18.555,56.152,41.504,83.984,0
1505864883.466,26.855,24.414,43.457,52.246,103.516,0
1505864883.470,23.438,19.043,25.391,45.898,98.145,0
1505864883.474,20.996,17.090,20.020,50.781,62.500,0
1505864883.478,21.973,13.672,31.250,57.617,64.453,0
1505864883.481,20.020,9.277,38.574,41.992,95.703,0
1505864883.485,23.926,16.113,50.781,59.570,119.141,0
1505864883.489,26.855,20.996,40.527,64.941,95.215,0
1505864883.493,28.320,19.531,50.781,45.410,64.453,0
1505864883.497,29.785,21.973,61.523,40.527,76.660,0
1505864883.501,37.598,29.785,37.598,63.477,71.289,0
1505864883.505,48.828,37.598,48.828,84.961,36.133,0
1505864883.509,47.852,37.598,55.176,60.059,10.254,0
1505864883.513,40.527,30.273,37.109,49.805,35.645,0
1505864883.517,44.922,26.855,46.875,61.035,62.988,0
1505864883.520,45.898,30.273,51.270,69.336,40.039,0
1505864883.524,43.945,32.227,46.875,70.312,60.547,0
1505864883.528,47.363,30.762,42.969,69.336,77.637,0
1505864883.532,55.176,37.109,53.223,87.402,57.617,0
1505864883.536,53.223,37.598,40.527,93.262,56.641,0
1505864883.540,50.781,39.551,-17.090,77.637,47.363,0
1505864883.544,50.293,39.551,5.859,67.383,38.086,0
1505864883.548,44.434,37.598,72.266,83.984,48.828,0
1505864883.552,44.434,43.945,47.363,81.055,34.668,0
1505864883.556,37.598,45.410,24.902,62.988,60.547,0
1505864883.560,29.297,41.016,56.152,69.824,77.148,0
1505864883.563,28.320,35.156,58.105,64.941,78.125,0
1505864883.567,22.949,32.227,30.762,57.617,104.004,0
1505864883.571,19.043,27.832,32.227,60.059,90.820,0
1505864883.575,22.949,27.832,33.203,59.570,71.777,0
1505864883.579,18.555,25.391,10.742,54.688,73.730,0
1505864883.583,22.949,30.273,44.922,58.594,61.523,0
1505864883.587,20.508,32.715,69.336,58.105,58.594,0
1505864883.591,11.719,23.438,63.965,58.105,53.711,0
1505864883.595,23.438,28.320,69.336,58.594,47.852,0
1505864883.599,30.762,35.156,74.219,60.059,53.223,0
1505864883.603,28.320,29.297,68.359,52.734,86.914,0
1505864883.606,32.715,25.879,20.508,42.480,96.191,0
1505864883.610,31.250,27.344,0.977,54.199,65.918,0
1505864883.614,25.879,20.996,38.574,56.641,84.961,0
1505864883.618,27.832,13.184,56.641,48.828,93.262,0
1505864883.622,33.203,17.578,45.898,49.316,86.426,0
1505864883.626,43.945,22.461,40.039,63.965,89.355,0
1505864883.630,43.945,22.461,35.156,67.871,96.680,0
1505864883.634,41.504,28.320,43.457,70.801,116.699,0
1505864883.638,46.875,25.391,35.156,87.891,80.566,0
1505864883.642,41.016,19.043,57.129,89.355,70.801,0
1505864883.645,26.855,16.602,76.660,67.383,96.680,0
1505864883.649,27.344,16.113,71.777,45.410,83.008,0
1505864883.653,36.133,20.996,31.250,44.922,82.031,0
1505864883.657,34.668,16.602,-8.301,53.711,71.777,0
1505864883.661,30.762,19.043,25.391,48.828,101.562,0
1505864883.665,27.832,11.719,73.242,41.016,107.910,0
1505864883.669,24.902,7.812,65.430,41.992,90.820,0
1505864883.673,30.273,13.184,69.824,53.711,93.750,0
1505864883.677,33.203,16.113,81.055,60.547,86.426,0
1505864883.681,35.156,13.184,64.453,59.082,97.656,0
1505864883.685,43.457,15.137,66.895,54.688,89.355,0
1505864883.688,43.945,28.320,59.082,66.406,78.613,0
1505864883.692,38.086,30.273,52.734,63.477,107.910,0
1505864883.696,36.621,29.297,80.078,51.758,117.676,0
1505864883.700,34.668,32.227,76.172,68.359,97.656,0
1505864883.704,36.133,34.180,25.391,74.219,101.074,0
1505864883.708,35.156,36.621,24.902,51.270,119.141,0
1505864883.712,28.809,30.762,41.504,36.621,98.633,0
1505864883.716,22.461,23.926,38.574,44.434,52.246,0
1505864883.720,23.926,32.227,49.316,58.594,82.031,0
1505864883.724,23.438,26.855,84.473,61.035,108.887,0
1505864883.728,24.414,20.508,52.734,48.828,70.312,0
1505864883.731,31.738,31.250,9.766,50.781,64.453,0
1505864883.735,20.508,34.668,50.293,34.180,88.379,0
1505864883.739,4.395,25.879,76.660,27.344,105.957,0
1505864883.743,17.578,27.344,69.336,47.852,84.961,0
1505864883.747,31.738,36.133,62.012,67.383,71.777,0
1505864883.751,28.320,31.250,54.199,63.965,94.238,0
1505864883.755,21.484,26.367,45.898,38.574,113.770,0
1505864883.759,30.273,36.621,40.527,49.316,86.426,0
1505864883.763,29.785,34.668,27.344,55.176,70.801,0
1505864883.767,15.137,16.602,3.906,43.945,79.102,0
1505864883.770,20.996,19.043,6.348,52.246,103.027,0
1505864883.774,32.715,30.273,41.992,64.941,62.012,0
1505864883.778,31.738,30.762,20.020,64.941,28.809,0
1505864883.782,33.203,31.250,20.996,50.781,96.680,0
1505864883.786,39.551,30.762,49.316,41.992,94.238,0
1505864883.790,37.598,32.227,58.105,46.387,69.824,0
1505864883.794,37.109,32.715,56.641,67.871,86.426,0
1505864883.798,43.457,31.250,56.641,68.848,81.055,0
1505864883.802,45.898,30.762,67.383,44.434,79.590,0
1505864883.806,44.434,22.949,60.547,38.574,84.961,0
1505864883.810,47.852,31.250,14.160,51.270,93.262,0
1505864883.813,48.340,38.086,11.719,49.805,88.379,0
1505864883.817,40.527,25.879,68.359,46.387,76.172,0
1505864883.821,47.852,35.156,84.473,65.430,57.617,0
1505864883.825,44.434,38.574,82.520,67.871,42.969,0
1505864883.829,34.180,33.203,54.199,57.617,93.750,0
1505864883.833,42.480,38.574,9.766,63.965,93.262,0
1505864883.837,40.527,39.062,29.297,46.387,68.359,0
1505864883.841,34.668,41.504,62.988,36.133,90.820,0
1505864883.845,42.480,48.828,56.152,48.340,89.355,0
1505864883.849,49.805,46.387,51.758,50.293,76.660,0
1505864883.853,44.434,39.551,12.695,59.082,81.055,0
1505864883.856,38.574,45.410,-3.906,59.082,104.492,0
1505864883.860,33.691,41.504,56.152,43.457,78.125,0
1505864883.864,31.250,34.668,56.641,52.734,48.828,0
1505864883.868,36.133,39.062,15.137,64.941,72.266,0
1505864883.872,37.598,46.387,43.457,69.336,75.195,0
1505864883.876,35.645,48.828,92.773,45.410,122.070,0
1505864883.880,37.598,44.922,63.477,43.945,99.609,0
1505864883.884,33.691,43.457,34.180,56.641,62.012,0
1505864883.888,20.020,41.504,65.430,41.016,115.723,0
1505864883.892,14.160,38.574,98.633,37.109,118.164,0
1505864883.895,34.668,40.527,78.613,59.570,93.750,0
1505864883.899,47.852,39.062,31.250,68.359,92.285,0
1505864883.903,33.691,32.227,48.340,55.176,97.168,0
1505864883.907,27.832,30.762,57.129,72.266,95.703,0
1505864883.911,39.062,32.227,7.812,83.496,92.285,0
1505864883.915,37.598,31.738,44.922,50.781,69.824,0
1505864883.919,28.320,28.320,98.633,38.086,76.172,0
1505864883.923,32.227,24.414,101.562,59.570,67.383,0
1505864883.927,32.715,29.785,77.637,70.312,34.668,0
1505864883.931,35.156,38.574,42.480,53.223,56.152,0
1505864883.935,33.691,29.297,43.457,51.758,55.176,0
1505864883.938,42.480,28.809,56.152,62.988,63.965,0
1505864883.942,44.434,35.156,37.598,43.945,73.730,0
1505864883.946,36.621,26.367,0.488,32.715,43.457,0
1505864883.950,35.645,20.020,1.465,37.598,53.223,0
1505864883.954,44.434,27.344,52.734,46.387,49.316,0
1505864883.958,54.199,25.391,55.176,59.570,25.879,0
1505864883.962,45.898,26.855,8.789,46.875,33.203,0
1505864883.966,26.367,39.062,61.035,51.758,47.852,0
1505864883.970,23.438,36.133,96.680,63.965,31.738,0
1505864883.974,22.949,31.738,68.848,65.430,15.625,0
1505864883.978,11.719,37.109,45.410,54.199,35.645,0
1505864883.981,20.996,41.992,47.363,41.504,47.363,0
1505864883.985,28.809,42.480,52.246,42.969,50.781,0
1505864883.989,29.297,43.945,53.711,51.270,33.203,0
1505864883.993,34.668,48.340,83.008,65.918,52.734,0
1505864883.997,48.340,52.246,77.637,78.613,57.129,0
1505864884.001,54.199,49.805,61.035,83.984,43.457,0
1505864884.005,59.082,59.570,15.625,82.520,66.406,0
1505864884.009,53.711,52.734,-27.344,87.891,56.152,0
1505864884.013,41.992,39.551,44.434,79.102,44.434,0
1505864884.017,52.734,45.410,83.984,83.496,25.391,0
1505864884.020,54.688,54.199,73.242,92.773,15.137,0
1505864884.024,58.105,58.105,99.609,92.285,56.152,0
1505864884.028,55.176,50.293,116.211,83.984,57.129,0
1505864884.032,47.852,39.551,111.328,79.102,13.672,0
1505864884.036,49.805,34.180,74.219,91.309,32.227,0
1505864884.040,48.828,41.504,46.875,90.332,48.340,0
1505864884.044,38.086,44.434,50.293,61.035,23.438,0
1505864884.048,34.668,34.668,69.824,55.664,37.598,0
1505864884.052,35.645,45.410,48.828,72.266,34.180,0
1505864884.056,32.715,49.316,0.488,87.891,31.250,0
1505864884.060,32.715,37.598,30.762,81.543,10.254,0
1505864884.063,28.809,36.133,75.684,63.477,0.000,0
1505864884.067,30.762,35.645,66.895,60.547,50.781,0
1505864884.071,30.762,34.180,45.410,57.617,47.852,0
1505864884.075,38.574,31.250,45.898,52.734,41.992,0
1505864884.079,41.016,29.297,25.391,57.617,34.180,0
1505864884.083,23.438,29.785,21.484,67.383,65.430,0
1505864884.087,25.391,38.574,70.801,88.867,63.965,0
1505864884.091,43.945,34.668,70.312,81.543,9.766,0
1505864884.095,42.969,28.809,52.734,63.477,9.766,0
1505864884.099,46.387,37.109,60.547,69.824,32.227,0
1505864884.103,43.457,30.273,50.781,73.730,27.832,0
1505864884.106,25.391,20.508,-5.371,72.754,-2.441,0
1505864884.110,20.996,28.809,-3.418,65.430,-16.602,0
1505864884.114,38.086,42.969,70.312,59.082,42.969,0
1505864884.118,56.152,38.574,85.938,58.105,20.020,0
1505864884.122,36.133,8.789,55.664,48.340,-11.719,0
1505864884.126,13.672,5.371,46.387,41.016,42.480,0
1505864884.130,28.809,33.203,57.617,54.688,30.273,0
1505864884.134,29.785,40.527,51.758,52.246,18.066,0
1505864884.138,29.297,37.109,15.137,55.664,33.203,0
1505864884.142,37.109,43.457,4.883,68.359,29.785,0
1505864884.145,24.414,40.527,41.016,67.871,28.320,0
1505864884.149,27.344,37.109,18.555,81.543,-0.488,0
1505864884.153,41.504,40.039,-6.348,81.055,-22.949,0
1505864884.157,36.621,37.109,42.969,61.523,7.324,0
1505864884.161,26.367,31.738,81.055,55.664,23.438,0
1505864884.165,14.160,31.250,74.219,83.984,42.969,0
1505864884.169,33.203,41.016,56.152,87.891,52.734,0
1505864884.173,48.828,43.945,38.086,61.523,48.828,0
1505864884.177,50.781,35.156,36.133,67.871,35.645,0
1505864884.181,50.781,34.180,49.316,84.961,42.480,0
1505864884.185,42.969,48.828,60.547,92.285,58.105,0
1505864884.188,35.156,42.969,49.316,84.961,54.688,0
1505864884.192,48.340,29.785,56.641,95.215,52.246,0
1505864884.196,53.711,32.227,24.414,89.355,21.973,0
1505864884.200,49.316,26.855,-6.348,79.102,24.902,0
1505864884.204,40.039,22.949,49.316,74.219,59.082,0
1505864884.208,29.297,20.020,79.590,71.289,43.945,0
1505864884.212,35.156,27.344,64.453,98.145,25.391,0
1505864884.216,40.039,33.203,48.828,99.121,49.805,0
1505864884.220,37.109,37.598,44.922,84.961,42.969,0
1505864884.224,37.109,44.434,62.988,75.195,28.809,0
1505864884.228,39.551,36.621,72.754,69.336,36.621,0
1505864884.231,27.832,24.902,53.711,57.617,52.734,0
1505864884.235,38.086,29.297,29.785,58.105,60.059,0
1505864884.239,26.367,31.250,33.203,67.383,40.039,0
1505864884.243,8.789,16.113,44.922,62.012,23.438,0
1505864884.247,25.391,18.555,45.410,72.266,6.348,0
1505864884.251,25.879,29.297,56.152,80.078,45.898,0
1505864884.255,22.949,22.949,27.832,71.777,38.574,0
1505864884.259,12.695,6.348,13.672,39.062,-5.371,0
1505864884.263,7.812,22.461,61.523,30.762,30.273,0
1505864884.267,16.602,31.250,46.875,46.875,5.859,0
1505864884.270,22.461,23.926,11.719,53.223,-7.324,0
1505864884.274,16.602,23.926,6.348,51.270,13.184,0
1505864884.278,15.137,19.531,11.230,39.551,22.461,0
1505864884.282,25.391,20.020,27.832,41.992,37.109,0
1505864884.286,40.527,18.555,24.902,50.781,42.969,0
1505864884.290,41.504,27.344,0.488,52.734,29.785,0
1505864884.294,41.992,36.133,43.945,54.688,30.273,0
1505864884.298,47.852,24.414,94.238,62.012,27.832,0
1505864884.302,40.039,32.715,45.898,69.336,-3.418,0
1505864884.306,27.344,37.598,19.531,44.922,25.879,0
1505864884.310,29.297,22.461,59.082,20.508,71.777,0
1505864884.313,32.227,19.043,60.547,39.062,37.598,0
1505864884.317,42.480,30.273,42.969,61.035,17.578,0
1505864884.321,42.480,39.551,42.969,75.684,47.363,0
1505864884.325,42.969,34.180,45.410,82.520,48.340,0
1505864884.329,44.922,34.180,49.316,53.223,21.973,0
1505864884.333,42.480,30.762,56.641,44.922,47.363,0
1505864884.337,50.781,25.879,58.594,46.387,59.570,0
1505864884.341,37.109,21.484,3.906,46.875,36.621,0
1505864884.345,48.340,28.809,24.414,69.336,8.301,0
1505864884.349,38.574,23.438,88.379,64.941,12.207,0
1505864884.353,36.133,24.902,62.500,56.641,41.504,0
1505864884.356,61.035,36.621,35.156,55.176,40.527,0
1505864884.360,41.992,22.461,66.895,54.199,20.020,0
1505864884.364,23.926,25.879,82.031,54.199,16.113,0
1505864884.368,29.785,24.414,61.523,59.082,53.223,0
1505864884.372,52.734,24.902,53.711,69.824,49.805,0
1505864884.376,48.828,28.809,37.109,59.082,21.973,0
1505864884.380,33.691,22.461,28.320,58.105,31.250,0
1505864884.384,25.879,20.996,31.738,46.387,58.594,0
1505864884.388,37.598,21.973,31.250,60.059,34.668,0
1505864884.392,37.109,22.461,-1.465,73.730,11.230,0
1505864884.395,36.133,19.043,-0.977,72.754,20.996,0
1505864884.399,41.992,17.578,42.480,68.359,48.828,0
1505864884.403,32.715,17.578,62.012,46.387,54.199,0
1505864884.407,37.598,27.344,55.664,55.664,30.762,0
1505864884.411,36.133,27.832,54.199,67.383,48.340,0
1505864884.415,45.898,24.414,37.109,62.500,55.176,0
1505864884.419,60.547,45.898,50.781,77.148,16.602,0
1505864884.423,35.645,41.504,58.105,64.941,25.391,0
1505864884.427,16.113,23.438,-14.160,40.527,59.082,0
1505864884.431,28.809,18.066,-7.324,53.711,44.922,0
1505864884.435,50.781,20.508,70.801,77.148,23.926,0
1505864884.438,52.734,20.508,83.984,48.828,-5.371,0
1505864884.442,40.527,21.484,63.477,20.508,16.602,0
1505864884.446,34.668,27.832,34.668,24.902,21.484,0
1505864884.450,23.926,22.949,30.762,42.969,27.344,0
1505864884.454,34.668,21.484,29.785,58.594,44.434,0
1505864884.458,36.133,26.367,22.949,61.035,42.969,0
1505864884.462,38.574,38.574,27.832,63.477,52.734,0
1505864884.466,32.715,36.621,35.156,54.688,50.781,0
1505864884.470,29.297,31.250,33.691,54.199,61.035,0
1505864884.474,46.875,41.992,12.207,50.293,56.152,0
1505864884.478,49.805,43.457,-10.742,52.734,31.250,0
1505864884.481,27.344,26.855,33.203,63.477,13.184,0
1505864884.485,15.137,22.461,60.547,37.109,5.371,0
1505864884.489,38.086,30.273,59.570,37.109,22.949,0
1505864884.493,53.711,36.621,47.852,55.664,10.742,0
1505864884.497,33.203,37.598,28.809,50.293,5.371,0
1505864884.501,15.137,29.297,6.348,27.832,9.766,0
1505864884.505,38.086,31.738,28.320,31.250,14.160,0
1505864884.509,34.180,26.855,46.875,34.180,12.695,0
1505864884.513,16.113,19.531,39.062,32.227,-8.301,0
1505864884.517,20.508,28.320,57.617,38.574,-13.184,0
1505864884.520,15.625,30.762,58.594,45.410,9.766,0
1505864884.524,18.066,41.016,-1.953,64.453,26.855,0
1505864884.528,21.973,33.691,-8.301,51.270,9.766,0
1505864884.532,12.207,21.484,91.797,23.926,16.113,0
1505864884.536,9.277,26.367,64.941,32.227,13.672,0
1505864884.540,18.066,29.297,15.137,45.410,-9.766,0
1505864884.544,27.832,32.227,57.617,39.551,-33.203,0
1505864884.548,29.297,34.668,63.965,36.621,-16.113,0
1505864884.552,30.273,38.574,42.969,42.480,-8.301,0
1505864884.556,27.832,40.527,38.574,48.828,-11.719,0
1505864884.560,16.602,31.250,33.691,38.086,-3.418,0
1505864884.563,26.855,30.273,53.223,38.574,-5.859,0
1505864884.567,36.133,39.551,45.898,54.688,-16.113,0
1505864884.571,35.645,38.086,55.176,65.430,-25.879,0
1505864884.575,31.250,23.438,55.664,44.434,-17.090,0
1505864884.579,43.945,23.926,14.648,40.039,-4.395,0
1505864884.583,44.922,27.832,16.602,42.969,-11.230,0
1505864884.587,28.320,22.461,43.457,35.645,-11.719,0
1505864884.591,20.508,20.020,48.828,28.809,-6.836,0
1505864884.595,20.508,26.855,19.531,41.992,-6.836,0
1505864884.599,39.551,35.645,30.762,53.223,-10.254,0
1505864884.603,32.715,28.809,53.711,46.875,-11.230,0
1505864884.606,18.555,20.996,16.113,30.762,-5.859,0
1505864884.610,36.621,36.621,-4.883,45.898,0.488,0
1505864884.614,44.434,42.969,45.898,66.406,-13.184,0
1505864884.618,36.621,27.344,68.848,50.781,-3.906,0
1505864884.622,25.879,21.973,33.203,43.457,21.484,0
1505864884.626,27.344,24.902,41.016,49.805,17.578,0
1505864884.630,36.133,25.391,65.918,30.273,22.949,0
1505864884.634,29.785,27.344,55.176,22.949,36.621,0
1505864884.638,29.785,43.945,34.668,29.297,20.508,0
1505864884.642,17.578,21.484,55.664,34.180,6.836,0
1505864884.645,16.113,1.953,48.828,53.223,28.809,0
1505864884.649,33.203,23.926,-1.465,66.895,51.758,0
1505864884.653,32.715,23.926,24.414,53.223,33.203,0
1505864884.657,16.602,20.020,97.656,34.180,36.133,0
1505864884.661,27.344,28.809,110.840,41.504,41.992,0
1505864884.665,37.109,22.949,64.453,54.688,30.762,0
1505864884.669,18.066,20.508,35.645,64.941,59.082,0
1505864884.673,26.855,29.297,54.688,56.641,51.758,0
1505864884.677,30.273,27.832,43.457,23.926,29.785,0
1505864884.681,26.367,28.809,31.250,19.043,65.918,0
1505864884.685,36.133,45.898,55.176,47.363,78.125,0
1505864884.688,28.320,41.504,41.016,44.922,59.570,0
1505864884.692,23.438,32.227,63.477,51.758,78.125,0
1505864884.696,25.879,41.504,66.895,57.617,50.781,0
1505864884.700,28.320,28.809,23.926,45.898,36.133,0
1505864884.704,29.297,24.902,71.289,47.852,37.109,0
1505864884.708,16.113,35.156,57.617,64.941,11.230,0
1505864884.712,-2.930,26.367,1.953,44.434,25.879,0
1505864884.716,1.465,19.043,27.832,15.137,19.531,0
1505864884.720,19.043,15.625,43.457,10.742,-9.766,0
1505864884.724,27.832,23.438,40.527,24.902,-11.719,0
1505864884.728,21.973,21.484,26.367,29.297,20.508,0
1505864884.731,20.020,13.672,13.672,35.645,22.949,0
1505864884.735,16.602,15.625,26.855,65.918,5.859,0
1505864884.739,1.465,9.766,-2.441,44.434,17.578,0
1505864884.743,-2.441,7.812,-2.441,8.789,14.160,0
1505864884.747,6.836,-0.977,40.039,17.090,-0.488,0
1505864884.751,19.531,0.000,30.762,35.645,6.348,0
1505864884.755,30.273,6.348,48.340,53.223,-18.066,0
1505864884.759,35.156,2.930,54.688,50.293,-40.527,0
1505864884.763,39.551,17.578,42.480,47.363,-43.945,0
1505864884.767,50.293,26.367,-25.391,60.547,-57.129,0
1505864884.770,50.781,21.484,-32.715,49.805,-37.109,0
1505864884.774,31.738,20.020,52.246,37.598,-33.691,0
1505864884.778,16.602,19.531,58.105,43.457,-49.805,0
1505864884.782,20.996,18.066,36.133,42.969,-26.855,0
1505864884.786,17.578,5.371,41.504,33.691,5.859,0
1505864884.790,20.020,10.254,34.668,41.504,0.488,0
1505864884.794,28.320,20.508,18.555,57.617,-41.504,0
1505864884.798,27.344,10.254,20.996,46.875,-70.312,0
1505864884.802,14.160,3.906,41.504,33.203,-60.059,0
1505864884.806,11.719,9.766,29.297,44.922,-51.758,0
1505864884.810,20.508,11.719,-4.395,48.340,-44.922,0
1505864884.813,22.461,18.555,-11.230,44.434,-63.965,0
1505864884.817,8.301,17.578,-7.324,36.133,-37.598,0
1505864884.821,8.789,1.465,-33.691,32.715,-13.672,0
1505864884.825,4.883,4.395,-6.836,23.438,-33.691,0
1505864884.829,5.859,7.812,54.688,21.973,-33.691,0
1505864884.833,12.207,6.348,41.016,21.484,-17.578,0
1505864884.837,22.461,15.137,35.156,17.578,-9.766,0
1505864884.841,35.156,21.973,47.363,41.504,-41.016,0
1505864884.845,30.762,24.902,16.602,66.406,-18.066,0
1505864884.849,32.227,17.090,17.090,41.504,24.414,0
1505864884.853,36.133,21.484,9.277,24.902,8.301,0
1505864884.856,36.133,21.973,-18.066,28.809,-29.785,0
1505864884.860,35.156,22.461,6.836,22.949,-12.207,0
1505864884.864,41.992,30.273,37.109,30.273,26.855,0
1505864884.868,32.715,19.531,63.965,33.691,-1.953,0
1505864884.872,24.902,9.766,24.414,40.039,-23.926,0
1505864884.876,32.715,15.625,10.742,64.941,-17.090,0
1505864884.880,39.551,17.578,34.668,48.828,-14.160,0
1505864884.884,40.039,17.090,34.180,11.230,-10.742,0
1505864884.888,35.156,17.090,23.438,20.996,-17.090,0
1505864884.892,37.598,13.184,29.785,31.738,-33.691,0
1505864884.895,45.410,12.695,33.691,45.898,-61.035,0
1505864884.899,47.363,15.137,6.348,53.711,-53.223,0
1505864884.903,40.039,10.742,5.859,51.270,-26.367,0
1505864884.907,31.250,1.465,20.508,40.527,-28.320,0
1505864884.911,32.715,2.930,39.062,45.898,0.488,0
1505864884.915,35.645,3.418,36.621,55.176,-17.090,0
1505864884.919,43.945,-0.488,35.645,53.711,-61.035,0
1505864884.923,37.598,3.418,61.035,56.641,-6.836,0
1505864884.927,18.066,-2.930,40.039,40.527,-13.184,0
1505864884.931,14.160,-7.324,18.066,33.203,-33.691,0
1505864884.935,16.602,2.930,10.742,49.316,-2.441,0
1505864884.938,16.113,8.789,-18.066,52.734,4.883,0
1505864884.942,22.461,5.859,5.859,59.082,8.301,0
1505864884.946,28.320,4.883,29.297,63.477,-23.438,0
1505864884.950,22.461,5.859,20.508,54.199,-45.898,0
1505864884.954,23.926,9.766,49.316,54.199,-4.883,0
1505864884.958,34.668,18.066,39.062,66.895,-20.020,0
1505864884.962,33.691,14.160,36.133,68.359,-29.785,0
1505864884.966,24.902,9.277,56.152,56.152,3.906,0
1505864884.970,28.809,9.766,56.152,55.176,-7.324,0
1505864884.974,23.926,11.719,47.852,67.383,-38.086,0
1505864884.978,20.508,20.020,24.414,57.617,-30.273,0
1505864884.981,37.598,31.738,15.137,50.781,6.348,0
1505864884.985,45.898,29.297,40.039,60.547,5.371,0
1505864884.989,41.504,26.367,54.199,63.477,-10.742,0
1505864884.993,38.574,25.879,34.180,67.383,-13.672,0
1505864884.997,31.250,19.531,26.367,51.270,-7.812,0
1505864885.001,28.809,22.949,22.949,34.180,-12.695,0
1505864885.005,37.109,32.227,26.855,62.988,-30.762,0
1505864885.009,34.180,30.762,-0.977,67.383,-26.855,0
1505864885.013,34.668,35.645,-8.301,56.641,13.184,0
1505864885.017,37.598,31.250,21.484,58.594,18.555,0
1505864885.020,34.180,20.020,24.902,37.598,33.203,0
1505864885.024,26.855,11.719,36.621,24.414,38.574,0
1505864885.028,23.926,9.277,33.203,30.273,61.523,0
1505864885.032,30.762,12.207,18.555,42.969,73.730,0
1505864885.036,30.273,12.207,33.691,55.664,62.012,0
1505864885.040,26.855,15.625,34.180,66.406,59.082,0
1505864885.044,27.832,15.625,18.066,50.781,100.098,0
1505864885.048,39.062,29.297,17.090,45.898,101.562,0
1505864885.052,44.434,33.691,40.527,51.758,72.266,0
1505864885.056,37.109,25.391,51.758,61.523,92.285,0
1505864885.060,33.691,30.273,44.922,63.965,106.934,0
1505864885.063,41.016,29.297,64.941,62.500,100.586,0
1505864885.067,42.969,25.879,50.293,64.941,47.852,0
1505864885.071,36.133,26.855,26.367,65.430,61.035,0
1505864885.075,38.086,22.461,56.641,75.684,96.680,0
1505864885.079,32.227,22.949,77.148,68.848,66.406,0
1505864885.083,33.203,30.273,83.496,59.570,80.566,0
1505864885.087,45.410,35.156,81.543,68.848,123.047,0
1505864885.091,40.527,35.156,4.883,66.406,95.215,0
1505864885.095,41.504,31.738,9.277,67.871,50.293,0
1505864885.099,33.691,28.809,76.660,63.965,83.008,0
1505864885.103,28.320,23.438,62.988,65.918,128.906,0
1505864885.106,26.367,18.066,33.203,65.918,106.445,0
1505864885.110,26.855,19.531,3.906,28.320,89.844,0
