timestamps,TP9,AF7,AF8,TP10,Right AUX,Marker0
1508750678.700,35.156,35.156,58.594,22.949,40.527,0
1508750678.704,45.410,37.598,60.059,34.668,36.133,0
1508750678.708,49.805,38.086,65.430,35.645,14.160,0
1508750678.712,43.457,29.297,79.590,31.738,12.207,0
1508750678.716,55.176,33.203,62.012,42.480,0.000,0
1508750678.720,44.434,33.203,60.059,29.297,0.977,0
1508750678.724,10.254,24.902,78.613,-1.465,13.184,0
1508750678.728,9.766,25.879,63.965,-7.324,-9.277,0
1508750678.732,25.879,29.785,59.570,7.812,-23.438,0
1508750678.735,43.457,43.945,91.309,32.227,-9.277,0
1508750678.739,34.180,31.250,91.309,20.996,20.020,0
1508750678.743,23.926,27.832,66.406,7.324,-7.812,0
1508750678.747,20.996,24.902,61.523,17.090,-29.785,0
1508750678.751,21.973,18.555,92.773,20.508,7.812,0
1508750678.755,17.578,27.832,89.844,11.719,7.324,0
1508750678.759,0.488,11.719,67.383,-9.766,-18.555,0
1508750678.763,20.020,26.855,78.125,1.953,-14.648,0
1508750678.767,32.715,27.832,83.008,7.324,-10.742,0
1508750678.771,43.457,29.297,62.500,22.461,-39.062,0
1508750678.774,44.434,50.781,82.031,34.668,-81.543,0
1508750678.778,50.781,56.152,124.512,35.156,-72.266,0
1508750678.782,59.082,47.363,116.699,40.527,-30.762,0
1508750678.786,32.715,14.648,81.055,14.648,-8.789,0
1508750678.790,19.531,-15.137,79.590,-1.465,-20.020,0
1508750678.794,13.672,-19.043,101.074,-7.812,-41.992,0
1508750678.798,49.316,35.156,80.078,22.949,-23.438,0
1508750678.802,68.848,53.223,66.895,43.945,-33.203,0
1508750678.806,66.895,46.875,80.078,49.316,-36.621,0
1508750678.810,70.801,40.039,95.215,55.664,-17.578,0
1508750678.814,49.316,27.832,90.820,32.227,-33.691,0
1508750678.817,27.832,25.391,80.566,8.301,-47.852,0
1508750678.821,18.066,9.277,83.984,1.953,-50.293,0
1508750678.825,33.691,8.301,81.055,15.625,-63.965,0
1508750678.829,54.199,21.484,77.637,35.156,-51.270,0
1508750678.833,54.688,44.434,87.891,38.086,-41.992,0
1508750678.837,40.039,44.922,85.938,18.066,-89.355,0
1508750678.841,48.828,35.156,104.004,25.391,-76.660,0
1508750678.845,44.434,20.508,117.188,20.508,-31.738,0
1508750678.849,36.621,19.043,89.844,11.719,-49.316,0
1508750678.853,40.039,23.926,91.797,19.043,-62.500,0
1508750678.857,46.875,32.227,80.566,28.809,-31.738,0
1508750678.860,55.664,40.527,53.223,34.180,-42.480,0
1508750678.864,48.340,26.367,58.105,25.391,-55.176,0
1508750678.868,38.574,12.695,72.266,15.137,-33.203,0
1508750678.872,44.922,20.996,89.355,23.926,-37.598,0
1508750678.876,55.176,34.668,74.707,37.109,-45.898,0
1508750678.880,53.711,31.738,51.758,30.762,-78.613,0
1508750678.884,52.246,30.762,91.309,23.438,-68.848,0
1508750678.888,52.246,35.156,90.820,23.438,-33.691,0
1508750678.892,47.852,29.297,48.340,20.020,-56.152,0
1508750678.896,45.898,26.855,43.945,14.160,-67.871,0
1508750678.899,54.688,35.645,71.777,23.438,-38.574,0
1508750678.903,62.012,37.598,80.566,41.016,-10.742,0
1508750678.907,61.035,41.504,22.461,42.969,-11.719,0
1508750678.911,43.945,32.227,41.992,21.973,-64.453,0
1508750678.915,15.625,6.836,104.004,-4.883,-41.504,0
1508750678.919,17.578,11.230,69.824,-9.277,-4.395,0
1508750678.923,36.621,28.809,37.109,7.324,-35.645,0
1508750678.927,41.016,32.227,42.969,13.184,-41.992,0
1508750678.931,60.547,45.410,71.777,27.832,-10.254,0
1508750678.935,67.383,42.969,61.035,38.086,31.738,0
1508750678.939,71.777,36.133,28.320,48.340,-5.859,0
1508750678.942,75.195,40.527,50.781,52.246,-17.090,0
1508750678.946,48.828,20.996,60.059,26.855,13.672,0
1508750678.950,20.996,-2.441,50.293,-1.953,19.043,0
1508750678.954,32.715,18.066,34.180,17.090,16.602,0
1508750678.958,52.734,42.480,45.898,43.457,-4.395,0
1508750678.962,47.852,46.387,43.457,38.086,16.602,0
1508750678.966,61.035,52.734,16.602,52.734,58.105,0
1508750678.970,32.227,11.230,51.270,22.949,51.758,0
1508750678.974,3.418,-5.859,77.637,-7.324,11.230,0
1508750678.978,27.344,20.020,48.828,16.602,22.949,0
1508750678.982,71.777,61.523,27.344,64.453,39.551,0
1508750678.985,56.641,60.059,30.762,50.781,16.602,0
1508750678.989,19.531,11.230,50.293,11.230,0.488,0
1508750678.993,26.855,8.301,39.551,17.578,26.367,0
1508750678.997,62.500,51.758,15.625,37.109,47.852,0
1508750679.001,58.594,42.480,26.367,26.855,34.668,0
1508750679.005,33.203,16.113,60.059,12.207,38.574,0
1508750679.009,37.598,24.902,73.242,16.113,50.293,0
1508750679.013,40.039,21.973,53.711,16.113,40.527,0
1508750679.017,40.527,18.066,32.227,18.066,29.297,0
1508750679.021,61.523,42.480,27.344,39.551,46.875,0
1508750679.024,87.402,65.430,34.180,62.988,72.266,0
1508750679.028,69.336,41.016,46.387,47.852,71.289,0
1508750679.032,40.527,11.719,43.457,20.508,65.430,0
1508750679.036,27.832,8.301,56.641,9.766,73.242,0
1508750679.040,34.668,29.297,46.387,19.531,54.688,0
1508750679.044,49.316,37.109,29.785,36.621,37.598,0
1508750679.048,27.832,12.207,43.945,17.578,49.805,0
1508750679.052,77.637,65.918,35.645,62.988,36.621,0
1508750679.056,107.910,91.309,37.598,98.633,39.551,0
1508750679.060,8.301,-2.930,58.594,1.953,31.250,0
1508750679.064,-8.789,-16.602,73.242,-24.902,29.297,0
1508750679.067,35.645,17.578,76.172,20.996,54.199,0
1508750679.071,45.410,26.855,40.527,35.645,60.059,0
1508750679.075,45.898,40.527,26.855,38.574,52.246,0
1508750679.079,22.461,28.809,55.176,22.461,57.129,0
1508750679.083,14.648,17.090,43.457,14.648,80.566,0
1508750679.087,60.059,40.527,13.184,55.176,54.688,0
1508750679.091,82.031,63.965,45.898,76.660,35.156,0
1508750679.095,26.855,24.902,66.895,25.391,46.387,0
1508750679.099,4.395,8.301,48.340,4.395,31.738,0
1508750679.103,18.555,19.531,41.016,17.090,19.043,0
1508750679.107,16.602,7.812,56.152,15.625,-17.090,0
1508750679.110,11.230,8.789,75.195,16.113,-17.578,0
1508750679.114,19.531,22.949,52.734,26.855,47.852,0
1508750679.118,41.992,32.227,36.621,45.898,47.363,0
1508750679.122,42.969,34.668,47.852,46.387,20.020,0
1508750679.126,44.434,38.574,53.223,41.992,50.781,0
1508750679.130,44.922,23.926,31.738,40.527,48.828,0
1508750679.134,41.016,15.137,21.973,37.109,34.180,0
1508750679.138,50.781,33.203,48.828,46.875,36.133,0
1508750679.142,38.574,22.949,56.641,36.621,29.297,0
1508750679.146,30.273,8.301,43.945,24.902,33.691,0
1508750679.149,56.152,20.508,32.227,50.781,-5.371,0
1508750679.153,60.547,21.484,41.992,53.223,-21.973,0
1508750679.157,35.156,12.695,45.410,24.414,1.465,0
1508750679.161,33.203,28.320,33.691,28.809,12.207,0
1508750679.165,48.340,42.480,26.855,40.039,24.902,0
1508750679.169,52.734,39.551,49.805,32.227,17.578,0
1508750679.173,59.082,44.922,56.152,46.387,23.926,0
1508750679.177,65.918,49.316,42.969,51.758,24.414,0
1508750679.181,58.105,32.715,38.574,36.621,41.016,0
1508750679.185,52.734,25.879,38.574,38.086,34.668,0
1508750679.189,36.133,20.996,45.410,25.391,32.227,0
1508750679.192,21.973,15.625,51.270,13.672,42.969,0
1508750679.196,19.531,18.066,34.668,13.672,20.020,0
1508750679.200,38.574,33.203,28.320,23.438,40.527,0
1508750679.204,67.871,58.594,33.203,50.293,54.688,0
1508750679.208,55.176,55.176,41.504,46.875,35.156,0
1508750679.212,16.113,15.137,57.129,18.555,23.926,0
1508750679.216,6.836,-2.441,57.617,7.324,38.086,0
1508750679.220,25.391,17.090,53.711,14.648,35.156,0
1508750679.224,63.965,65.430,41.016,52.246,18.555,0
1508750679.228,72.266,62.500,42.480,66.895,14.648,0
1508750679.232,42.969,22.949,52.734,41.504,42.969,0
1508750679.235,38.086,34.668,31.738,31.250,41.504,0
1508750679.239,36.621,41.016,31.738,22.461,0.977,0
1508750679.243,24.902,26.367,72.754,10.742,-17.090,0
1508750679.247,35.156,32.227,73.730,20.020,11.719,0
1508750679.251,41.016,40.039,37.598,35.156,48.340,0
1508750679.255,40.039,41.016,39.551,40.039,29.297,0
1508750679.259,63.965,50.781,70.801,60.059,40.527,0
1508750679.263,64.453,42.969,59.570,53.223,51.758,0
1508750679.267,33.203,20.996,41.016,19.043,61.035,0
1508750679.271,15.625,10.254,60.547,4.395,42.969,0
1508750679.274,40.527,45.410,50.781,30.273,16.602,0
1508750679.278,55.176,62.012,40.039,36.621,38.574,0
1508750679.282,43.945,37.598,29.297,22.949,35.645,0
1508750679.286,37.598,27.344,39.551,24.902,7.324,0
1508750679.290,48.340,33.691,81.543,44.922,21.484,0
1508750679.294,58.594,34.668,49.316,53.711,33.691,0
1508750679.298,56.641,36.133,35.645,43.945,4.395,0
1508750679.302,54.688,38.574,83.008,42.480,-11.719,0
1508750679.306,59.082,40.527,78.613,48.828,-1.465,0
1508750679.310,40.527,25.391,39.551,33.203,12.207,0
1508750679.314,33.203,26.855,39.551,25.879,29.785,0
1508750679.317,52.734,47.852,57.129,44.922,45.898,0
1508750679.321,61.523,47.852,37.598,61.523,38.574,0
1508750679.325,81.543,65.430,30.762,82.031,35.156,0
1508750679.329,61.035,54.199,61.035,58.105,24.902,0
1508750679.333,20.508,10.254,74.707,16.602,24.414,0
1508750679.337,21.484,11.230,73.242,19.043,20.508,0
1508750679.341,40.039,35.156,57.129,43.457,13.672,0
1508750679.345,41.992,36.133,40.527,48.340,3.418,0
1508750679.349,49.805,46.875,52.246,55.664,22.461,0
1508750679.353,69.824,52.734,33.691,70.312,46.875,0
1508750679.357,53.223,24.414,45.898,45.410,23.438,0
1508750679.360,33.691,16.602,63.477,21.973,2.441,0
1508750679.364,33.203,23.438,46.875,16.602,1.465,0
1508750679.368,58.105,41.992,52.734,42.480,47.852,0
1508750679.372,60.547,51.270,42.969,55.664,34.668,0
1508750679.376,27.832,34.668,40.039,23.926,-26.855,0
1508750679.380,27.344,29.297,64.941,14.648,5.859,0
1508750679.384,37.109,29.785,59.570,18.555,57.129,0
1508750679.388,50.293,33.203,29.785,38.574,16.602,0
1508750679.392,67.383,52.246,18.555,58.594,-31.250,0
1508750679.396,80.078,65.918,49.316,63.477,-16.602,0
1508750679.399,65.430,43.945,70.312,52.246,33.691,0
1508750679.403,44.434,23.926,58.105,32.715,10.254,0
1508750679.407,53.711,44.434,56.641,38.086,-15.137,0
1508750679.411,37.109,13.672,60.547,14.648,34.668,0
1508750679.415,38.086,5.859,44.434,10.254,33.691,0
1508750679.419,59.082,47.852,40.039,34.180,-0.488,0
1508750679.423,44.922,43.945,33.203,23.926,-1.953,0
1508750679.427,53.711,56.152,37.598,34.180,37.109,0
1508750679.431,73.730,61.035,55.176,57.617,54.199,0
1508750679.435,54.199,28.809,49.316,40.527,26.855,0
1508750679.439,50.293,32.715,59.082,35.645,-25.391,0
1508750679.442,38.086,19.531,66.406,30.273,-1.465,0
1508750679.446,24.414,3.906,51.758,22.949,45.410,0
1508750679.450,52.246,36.621,41.992,47.363,34.180,0
1508750679.454,69.824,54.199,48.340,63.477,21.484,0
1508750679.458,55.664,43.945,65.430,49.805,18.555,0
1508750679.462,43.457,29.297,60.547,32.715,13.672,0
1508750679.466,49.316,30.273,44.434,37.109,1.953,0
1508750679.470,63.965,36.133,54.199,50.781,15.137,0
1508750679.474,81.543,41.992,70.312,71.777,8.301,0
1508750679.478,88.379,44.922,49.805,83.984,-4.395,0
1508750679.482,74.707,36.621,30.762,67.383,-11.230,0
1508750679.485,73.730,35.156,58.105,60.547,0.000,0
1508750679.489,73.242,31.738,61.035,64.453,19.531,0
1508750679.493,62.988,20.508,61.523,61.523,-0.977,0
1508750679.497,72.266,28.320,37.109,66.406,-5.859,0
1508750679.501,104.980,58.105,20.508,95.703,15.625,0
1508750679.505,80.078,39.062,68.848,76.660,14.648,0
1508750679.509,53.711,16.113,81.055,45.898,9.277,0
1508750679.513,70.801,33.203,52.246,59.082,10.254,0
1508750679.517,84.961,45.898,33.691,78.613,12.695,0
1508750679.521,86.426,48.828,61.035,84.473,7.324,0
1508750679.524,70.801,36.621,53.711,66.895,-16.113,0
1508750679.528,55.176,17.578,50.293,43.457,-11.230,0
1508750679.532,65.918,32.227,41.016,61.035,34.180,0
1508750679.536,82.031,48.828,21.973,85.449,24.902,0
1508750679.540,60.547,34.668,64.453,58.105,-14.648,0
1508750679.544,51.270,25.391,85.449,48.828,-9.766,0
1508750679.548,72.266,21.484,44.922,73.730,29.785,0
1508750679.552,70.312,27.344,40.527,67.383,13.672,0
1508750679.556,33.691,25.879,58.105,29.785,-21.484,0
1508750679.560,29.785,25.391,45.898,31.250,-15.137,0
1508750679.564,47.852,34.668,50.781,44.922,36.621,0
1508750679.567,46.387,39.551,33.203,38.574,20.020,0
1508750679.571,36.621,35.645,49.316,29.297,-40.039,0
1508750679.575,32.715,12.207,71.777,21.484,-27.344,0
1508750679.579,49.316,5.371,40.527,36.621,9.766,0
1508750679.583,63.965,39.551,38.086,63.965,18.066,0
1508750679.587,73.730,57.129,47.852,73.730,1.953,0
1508750679.591,68.848,48.340,39.551,59.570,15.137,0
1508750679.595,41.992,16.113,53.223,28.320,16.602,0
1508750679.599,58.594,12.207,52.246,41.992,37.598,0
1508750679.603,73.730,43.945,53.711,63.965,42.969,0
1508750679.607,24.414,22.461,66.895,18.066,23.926,0
1508750679.610,53.711,23.438,43.945,40.527,37.109,0
1508750679.614,102.051,62.500,43.457,91.309,60.547,0
1508750679.618,44.922,39.062,81.543,33.691,38.086,0
1508750679.622,1.953,-2.930,71.777,-14.648,19.531,0
1508750679.626,44.922,21.484,28.809,29.297,40.527,0
1508750679.630,83.984,65.918,28.320,67.383,38.086,0
1508750679.634,41.016,39.551,73.730,19.531,17.090,0
1508750679.638,33.691,9.277,62.988,13.184,38.574,0
1508750679.642,56.152,13.184,38.086,40.527,73.242,0
1508750679.646,37.109,30.273,62.988,25.391,51.270,0
1508750679.649,42.969,53.223,70.801,31.738,56.641,0
1508750679.653,54.688,54.199,55.176,44.922,49.316,0
1508750679.657,65.918,49.805,38.086,58.105,29.297,0
1508750679.661,48.340,25.391,57.617,41.016,28.809,0
1508750679.665,10.742,-13.184,84.473,-1.953,26.855,0
1508750679.669,35.156,4.395,62.012,15.137,40.527,0
1508750679.673,45.410,20.020,49.805,26.367,2.930,0
1508750679.677,45.410,32.715,76.172,22.461,6.836,0
1508750679.681,53.223,45.410,73.730,29.785,54.199,0
1508750679.685,61.035,54.199,56.641,41.504,51.270,0
1508750679.689,49.805,44.434,72.754,30.273,54.688,0
1508750679.692,8.789,4.395,76.660,-6.348,35.645,0
1508750679.696,7.324,9.277,83.984,-5.859,37.109,0
1508750679.700,47.852,44.922,75.195,43.945,54.199,0
1508750679.704,50.781,32.227,35.645,48.828,9.277,0
1508750679.708,36.133,28.809,44.434,19.531,1.465,0
1508750679.712,40.039,44.922,71.777,25.879,50.293,0
1508750679.716,29.297,27.832,75.195,21.973,53.711,0
1508750679.720,25.391,25.879,53.223,21.484,31.738,0
1508750679.724,41.504,39.551,49.805,38.086,14.648,0
1508750679.728,53.223,31.250,87.891,47.852,26.855,0
1508750679.732,54.688,10.742,74.707,45.898,35.645,0
1508750679.735,43.457,20.020,57.129,32.715,37.598,0
1508750679.739,28.809,28.809,73.730,17.090,33.203,0
1508750679.743,28.320,23.438,82.520,10.742,44.922,0
1508750679.747,24.414,20.020,68.848,10.742,33.691,0
1508750679.751,50.781,37.598,40.039,34.668,5.371,0
1508750679.755,71.777,48.340,57.617,50.781,21.484,0
1508750679.759,36.621,26.855,76.660,22.461,6.348,0
1508750679.763,28.320,25.879,68.848,19.043,1.465,0
1508750679.767,40.527,33.691,46.387,24.902,-22.461,0
1508750679.771,58.594,45.410,65.430,40.039,-19.043,0
1508750679.774,66.406,52.734,52.246,52.734,20.020,0
1508750679.778,71.289,54.688,25.879,55.176,-11.719,0
1508750679.782,40.527,15.137,71.289,18.066,-20.508,0
1508750679.786,9.277,-14.160,76.172,-10.254,37.598,0
1508750679.790,25.879,16.602,62.500,10.742,21.484,0
1508750679.794,42.969,35.645,45.898,19.531,-17.578,0
1508750679.798,47.363,39.062,39.551,20.020,11.719,0
1508750679.802,48.340,46.387,52.734,28.809,28.320,0
1508750679.806,55.664,50.781,35.156,40.039,1.953,0
1508750679.810,51.758,39.062,36.621,39.062,-29.785,0
1508750679.814,38.574,30.273,82.031,24.414,-14.648,0
1508750679.817,43.945,40.039,59.082,33.203,7.812,0
1508750679.821,36.133,20.996,26.855,24.414,4.395,0
1508750679.825,37.598,22.949,33.691,20.996,4.883,0
1508750679.829,60.059,50.781,72.754,42.969,27.832,0
1508750679.833,40.527,28.809,80.078,24.902,51.270,0
1508750679.837,20.020,21.484,46.387,10.254,48.828,0
1508750679.841,22.949,23.926,37.109,20.020,37.109,0
1508750679.845,17.578,14.160,27.832,19.531,39.551,0
1508750679.849,35.645,41.016,36.621,32.715,60.547,0
1508750679.853,53.711,55.176,41.504,46.875,13.184,0
1508750679.857,43.945,31.738,15.625,43.945,-24.902,0
1508750679.860,43.457,38.086,48.828,45.898,41.016,0
1508750679.864,21.973,32.715,74.707,15.625,52.246,0
1508750679.868,4.395,14.160,47.852,-3.418,37.109,0
1508750679.872,17.090,19.531,49.805,6.348,54.199,0
1508750679.876,41.016,36.133,44.434,21.484,55.176,0
1508750679.880,57.129,42.480,22.461,35.645,52.734,0
1508750679.884,51.758,41.992,42.969,36.621,70.801,0
1508750679.888,39.062,51.758,43.945,26.855,35.156,0
1508750679.892,43.457,61.035,25.879,31.250,16.602,0
1508750679.896,33.691,47.852,46.387,21.484,56.152,0
1508750679.899,5.371,14.160,52.734,-10.254,32.227,0
1508750679.903,6.836,14.160,59.082,-16.602,15.137,0
1508750679.907,24.414,33.203,72.266,6.348,31.738,0
1508750679.911,38.086,34.180,20.996,29.297,20.508,0
1508750679.915,58.594,45.898,-0.488,32.227,41.992,0
1508750679.919,45.898,46.387,58.594,22.949,69.824,0
1508750679.923,5.371,20.020,57.129,-4.883,47.852,0
1508750679.927,35.156,35.645,28.809,15.625,40.039,0
1508750679.931,49.805,40.527,51.270,25.391,21.484,0
1508750679.935,55.176,46.875,39.062,31.250,4.883,0
1508750679.939,41.992,33.203,40.527,20.508,20.508,0
1508750679.942,11.230,-4.395,42.480,-12.207,32.715,0
1508750679.946,18.066,0.488,31.738,-7.812,10.742,0
1508750679.950,34.668,42.969,68.848,6.836,25.391,0
1508750679.954,66.406,74.707,47.363,51.758,31.738,0
1508750679.958,75.684,56.152,47.363,66.895,-5.371,0
1508750679.962,38.086,24.414,59.570,22.461,31.738,0
1508750679.966,34.180,39.551,46.875,18.555,70.801,0
1508750679.970,35.645,52.734,51.270,37.109,11.719,0
1508750679.974,34.668,20.508,49.805,41.504,-6.836,0
1508750679.978,46.875,11.230,76.172,36.133,30.762,0
1508750679.982,18.555,23.926,51.758,6.836,78.125,0
1508750679.985,55.664,39.062,44.922,35.645,83.496,0
1508750679.989,54.688,40.527,60.059,41.992,4.395,0
1508750679.993,17.090,34.180,55.176,16.602,-19.531,0
1508750679.997,4.395,39.551,73.242,0.488,31.250,0
1508750680.001,11.230,46.387,73.242,2.930,66.895,0
1508750680.005,28.320,35.156,60.059,11.719,10.254,0
1508750680.009,67.383,35.645,56.641,41.992,0.977,0
1508750680.013,65.918,35.645,95.703,41.992,67.871,0
1508750680.017,45.410,36.621,78.613,30.273,52.734,0
1508750680.021,111.816,60.059,-0.488,99.609,12.207,0
1508750680.024,100.586,68.359,61.035,85.449,24.902,0
1508750680.028,1.953,17.578,98.633,-16.113,41.504,0
1508750680.032,18.066,32.715,73.242,4.395,26.367,0
1508750680.036,53.711,66.895,103.516,34.180,-1.953,0
1508750680.040,70.801,76.660,63.965,44.922,8.301,0
1508750680.044,11.719,12.207,84.473,-13.672,20.020,0
1508750680.048,-28.809,-20.508,103.027,-54.199,0.488,0
1508750680.052,30.273,46.875,63.477,13.672,28.320,0
1508750680.056,36.133,31.738,112.793,25.391,44.434,0
1508750680.060,5.371,0.977,99.609,-3.418,47.852,0
1508750680.064,74.707,86.914,44.434,71.289,65.430,0
1508750680.067,-12.207,24.902,133.789,-30.762,28.809,0
1508750680.071,-113.281,-44.434,160.645,-147.461,-13.672,0
1508750680.075,-16.602,17.578,96.191,-47.363,-14.160,0
1508750680.079,45.898,65.430,121.094,16.602,3.906,0
1508750680.083,10.742,68.848,132.324,-19.531,-8.301,0
1508750680.087,-84.961,-2.930,125.000,-111.816,-18.066,0
1508750680.091,-121.094,-114.258,139.160,-145.996,-11.719,0
1508750680.095,-61.523,-83.008,124.023,-82.031,-25.391,0
1508750680.099,-23.926,69.824,126.953,-44.434,-34.668,0
1508750680.103,-50.781,51.758,176.270,-87.891,-24.414,0
1508750680.107,-5.371,44.434,208.496,-53.711,-25.879,0
1508750680.110,83.984,2.930,117.188,33.203,-50.781,0
1508750680.114,-32.227,-107.910,146.973,-87.891,-36.621,0
1508750680.118,-203.125,-105.469,190.918,-263.184,-10.742,0
1508750680.122,-142.090,4.395,101.562,-199.707,-7.324,0
1508750680.126,20.508,98.145,77.637,-25.879,-21.484,0
1508750680.130,-19.531,31.738,147.461,-52.734,-32.715,0
1508750680.134,-80.566,-19.043,166.992,-117.676,-39.551,0
1508750680.138,47.363,38.574,142.090,-7.324,-61.035,0
1508750680.142,121.582,88.379,147.949,67.383,-89.844,0
1508750680.146,32.715,34.180,162.109,-26.367,-70.312,0
1508750680.149,3.906,19.043,132.812,-67.383,-30.273,0
1508750680.153,62.500,60.059,118.652,-9.277,-71.289,0
1508750680.157,58.594,42.480,127.930,-3.418,-83.984,0
1508750680.161,-4.395,-37.598,142.578,-57.129,-50.781,0
1508750680.165,21.973,-11.719,141.113,-33.203,-50.781,0
1508750680.169,38.086,42.480,131.348,-30.273,-71.777,0
1508750680.173,26.855,12.695,145.508,-43.457,-77.148,0
1508750680.177,75.195,25.391,159.668,5.859,-37.598,0
1508750680.181,83.984,50.293,153.320,20.020,-39.551,0
1508750680.185,60.547,49.316,115.234,0.000,-72.266,0
1508750680.189,131.348,108.398,128.906,79.102,-73.730,0
1508750680.192,112.793,88.379,178.223,55.664,-45.898,0
1508750680.196,73.242,21.484,132.812,0.488,-28.809,0
1508750680.200,188.965,103.027,110.840,131.348,-41.992,0
1508750680.204,131.836,77.148,156.250,75.195,-46.387,0
1508750680.208,30.273,1.953,135.254,-35.645,-37.598,0
1508750680.212,49.316,-7.324,123.535,-16.113,-20.020,0
1508750680.216,45.410,5.859,128.906,-24.902,20.020,0
1508750680.220,141.602,128.906,77.148,82.520,-6.836,0
1508750680.224,135.742,143.555,83.008,92.285,-29.297,0
1508750680.228,101.562,83.496,146.973,71.289,-9.766,0
1508750680.232,39.062,-23.438,161.133,8.301,-39.062,0
1508750680.235,81.055,43.945,100.098,23.926,-39.551,0
1508750680.239,172.852,99.609,134.766,121.094,-23.926,0
1508750680.243,110.840,39.551,94.238,78.125,-50.293,0
1508750680.247,52.246,83.008,65.918,20.996,-35.156,0
1508750680.251,36.133,73.730,124.512,2.441,22.949,0
1508750680.255,163.086,121.094,111.328,127.441,24.902,0
1508750680.259,115.234,98.633,134.766,91.797,-0.977,0
1508750680.263,51.758,-15.625,116.211,25.879,12.207,0
1508750680.267,93.262,9.277,40.527,65.430,30.762,0
1508750680.271,-0.488,96.680,76.660,-17.090,9.277,0
1508750680.274,50.293,104.492,110.352,38.086,-40.039,0
1508750680.278,171.875,134.277,85.938,159.668,-12.695,0
1508750680.282,64.941,80.078,104.004,53.223,46.387,0
1508750680.286,33.203,68.359,50.781,12.207,24.902,0
1508750680.290,96.191,109.863,88.867,73.242,-30.273,0
1508750680.294,42.969,63.477,150.879,24.414,-2.930,0
1508750680.298,91.797,78.125,117.676,69.824,30.762,0
1508750680.302,94.727,53.223,50.293,76.172,8.789,0
1508750680.306,32.227,31.738,43.945,13.672,-4.395,0
1508750680.310,71.289,83.008,88.379,50.781,-8.301,0
1508750680.314,103.516,103.027,109.863,79.102,13.184,0
1508750680.317,97.168,80.566,106.445,70.801,7.812,0
1508750680.321,168.457,103.516,76.660,137.207,-38.574,0
1508750680.325,173.340,137.695,76.660,141.113,1.953,0
1508750680.329,-10.742,34.668,115.234,-36.133,38.574,0
1508750680.333,-18.066,8.789,122.559,-56.152,9.766,0
1508750680.337,140.625,109.375,114.746,107.422,18.066,0
1508750680.341,184.570,163.574,59.570,161.621,24.902,0
1508750680.345,61.523,65.430,85.449,31.250,37.598,1
1508750680.349,-51.758,-20.508,146.484,-76.660,41.504,0
1508750680.353,12.695,22.461,110.840,-10.742,20.508,0
1508750680.357,95.215,55.176,90.820,66.895,29.785,0
1508750680.360,104.004,96.680,102.539,87.402,26.855,0
1508750680.364,170.898,188.965,75.195,150.391,23.926,0
1508750680.368,163.574,159.180,47.363,141.602,41.992,0
1508750680.372,-40.527,-11.719,118.652,-56.152,35.645,0
1508750680.376,-76.172,-35.156,121.582,-88.867,68.848,0
1508750680.380,35.645,50.781,53.711,23.926,50.781,0
1508750680.384,113.770,50.781,95.703,93.750,6.348,0
1508750680.388,180.664,149.902,119.629,168.945,33.691,0
1508750680.392,104.980,174.316,62.012,98.633,35.156,0
1508750680.396,-35.156,26.367,86.914,-44.922,45.898,0
1508750680.399,10.254,56.641,119.629,-1.953,60.547,0
1508750680.403,93.262,108.398,74.707,73.730,38.086,0
1508750680.407,65.430,75.684,46.875,37.598,23.438,0
1508750680.411,61.035,84.473,62.500,33.203,33.203,0
1508750680.415,88.379,94.727,88.867,68.848,46.875,0
1508750680.419,108.398,121.094,73.730,96.191,55.664,0
1508750680.423,32.715,78.613,64.941,25.391,45.410,0
1508750680.427,-30.762,47.852,104.492,-46.875,33.691,0
1508750680.431,85.449,135.254,57.129,62.988,65.430,0
1508750680.435,80.078,105.469,30.273,57.617,57.129,0
1508750680.439,32.227,59.082,67.871,18.066,19.531,0
1508750680.442,72.754,88.379,69.824,62.988,32.227,0
1508750680.446,40.527,52.734,68.359,25.391,48.828,0
1508750680.450,62.012,94.238,36.621,41.992,55.176,0
1508750680.454,120.605,178.223,35.645,102.051,44.434,0
1508750680.458,65.430,110.352,71.289,48.828,28.320,0
1508750680.462,44.922,35.156,59.082,21.484,43.945,0
1508750680.466,68.848,77.148,61.523,36.621,59.082,0
1508750680.470,0.977,92.285,63.477,-30.762,-3.906,0
1508750680.474,28.320,72.266,40.039,2.441,-21.484,0
1508750680.478,118.164,104.004,54.199,91.309,45.898,0
1508750680.482,119.141,148.926,69.336,93.262,51.270,0
1508750680.485,63.965,98.145,46.387,36.621,10.742,0
1508750680.489,46.875,69.336,58.105,15.625,-11.230,0
1508750680.493,65.918,114.746,56.152,32.227,20.020,0
1508750680.497,134.766,143.555,13.184,99.121,38.086,0
1508750680.501,95.703,91.309,33.203,62.988,10.254,0
1508750680.505,-6.836,40.527,90.332,-32.715,-6.348,0
1508750680.509,22.949,57.129,62.988,-4.395,34.180,0
1508750680.513,87.402,86.914,5.859,60.059,59.570,0
1508750680.517,120.605,116.699,25.879,98.633,7.812,0
1508750680.521,68.848,95.703,74.707,44.922,-34.668,0
1508750680.524,0.977,74.707,66.406,-23.926,-13.184,0
1508750680.528,27.832,68.848,44.922,11.719,8.301,0
1508750680.532,148.926,152.344,33.203,127.930,19.043,0
1508750680.536,154.297,177.246,57.617,131.836,8.301,0
1508750680.540,-12.207,43.457,47.852,-34.180,-17.578,0
1508750680.544,-17.578,25.391,9.766,-44.922,16.113,0
1508750680.548,58.594,40.527,13.672,42.480,40.039,0
1508750680.552,49.316,35.156,55.176,33.691,46.387,0
1508750680.556,29.297,100.586,61.035,14.160,29.297,0
1508750680.560,46.387,163.574,29.785,38.574,3.906,0
1508750680.564,99.609,143.555,43.945,77.148,27.344,0
1508750680.567,72.754,93.262,58.105,50.293,45.898,0
1508750680.571,3.418,89.844,41.016,-1.465,11.719,0
1508750680.575,1.953,30.273,33.203,-15.137,-8.301,0
1508750680.579,32.715,48.340,16.602,4.883,42.969,0
1508750680.583,20.996,106.934,48.340,-1.953,70.312,0
1508750680.587,55.176,118.164,40.039,36.621,53.711,0
1508750680.591,102.051,133.301,16.602,82.520,36.621,0
1508750680.595,39.062,86.914,38.574,20.996,31.250,0
1508750680.599,12.207,93.750,43.457,-4.395,44.434,0
1508750680.603,17.090,70.801,45.898,3.418,21.973,0
1508750680.607,36.133,38.086,22.949,21.484,-5.859,0
1508750680.610,85.938,104.492,52.246,67.871,29.785,0
1508750680.614,22.461,119.629,55.664,5.371,40.527,0
1508750680.618,-0.977,99.121,17.578,-14.648,31.738,0
1508750680.622,46.387,110.840,-1.953,28.809,43.457,0
1508750680.626,63.965,89.355,49.805,37.109,37.109,0
1508750680.630,29.785,66.406,79.590,5.371,44.434,0
1508750680.634,37.109,101.074,56.641,14.648,62.500,0
1508750680.638,52.246,97.656,31.250,34.668,33.203,0
1508750680.642,2.441,59.082,6.348,-14.648,12.695,0
1508750680.646,30.762,76.660,31.250,13.184,22.949,0
1508750680.649,95.703,112.305,47.852,83.984,-7.324,0
1508750680.653,53.223,108.398,57.129,42.969,-1.953,0
1508750680.657,-20.996,49.316,46.875,-33.691,12.695,0
1508750680.661,31.738,77.637,37.109,20.996,10.742,0
1508750680.665,45.410,91.797,36.621,34.668,5.859,0
1508750680.669,24.414,67.383,31.738,8.789,3.418,0
1508750680.673,38.574,83.008,64.453,23.926,0.488,0
1508750680.677,44.434,88.867,75.684,28.320,-12.207,0
1508750680.681,59.082,82.520,40.039,45.898,13.184,0
1508750680.685,84.473,111.816,31.250,78.613,28.809,0
1508750680.689,40.039,71.289,27.832,31.738,35.645,0
1508750680.692,-5.371,42.480,11.719,-14.648,11.719,0
1508750680.696,-8.301,69.336,43.945,-23.926,-37.598,0
1508750680.700,8.789,64.941,75.684,-13.184,-25.391,0
1508750680.704,44.434,77.148,60.547,27.344,2.930,0
1508750680.708,70.801,98.633,54.199,56.641,1.465,0
1508750680.712,77.637,115.723,13.184,66.406,-0.977,0
1508750680.716,56.152,109.375,26.367,45.898,30.762,0
1508750680.720,27.832,82.520,72.266,12.695,44.434,0
1508750680.724,45.898,88.379,49.316,30.273,22.461,0
1508750680.728,27.344,52.246,40.527,12.695,55.176,0
1508750680.732,18.066,35.156,35.156,-1.953,64.941,0
1508750680.735,26.367,73.730,47.852,3.906,33.691,0
1508750680.739,25.391,94.238,35.156,8.301,12.695,0
1508750680.743,42.969,108.887,40.527,22.461,11.230,0
1508750680.747,79.590,140.137,44.922,56.641,40.039,0
1508750680.751,72.754,98.145,7.812,55.664,52.734,0
1508750680.755,63.965,48.828,41.016,41.504,36.621,0
1508750680.759,62.012,79.102,77.637,32.227,22.461,0
1508750680.763,-0.977,54.688,68.848,-34.180,50.293,0
1508750680.767,-7.812,30.273,18.555,-37.109,53.223,0
1508750680.771,83.984,99.121,1.953,64.453,41.504,0
1508750680.774,144.043,136.230,41.016,125.488,65.430,0
1508750680.778,36.133,72.754,52.734,20.996,83.496,0
1508750680.782,-53.711,31.738,52.734,-71.289,78.613,0
1508750680.786,-14.648,56.152,43.945,-37.598,49.805,0
1508750680.790,41.016,95.703,37.109,27.344,73.730,0
1508750680.794,80.078,97.168,46.875,71.777,82.031,0
1508750680.798,77.148,96.191,51.758,66.406,64.453,0
1508750680.802,45.410,70.312,42.969,36.621,65.430,0
1508750680.806,3.906,51.758,33.691,1.953,67.871,0
1508750680.810,9.277,69.336,43.945,4.883,63.965,0
1508750680.814,32.227,76.660,49.316,20.508,61.523,0
1508750680.817,27.344,83.984,43.457,15.137,48.340,0
1508750680.821,49.316,84.961,16.602,39.062,57.129,0
1508750680.825,56.152,74.219,26.855,39.551,72.266,0
1508750680.829,97.168,85.449,48.340,82.031,49.805,0
1508750680.833,84.961,96.680,53.711,78.613,60.059,0
1508750680.837,14.648,62.012,37.598,2.441,75.195,0
1508750680.841,49.805,80.078,13.672,30.273,55.176,0
1508750680.845,64.941,85.938,48.828,48.828,38.574,0
1508750680.849,26.367,68.848,63.965,20.020,54.688,0
1508750680.853,20.996,76.172,58.105,15.137,62.500,0
1508750680.857,41.504,77.637,12.207,29.297,28.320,0
1508750680.860,101.074,97.168,56.641,86.914,37.598,0
1508750680.864,113.770,100.586,68.848,100.098,66.895,0
1508750680.868,-7.324,51.270,29.785,-15.137,55.176,0
1508750680.872,-61.523,16.113,37.109,-68.848,32.715,0
1508750680.876,8.301,38.086,43.457,2.930,29.297,0
1508750680.880,67.871,78.613,49.805,60.547,23.926,0
1508750680.884,55.176,89.355,20.508,38.086,19.531,0
1508750680.888,32.227,86.426,46.875,7.324,27.832,0
1508750680.892,46.387,84.473,59.082,17.578,3.906,0
1508750680.896,85.938,107.910,41.992,61.523,25.879,0
1508750680.899,98.633,108.887,44.434,84.961,30.762,0
1508750680.903,12.695,34.668,56.152,0.977,-4.883,0
1508750680.907,9.277,48.828,54.199,-11.230,15.137,0
1508750680.911,54.199,79.590,56.152,33.203,43.457,0
1508750680.915,62.988,72.266,19.043,41.016,74.707,0
1508750680.919,90.332,85.938,1.465,67.383,48.340,0
1508750680.923,102.539,104.004,48.340,78.125,15.625,0
1508750680.927,95.703,113.281,70.801,72.266,32.227,0
1508750680.931,32.227,54.199,60.547,12.695,16.602,0
1508750680.935,46.875,41.992,55.176,29.785,-30.273,0
1508750680.939,57.129,55.664,66.406,44.434,-29.297,0
1508750680.942,24.414,70.801,35.156,12.695,-6.348,0
1508750680.946,20.020,90.820,21.484,9.766,11.719,0
1508750680.950,15.137,73.242,48.828,9.766,24.414,0
1508750680.954,30.273,66.895,58.105,24.902,6.836,0
1508750680.958,81.055,83.008,14.648,71.777,27.832,0
1508750680.962,109.863,104.980,32.227,102.539,16.602,0
1508750680.966,62.012,78.613,77.637,57.129,34.180,0
1508750680.970,13.672,41.504,35.645,0.488,32.715,0
1508750680.974,19.043,45.898,41.016,0.488,-5.859,0
1508750680.978,54.688,56.641,8.789,45.898,-8.789,0
1508750680.982,70.801,89.355,21.484,68.359,-13.184,0
1508750680.985,49.805,92.285,91.797,41.016,17.090,0
1508750680.989,18.066,47.363,69.336,1.465,19.043,0
1508750680.993,31.250,73.730,23.926,18.555,8.789,0
1508750680.997,62.500,85.938,5.859,47.363,25.879,0
1508750681.001,96.191,90.820,32.227,78.125,17.090,0
1508750681.005,58.594,84.961,30.762,39.062,14.648,0
1508750681.009,-15.137,33.203,50.781,-37.598,20.996,0
1508750681.013,-14.160,18.066,83.496,-34.180,10.742,0
1508750681.017,80.566,76.660,52.734,60.059,13.672,0
1508750681.021,134.277,139.648,30.273,115.723,4.883,0
1508750681.024,46.387,86.914,44.434,29.297,-26.855,0
1508750681.028,-2.441,41.504,19.043,-21.484,-12.207,0
1508750681.032,51.270,83.008,-7.324,33.203,31.738,0
1508750681.036,51.758,66.895,47.852,35.645,14.160,0
1508750681.040,5.371,23.926,91.309,-5.859,-14.648,0
1508750681.044,30.273,54.199,65.430,19.531,7.812,0
1508750681.048,67.383,71.289,15.137,56.641,29.297,0
1508750681.052,66.406,78.125,20.996,60.547,-7.324,0
1508750681.056,53.711,70.801,59.570,47.852,-42.480,0
1508750681.060,32.715,55.664,41.504,29.297,-29.785,0
1508750681.064,13.184,51.270,16.602,13.672,-17.578,0
1508750681.067,16.113,28.809,7.812,10.742,-45.898,0
1508750681.071,62.500,66.406,42.480,53.711,-62.988,0
1508750681.075,74.707,91.309,63.965,68.848,-33.691,0
1508750681.079,29.785,54.688,46.875,28.809,13.184,0
1508750681.083,32.715,56.152,50.781,22.461,33.691,0
1508750681.087,53.711,64.941,33.203,37.598,-11.719,0
1508750681.091,64.941,67.383,2.441,52.734,-7.812,0
1508750681.095,95.215,66.895,15.625,73.242,21.973,0
1508750681.099,72.754,66.406,47.363,41.504,11.230,0
1508750681.103,22.949,46.387,77.637,-9.277,1.953,0
1508750681.107,29.785,49.805,68.359,5.371,3.906,0
1508750681.110,85.449,95.703,57.617,67.383,17.090,0
1508750681.114,72.754,54.199,37.598,56.641,-1.953,0
1508750681.118,59.082,44.922,12.207,38.086,-38.086,0
1508750681.122,78.613,107.910,57.129,53.223,-22.461,0
1508750681.126,30.273,66.406,55.176,7.812,4.395,0
1508750681.130,27.344,24.902,31.738,5.859,-21.973,0
1508750681.134,90.332,76.660,65.430,69.336,-12.695,0
1508750681.138,93.750,125.977,68.359,74.219,16.113,0
1508750681.142,34.668,77.148,41.504,14.160,8.789,0
1508750681.146,40.527,37.109,4.883,22.949,-2.441,0
1508750681.149,34.668,34.668,53.711,20.508,11.719,0
1508750681.153,6.348,63.965,58.594,-7.812,12.207,0
1508750681.157,72.754,112.793,10.742,55.664,-22.949,0
1508750681.161,101.562,114.258,43.945,81.055,-22.949,0
1508750681.165,47.363,56.152,61.035,21.973,-1.465,0
1508750681.169,38.086,48.828,51.758,14.648,-2.441,0
1508750681.173,48.340,66.406,51.758,26.855,-10.742,0
1508750681.177,61.035,89.844,36.133,35.156,-16.602,0
1508750681.181,80.566,83.984,36.621,55.664,12.207,0
1508750681.185,34.668,35.156,48.340,11.230,33.691,0
1508750681.189,20.996,63.965,46.875,-4.395,6.836,0
1508750681.192,81.055,113.770,23.438,57.129,-0.488,0
1508750681.196,91.309,95.703,44.922,62.988,23.926,0
1508750681.200,31.250,41.992,57.617,1.953,40.527,0
1508750681.204,5.859,32.715,42.969,-16.602,26.855,0
1508750681.208,51.758,46.875,55.664,35.156,2.930,0
1508750681.212,114.258,93.750,47.363,100.586,14.160,0
1508750681.216,117.676,117.188,25.879,104.492,36.621,0
1508750681.220,66.406,87.891,21.973,55.176,11.230,0
1508750681.224,-17.090,36.621,65.430,-31.738,6.348,0
1508750681.228,3.418,41.992,68.359,-15.625,23.438,0
1508750681.232,69.824,68.848,46.875,61.035,41.992,0
1508750681.235,106.934,82.031,44.434,109.863,50.781,0
1508750681.239,80.566,86.426,48.340,88.867,53.223,0
1508750681.243,24.414,37.598,39.062,35.156,47.852,0
1508750681.247,26.855,41.992,24.414,31.250,24.414,0
1508750681.251,-6.348,37.598,31.738,-8.789,30.762,0
1508750681.255,20.020,58.594,44.922,16.602,31.738,0
1508750681.259,94.238,94.238,65.430,92.285,26.367,0
1508750681.263,74.707,78.125,46.875,76.172,52.246,0
1508750681.267,11.230,52.734,30.762,11.719,34.180,0
1508750681.271,33.691,65.918,69.336,29.297,20.996,0
1508750681.274,57.129,70.801,49.805,55.176,49.316,0
1508750681.278,41.992,61.035,14.648,39.062,50.781,0
1508750681.282,58.105,75.195,35.156,45.898,48.828,0
1508750681.286,78.125,53.711,79.102,57.617,58.594,0
1508750681.290,69.336,62.012,52.734,51.758,27.344,0
1508750681.294,29.297,76.172,13.672,15.137,5.371,0
1508750681.298,32.715,62.988,34.668,12.695,36.133,0
1508750681.302,41.992,74.219,36.133,25.879,51.270,0
1508750681.306,32.227,67.383,79.102,22.461,27.344,0
1508750681.310,51.758,76.172,58.105,38.574,8.301,0
1508750681.314,52.734,86.426,43.457,26.855,21.973,0
1508750681.317,49.316,22.949,67.871,22.949,42.969,0
1508750681.321,101.074,49.805,36.621,85.938,41.504,0
1508750681.325,113.281,145.020,16.113,101.074,50.781,0
1508750681.329,31.738,80.566,24.414,20.996,71.289,0
1508750681.333,3.906,41.992,70.312,-3.906,45.410,0
1508750681.337,7.812,38.574,58.594,1.465,23.438,0
1508750681.341,28.809,51.270,32.715,23.926,44.434,0
1508750681.345,55.664,58.594,18.066,47.363,43.457,0
1508750681.349,113.281,81.055,37.598,102.539,11.230,0
1508750681.353,63.477,50.293,55.664,53.711,-0.488,0
1508750681.357,18.555,43.457,19.531,3.418,-23.438,0
1508750681.360,69.336,44.434,22.949,58.105,-0.977,0
1508750681.364,45.410,26.855,57.129,40.527,61.035,0
1508750681.368,11.719,59.570,49.316,17.090,22.949,0
1508750681.372,33.691,64.453,45.898,40.039,5.371,0
1508750681.376,56.641,74.707,55.664,52.734,46.875,0
1508750681.380,65.918,77.148,22.949,61.035,62.012,0
1508750681.384,72.266,85.938,20.020,65.918,66.895,0
1508750681.388,14.648,26.367,52.734,12.695,42.480,0
1508750681.392,-2.441,-15.137,38.086,1.953,30.273,0
1508750681.396,21.484,41.016,11.719,23.438,51.270,0
1508750681.399,44.922,64.453,33.203,40.527,39.551,0
1508750681.403,46.387,40.527,70.801,38.574,16.113,0
1508750681.407,29.785,61.035,62.012,26.855,40.039,0
1508750681.411,49.805,100.098,33.691,44.434,63.477,0
1508750681.415,43.457,86.426,17.578,32.715,20.996,0
1508750681.419,1.465,33.203,54.199,-11.230,-3.418,0
1508750681.423,4.395,10.254,32.715,-5.371,29.297,0
1508750681.427,88.379,65.918,4.395,77.637,37.109,0
1508750681.431,100.098,106.934,39.551,83.008,22.949,0
1508750681.435,44.922,62.500,48.340,25.879,13.672,0
1508750681.439,24.902,25.879,42.969,5.371,12.695,0
1508750681.442,26.855,42.969,46.875,1.953,30.273,0
1508750681.446,51.758,70.312,49.805,20.508,-6.348,0
1508750681.450,47.363,22.949,50.781,18.555,-1.953,0
1508750681.454,69.336,68.848,38.086,46.387,24.414,0
1508750681.458,73.730,114.258,13.672,55.176,17.578,0
1508750681.462,73.730,91.797,35.645,58.105,13.672,0
1508750681.466,79.590,70.312,79.102,53.711,6.348,0
1508750681.470,29.785,29.297,53.711,1.953,5.859,0
1508750681.474,31.738,25.879,36.133,4.883,-4.395,0
1508750681.478,49.316,30.762,34.180,16.113,3.906,0
1508750681.482,58.594,62.988,38.574,28.809,46.387,0
1508750681.485,47.363,71.777,41.504,25.391,45.410,0
1508750681.489,40.527,47.363,11.230,16.602,-2.441,0
1508750681.493,107.422,88.379,11.230,84.961,12.695,0
1508750681.497,99.121,76.172,67.383,74.219,60.059,0
1508750681.501,52.734,27.344,44.922,28.320,21.973,0
1508750681.505,42.969,48.340,30.273,30.273,-13.184,0
1508750681.509,49.805,74.707,61.523,38.574,4.883,0
1508750681.513,48.828,52.246,48.340,37.598,39.551,0
1508750681.517,17.090,22.949,28.320,1.465,66.406,0
1508750681.521,62.500,60.547,26.367,46.387,47.852,0
1508750681.524,67.871,62.500,47.852,56.152,20.508,0
1508750681.528,20.020,22.949,50.781,7.324,19.043,0
1508750681.532,29.785,37.598,18.066,21.484,33.691,0
1508750681.536,78.125,60.547,11.719,75.195,11.719,0
1508750681.540,69.336,41.992,46.387,58.105,0.000,0
1508750681.544,70.801,70.801,63.965,42.969,30.762,0
1508750681.548,72.266,69.336,30.273,44.922,32.715,0
1508750681.552,41.504,54.688,41.504,18.066,34.668,0
1508750681.556,31.738,50.781,78.125,6.348,49.805,0
1508750681.560,18.066,29.297,59.082,-6.836,69.824,0
1508750681.564,50.781,32.715,34.668,24.414,68.359,0
1508750681.567,70.801,36.621,25.879,41.016,50.293,0
1508750681.571,71.289,70.312,29.297,40.039,64.941,0
1508750681.575,83.496,85.449,14.648,54.688,68.359,0
1508750681.579,70.312,46.387,24.902,42.969,69.824,0
1508750681.583,49.316,45.898,67.871,17.090,73.242,0
1508750681.587,51.758,56.641,74.219,18.066,46.387,0
1508750681.591,71.289,44.434,47.363,45.898,26.855,0
1508750681.595,76.660,53.711,14.160,57.617,-9.766,0
1508750681.599,28.320,31.738,41.504,7.812,2.930,0
1508750681.603,24.414,35.645,41.992,0.488,48.340,0
1508750681.607,34.668,38.574,25.879,12.207,41.504,0
1508750681.610,100.586,91.797,30.762,82.520,29.785,0
1508750681.614,101.074,96.680,42.969,80.078,31.250,0
1508750681.618,38.574,19.531,55.176,16.602,63.477,0
1508750681.622,62.012,34.180,45.410,38.574,55.176,2
1508750681.626,32.715,49.316,47.363,17.578,36.621,0
1508750681.630,7.324,31.250,57.617,3.418,41.504,0
1508750681.634,46.387,42.480,46.387,29.297,12.695,0
1508750681.638,90.820,73.242,30.762,71.289,10.254,0
1508750681.642,65.918,64.453,41.992,51.758,-14.648,0
1508750681.646,29.785,45.898,43.457,14.160,-15.137,0
1508750681.649,55.176,41.016,9.277,41.992,17.090,0
1508750681.653,83.984,69.336,23.926,75.684,19.531,0
1508750681.657,65.430,67.383,66.406,56.641,20.020,0
1508750681.661,14.160,9.277,63.477,0.488,42.969,0
1508750681.665,26.855,19.531,53.223,12.207,38.574,0
1508750681.669,74.707,87.402,44.434,63.965,15.625,0
1508750681.673,76.172,76.172,7.324,68.848,14.648,0
1508750681.677,37.109,18.555,38.574,22.949,11.719,0
1508750681.681,49.805,39.062,46.875,30.273,41.504,0
1508750681.685,45.898,41.504,-0.488,29.785,49.316,0
1508750681.689,39.062,59.570,59.570,20.996,2.930,0
1508750681.692,96.191,106.445,73.242,79.590,25.879,0
1508750681.696,66.406,70.312,56.152,51.758,81.055,0
1508750681.700,0.977,-2.441,52.246,-16.113,52.734,0
1508750681.704,20.996,11.230,40.527,3.906,0.977,0
1508750681.708,61.523,65.918,6.836,52.246,37.598,0
1508750681.712,67.871,56.641,21.484,65.918,39.062,0
1508750681.716,84.473,65.430,83.008,78.613,2.930,0
1508750681.720,70.312,59.570,48.340,63.965,8.789,0
1508750681.724,20.020,7.324,41.992,16.113,23.438,0
1508750681.728,3.906,12.207,43.945,-4.883,34.668,0
1508750681.732,16.113,52.246,18.555,7.324,9.766,0
1508750681.735,70.801,92.285,34.668,64.941,32.715,0
1508750681.739,74.219,79.102,52.734,69.824,55.664,0
1508750681.743,27.832,21.973,61.035,26.855,44.434,0
1508750681.747,40.039,34.668,33.691,40.527,33.203,0
1508750681.751,62.500,45.898,43.945,64.941,49.316,0
1508750681.755,57.129,31.250,44.922,53.711,79.102,0
1508750681.759,53.711,58.105,9.277,46.875,56.152,0
1508750681.763,14.160,32.715,35.645,5.371,41.504,0
1508750681.767,15.137,35.645,62.012,0.488,24.414,0
1508750681.771,94.727,97.656,84.961,83.496,38.086,0
1508750681.774,75.684,83.496,30.273,71.777,17.090,0
1508750681.778,1.465,41.992,-18.555,-6.348,13.184,0
1508750681.782,-3.906,20.020,44.434,-10.742,61.035,0
1508750681.786,12.695,16.113,43.945,9.277,49.805,0
1508750681.790,30.273,44.922,27.344,28.320,53.223,0
1508750681.794,25.879,44.922,63.965,22.461,51.758,0
1508750681.798,47.852,68.848,61.035,38.574,59.570,0
1508750681.802,88.867,78.125,66.406,82.520,61.035,0
1508750681.806,60.547,37.109,43.945,57.129,42.480,0
1508750681.810,15.625,24.902,-12.207,8.789,34.180,0
1508750681.814,22.949,45.410,38.574,19.043,56.641,0
1508750681.817,36.133,44.922,55.176,36.133,51.758,0
1508750681.821,38.574,30.762,23.438,33.203,0.977,0
1508750681.825,45.410,37.598,61.523,35.156,13.672,0
1508750681.829,38.574,48.340,50.781,31.250,50.293,0
1508750681.833,68.848,78.613,15.137,66.895,42.480,0
1508750681.837,95.215,84.961,19.043,90.820,11.230,0
1508750681.841,42.480,40.039,27.344,30.273,32.715,0
1508750681.845,33.691,25.391,40.527,23.438,64.941,0
1508750681.849,51.758,29.297,52.734,32.715,46.875,0
1508750681.853,21.484,33.203,50.781,-10.742,54.199,0
1508750681.857,64.941,51.270,39.551,42.480,36.133,0
1508750681.860,73.730,73.730,20.996,57.129,32.715,0
1508750681.864,13.184,62.012,18.066,-5.371,28.320,0
1508750681.868,42.969,39.062,35.156,25.391,7.812,0
1508750681.872,72.754,58.594,59.570,49.316,44.434,0
1508750681.876,51.270,79.102,22.949,22.461,63.477,0
1508750681.880,50.293,46.387,17.090,27.344,54.199,0
1508750681.884,41.992,0.488,53.223,21.973,54.199,0
1508750681.888,45.898,24.414,43.945,25.879,70.312,0
1508750681.892,75.684,75.195,20.020,59.570,61.035,0
1508750681.896,48.340,60.059,7.812,31.250,33.691,0
1508750681.899,9.277,40.039,34.668,-1.465,15.137,0
1508750681.903,74.707,99.609,45.410,69.336,5.859,0
1508750681.907,112.793,83.496,32.227,110.840,-1.953,0
1508750681.911,39.062,25.879,31.738,43.945,-9.277,0
1508750681.915,-0.488,25.391,59.570,1.465,4.883,0
1508750681.919,19.043,-4.395,49.805,20.020,28.320,0
1508750681.923,39.062,20.508,30.273,32.227,21.484,0
1508750681.927,83.008,83.984,49.805,63.965,44.922,0
1508750681.931,106.934,114.258,39.062,98.145,90.332,0
1508750681.935,15.625,34.180,0.977,17.090,68.359,0
1508750681.939,-37.598,-28.320,14.648,-42.480,-11.230,0
1508750681.942,-14.648,4.395,20.996,-25.391,12.695,0
1508750681.946,21.484,1.465,19.531,12.695,67.871,0
1508750681.950,75.195,8.789,36.621,60.547,66.895,0
1508750681.954,114.258,92.773,17.090,99.609,29.785,0
1508750681.958,64.941,93.750,25.879,51.758,1.465,0
1508750681.962,-5.859,1.953,58.105,-24.902,27.832,0
1508750681.966,9.277,0.977,38.086,-4.883,58.105,0
1508750681.970,41.992,7.324,12.695,39.062,42.480,0
1508750681.974,20.996,-12.695,24.414,13.672,14.160,0
1508750681.978,16.602,57.129,33.691,-0.977,42.969,0
1508750681.982,36.621,86.914,30.273,18.066,43.945,0
1508750681.985,96.680,86.914,20.996,83.984,21.484,0
1508750681.989,104.004,70.312,44.434,98.633,49.316,0
1508750681.993,-7.324,9.766,42.969,-15.137,74.707,0
1508750681.997,-33.691,-4.395,43.457,-44.434,62.012,0
1508750682.001,9.766,-13.184,48.340,6.836,49.316,0
1508750682.005,41.992,36.133,14.160,36.621,17.090,0
1508750682.009,121.094,103.516,48.340,117.676,20.508,0
1508750682.013,107.422,72.754,41.992,112.305,46.875,0
1508750682.017,-6.836,-6.836,-0.488,-12.695,17.578,0
1508750682.021,25.391,1.953,37.598,10.254,12.695,0
1508750682.024,35.156,20.508,57.617,23.438,24.902,0
1508750682.028,-0.488,31.738,42.969,-9.277,39.551,0
1508750682.032,24.414,95.703,42.480,16.602,30.273,0
1508750682.036,85.449,62.012,38.086,81.543,50.293,0
1508750682.040,95.703,5.859,31.250,93.750,57.129,0
1508750682.044,39.062,52.734,20.020,32.715,31.738,0
1508750682.048,2.930,46.875,20.996,-1.953,51.270,0
1508750682.052,-16.113,-5.859,32.227,-21.973,49.805,0
1508750682.056,21.484,5.371,67.871,19.043,24.414,0
1508750682.060,66.895,97.656,32.227,65.918,-11.719,0
1508750682.064,62.012,98.633,32.715,60.059,14.160,0
1508750682.067,-8.301,7.324,60.059,-16.602,37.109,0
1508750682.071,-26.855,-89.844,20.508,-40.527,7.324,0
1508750682.075,33.203,1.953,10.254,21.973,-19.043,0
1508750682.079,84.961,143.555,69.824,71.777,-3.906,0
1508750682.083,94.727,91.309,87.891,79.590,15.625,0
1508750682.087,13.184,36.133,37.598,-5.859,-4.883,0
1508750682.091,-34.668,12.207,27.344,-53.711,-9.277,0
1508750682.095,38.086,20.020,-8.301,23.926,-4.883,0
1508750682.099,77.637,47.852,27.344,62.500,24.902,0
1508750682.103,35.156,49.805,75.684,20.020,3.418,0
1508750682.107,5.859,27.344,49.805,-13.672,-60.059,0
1508750682.110,37.598,37.109,41.992,7.812,-40.527,0
1508750682.114,88.867,65.430,38.574,60.547,12.695,0
1508750682.118,88.379,83.984,35.156,62.988,6.836,0
1508750682.122,17.090,35.156,24.902,-11.230,-27.344,3
1508750682.126,21.973,20.996,19.531,-0.977,-13.184,0
1508750682.130,80.078,65.430,39.062,67.871,16.602,0
1508750682.134,37.109,20.996,58.594,26.367,0.000,0
1508750682.138,42.969,18.555,47.363,27.344,-15.137,0
1508750682.142,42.969,59.082,33.203,26.367,-7.324,0
1508750682.146,20.996,50.781,16.113,10.742,-0.977,0
1508750682.149,68.848,48.828,31.250,59.570,-39.551,0
1508750682.153,45.898,30.762,55.176,32.715,-43.457,0
1508750682.157,54.199,53.223,46.387,40.039,1.465,0
1508750682.161,65.918,47.852,16.113,51.758,27.832,0
1508750682.165,85.938,41.504,14.648,70.312,20.996,0
1508750682.169,123.047,52.734,46.875,114.746,18.066,0
1508750682.173,14.648,34.180,58.105,11.230,26.367,0
1508750682.177,-16.113,38.574,41.504,-36.621,30.273,0
1508750682.181,44.434,40.527,36.621,18.066,-11.719,0
1508750682.185,71.289,72.266,36.621,55.664,-23.926,0
1508750682.189,50.293,62.012,35.156,42.969,8.789,0
1508750682.192,27.344,14.648,14.160,12.695,24.414,0
1508750682.196,83.008,28.320,41.992,62.500,-20.508,0
1508750682.200,80.566,46.387,97.168,67.383,-20.996,0
1508750682.204,18.555,44.922,42.480,10.742,30.273,0
1508750682.208,30.273,83.008,35.156,18.555,29.297,0
1508750682.212,36.133,67.383,67.383,22.461,41.992,0
1508750682.216,60.059,45.410,22.949,41.504,57.617,0
1508750682.220,101.074,80.566,12.695,80.566,34.180,0
1508750682.224,27.344,12.695,43.945,9.277,5.859,0
1508750682.228,23.438,45.410,44.434,8.301,0.000,0
1508750682.232,65.918,91.797,60.059,52.246,33.203,0
1508750682.235,63.477,70.801,62.012,42.480,45.410,0
1508750682.239,84.473,83.008,5.859,60.547,22.461,0
1508750682.243,45.898,42.480,9.277,26.367,20.020,0
1508750682.247,-16.602,-10.254,75.195,-32.715,43.457,0
1508750682.251,-4.883,-9.277,39.551,-19.531,71.777,0
1508750682.255,60.547,60.059,37.598,34.180,36.133,0
1508750682.259,119.629,122.559,57.129,89.355,32.227,0
1508750682.263,55.664,89.844,43.945,39.062,72.266,0
1508750682.267,6.836,50.293,9.277,-6.836,53.223,0
1508750682.271,43.945,51.758,19.531,20.020,60.547,0
1508750682.274,32.715,19.043,64.453,8.301,58.105,0
1508750682.278,17.090,2.930,42.969,-7.324,33.203,0
1508750682.282,72.754,66.406,17.578,43.457,30.762,0
1508750682.286,114.746,107.910,29.297,88.379,26.367,0
1508750682.290,46.387,76.172,38.574,27.832,14.160,0
1508750682.294,29.297,49.805,32.227,10.742,34.180,0
1508750682.298,50.781,43.457,17.090,29.785,25.391,0
1508750682.302,65.430,34.180,44.922,44.434,-3.906,0
1508750682.306,52.246,45.898,39.062,34.668,56.641,0
1508750682.310,17.578,45.410,12.695,3.418,98.633,0
1508750682.314,79.590,61.035,24.902,63.477,90.820,0
1508750682.317,87.891,83.984,64.453,79.102,76.660,0
1508750682.321,23.438,51.758,55.176,16.113,44.434,0
1508750682.325,53.711,61.523,5.371,39.551,57.617,0
1508750682.329,91.797,85.449,35.645,79.102,62.988,0
1508750682.333,21.484,36.133,58.105,10.254,34.180,0
1508750682.337,-38.086,-35.156,30.273,-47.852,59.570,0
1508750682.341,79.102,56.152,-10.742,69.824,56.152,0
1508750682.345,121.582,96.680,12.695,109.863,28.320,0
1508750682.349,6.348,11.719,77.148,-9.766,30.273,0
1508750682.353,16.602,71.289,74.219,1.953,39.551,0
1508750682.357,87.402,110.352,14.160,77.148,32.227,0
1508750682.360,46.387,58.594,9.766,35.645,30.762,0
1508750682.364,14.160,0.000,49.805,3.906,50.781,0
1508750682.368,33.691,-13.184,36.621,25.879,57.129,0
1508750682.372,34.668,34.180,27.344,28.320,40.039,0
1508750682.376,37.598,85.938,30.762,28.809,41.992,0
1508750682.380,61.035,101.562,60.059,46.387,32.227,0
1508750682.384,30.762,44.434,72.266,19.043,21.484,0
1508750682.388,27.344,30.762,12.695,17.090,8.301,0
1508750682.392,84.961,61.035,-10.254,73.242,-4.395,0
1508750682.396,60.059,49.316,48.828,45.410,19.531,0
1508750682.399,27.832,74.219,77.148,12.695,53.223,0
1508750682.403,10.254,72.754,22.949,2.930,30.762,0
1508750682.407,7.812,34.668,35.156,-1.465,-3.418,0
1508750682.411,73.730,53.711,50.781,52.734,-1.953,0
1508750682.415,54.688,31.250,34.180,33.203,24.414,0
1508750682.419,-8.301,24.414,49.316,-25.391,-2.441,0
1508750682.423,66.895,76.660,33.691,45.410,-20.508,0
1508750682.427,103.027,70.312,31.738,79.102,-1.465,0
1508750682.431,34.180,68.848,60.059,18.066,4.883,0
1508750682.435,-28.320,31.738,36.133,-47.363,12.207,0
1508750682.439,38.574,29.785,32.715,13.184,21.484,0
1508750682.442,75.684,47.363,42.480,62.988,22.949,0
1508750682.446,77.148,48.828,33.203,68.848,4.395,0
1508750682.450,51.270,31.250,47.852,33.691,27.832,0
1508750682.454,18.555,54.199,37.109,-6.836,47.852,0
1508750682.458,64.941,104.004,29.785,41.992,20.020,0
1508750682.462,48.828,83.496,34.180,34.668,-5.371,0
1508750682.466,16.602,37.109,22.461,4.883,-9.277,0
1508750682.470,7.812,-5.371,64.941,-7.812,11.719,0
1508750682.474,29.297,15.137,48.340,7.324,41.016,0
1508750682.478,116.699,127.930,13.672,97.656,10.742,0
1508750682.482,119.629,133.301,40.039,103.027,-26.367,0
1508750682.485,20.508,24.414,41.992,0.000,15.137,0
1508750682.489,-7.324,-9.766,59.570,-25.879,41.992,0
1508750682.493,22.949,29.785,23.438,9.277,14.160,0
1508750682.497,99.609,65.430,16.602,84.473,-12.695,0
1508750682.501,119.629,87.891,77.148,101.562,13.672,0
1508750682.505,69.336,103.516,44.434,47.852,50.781,0
1508750682.509,20.996,55.664,28.320,4.883,35.645,0
1508750682.513,-6.348,8.301,40.039,-14.648,10.742,0
1508750682.517,13.184,25.391,41.504,-4.395,9.766,0
1508750682.521,57.129,83.496,19.043,38.574,14.160,0
1508750682.524,77.148,81.055,-7.324,62.500,-15.137,0
1508750682.528,109.375,49.805,53.711,87.891,-19.531,0
1508750682.532,70.801,36.133,98.633,49.805,6.348,0
1508750682.536,6.836,40.527,52.246,-11.719,-20.020,0
1508750682.540,4.395,42.969,32.715,-7.812,-52.246,0
1508750682.544,4.395,50.293,30.762,-5.859,-29.297,0
1508750682.548,29.785,41.992,19.043,17.578,20.508,0
1508750682.552,63.965,50.781,18.066,54.199,9.277,0
1508750682.556,86.914,93.262,39.551,77.637,-22.949,0
1508750682.560,39.062,60.547,57.129,26.855,-18.555,0
1508750682.564,62.988,10.742,41.992,45.410,-2.930,0
1508750682.567,95.215,46.387,44.922,77.637,-12.207,0
1508750682.571,18.555,48.828,44.922,3.418,-43.457,0
1508750682.575,6.348,57.617,32.715,-8.789,-36.133,0
1508750682.579,15.137,64.453,24.902,2.930,0.488,0
1508750682.583,45.898,64.453,25.879,36.621,-13.184,0
1508750682.587,84.473,51.758,47.852,76.660,-35.156,0
1508750682.591,68.359,38.086,54.688,63.477,-27.344,0
1508750682.595,40.527,73.730,57.617,32.715,-10.742,0
1508750682.599,27.344,67.383,57.617,15.625,-27.344,0
1508750682.603,27.832,35.645,46.875,11.230,-28.320,0
1508750682.607,26.855,28.320,15.625,17.578,-17.578,0
1508750682.610,69.336,77.637,39.062,62.012,-3.906,0
1508750682.614,71.777,49.805,53.223,65.918,-12.695,0
1508750682.618,47.852,35.156,14.648,48.340,-49.316,0
1508750682.622,43.457,69.336,55.664,38.086,-2.441,4
1508750682.626,37.109,56.641,62.500,27.344,12.695,0
1508750682.630,26.855,52.734,14.648,14.160,-11.719,0
1508750682.634,9.277,27.832,29.297,-5.859,7.324,0
1508750682.638,22.461,45.410,52.246,11.719,4.883,0
1508750682.642,53.711,54.688,29.785,51.758,-16.602,0
1508750682.646,102.539,42.480,34.180,99.609,-3.906,0
1508750682.649,63.477,72.754,47.852,53.711,0.977,0
1508750682.653,-5.371,32.715,31.738,-17.578,15.137,0
1508750682.657,5.859,37.598,39.551,-2.930,6.836,0
1508750682.661,1.465,55.664,44.434,-5.859,-12.695,0
1508750682.665,36.133,40.527,58.594,23.926,10.254,0
1508750682.669,20.508,0.000,40.039,12.207,4.883,0
1508750682.673,67.871,71.777,13.672,64.453,-17.090,0
1508750682.677,60.547,93.750,43.457,56.641,-10.254,0
1508750682.681,7.324,30.762,32.715,7.324,32.715,0
1508750682.685,66.406,79.102,22.461,70.801,44.434,0
1508750682.689,19.043,45.410,66.406,26.855,26.855,0
1508750682.692,-28.320,1.953,54.688,-20.996,47.363,0
1508750682.696,-4.395,21.973,12.695,-3.906,39.062,0
1508750682.700,53.223,69.336,38.086,53.711,9.277,0
1508750682.704,48.340,66.406,52.734,53.223,-6.348,0
1508750682.708,-5.859,10.742,39.062,0.488,-9.766,0
1508750682.712,40.039,21.484,27.344,42.969,15.625,0
1508750682.716,111.328,107.422,41.992,107.910,7.324,0
1508750682.720,92.285,115.723,39.551,90.820,-20.996,0
1508750682.724,40.039,0.488,6.836,42.480,-10.254,0
1508750682.728,18.066,11.230,48.828,10.742,29.297,0
1508750682.732,40.039,78.613,49.316,22.949,43.945,0
1508750682.735,53.711,75.684,54.688,42.969,48.340,0
1508750682.739,-6.836,2.441,41.016,-13.184,48.340,0
1508750682.743,13.672,22.461,10.254,14.648,45.898,0
1508750682.747,63.965,90.820,27.344,59.082,48.340,0
1508750682.751,152.344,129.395,55.664,126.953,53.223,0
1508750682.755,109.863,57.617,42.969,87.891,59.570,0
1508750682.759,-19.043,-20.996,44.922,-34.180,59.082,0
1508750682.763,37.598,58.594,51.270,12.695,41.016,0
1508750682.767,103.027,77.148,9.277,80.078,17.090,0
1508750682.771,66.895,71.777,12.695,51.758,23.438,0
1508750682.774,13.184,55.176,75.684,2.930,36.621,0
1508750682.778,37.109,17.578,46.387,32.715,28.320,0
1508750682.782,102.051,64.941,41.504,89.844,18.555,0
1508750682.786,103.516,111.816,39.551,84.961,35.156,0
1508750682.790,30.273,47.363,20.020,14.648,24.414,0
1508750682.794,16.602,5.859,14.160,4.883,11.719,0
1508750682.798,57.617,58.594,0.000,48.828,17.090,0
1508750682.802,34.180,59.082,55.176,25.391,32.715,0
1508750682.806,23.438,45.410,41.504,9.766,40.039,0
1508750682.810,53.711,50.293,28.320,40.527,27.832,0
1508750682.814,68.848,67.383,68.359,59.082,30.762,0
1508750682.817,62.988,72.754,45.410,59.570,58.105,0
1508750682.821,22.949,31.738,14.648,17.578,60.547,0
1508750682.825,46.875,37.598,-10.742,39.062,41.992,0
1508750682.829,60.059,42.969,25.879,56.152,64.941,0
1508750682.833,0.000,30.273,58.594,-1.465,62.012,0
1508750682.837,18.555,54.688,30.762,21.484,19.531,0
1508750682.841,40.527,36.621,48.828,39.062,-4.395,0
1508750682.845,35.156,46.387,51.758,30.762,6.348,0
1508750682.849,59.570,102.051,27.832,59.082,25.391,0
1508750682.853,44.434,42.480,1.953,44.922,34.668,0
1508750682.857,30.273,11.230,-4.883,27.832,27.344,0
1508750682.860,39.062,50.293,45.410,33.691,15.625,0
1508750682.864,24.414,44.922,70.312,17.090,35.156,0
1508750682.868,23.438,52.246,47.363,17.090,70.312,0
1508750682.872,5.371,10.742,20.508,2.930,35.156,0
1508750682.876,48.828,30.762,41.504,42.480,22.461,0
1508750682.880,94.238,109.863,35.645,85.938,56.641,0
1508750682.884,-0.977,37.109,27.832,-12.695,38.574,0
1508750682.888,-20.020,16.602,35.645,-40.527,43.457,0
1508750682.892,78.613,78.613,16.602,57.129,44.922,0
1508750682.896,101.562,58.594,41.504,84.961,47.852,0
1508750682.899,27.832,25.879,48.340,13.672,34.180,0
1508750682.903,-9.277,36.621,51.758,-20.996,-10.742,0
1508750682.907,6.348,24.902,34.668,1.465,11.719,0
1508750682.911,62.012,47.852,14.648,58.594,42.969,0
1508750682.915,73.242,91.797,58.594,71.289,60.059,0
1508750682.919,12.207,36.621,34.180,8.789,53.223,0
1508750682.923,25.879,40.527,22.461,20.020,36.133,0
1508750682.927,77.637,85.938,40.039,77.637,19.531,0
1508750682.931,49.805,30.273,38.086,49.316,40.039,0
1508750682.935,6.348,-16.602,39.551,-1.465,27.344,0
1508750682.939,28.320,51.270,19.043,23.926,9.277,0
1508750682.942,42.480,91.309,33.203,43.457,7.812,0
1508750682.946,32.227,35.645,47.852,25.391,-5.371,0
1508750682.950,59.082,40.527,29.297,49.805,41.016,0
1508750682.954,66.895,68.359,16.113,61.035,64.941,0
1508750682.958,59.570,69.336,28.809,43.945,46.875,0
1508750682.962,23.926,51.270,46.875,6.348,30.273,0
1508750682.966,6.348,8.301,37.598,-6.348,52.734,0
1508750682.970,23.926,15.137,61.035,12.695,59.082,0
1508750682.974,66.895,83.496,76.172,65.918,48.828,0
1508750682.978,74.707,89.355,10.742,79.102,50.293,0
1508750682.982,35.156,9.766,4.395,28.320,61.035,0
1508750682.985,-4.883,4.883,54.688,-15.137,26.367,0
1508750682.989,-0.977,73.730,47.852,-7.812,-14.160,0
1508750682.993,36.621,45.410,34.668,26.855,-10.254,0
1508750682.997,39.551,6.348,29.297,31.738,40.527,0
1508750683.001,76.660,89.355,31.250,68.848,51.758,0
1508750683.005,51.758,77.148,63.477,44.434,17.090,0
1508750683.009,20.996,22.461,50.781,17.578,45.410,0
1508750683.013,61.523,43.457,20.996,56.641,68.848,0
1508750683.017,35.156,43.457,33.203,26.855,40.039,0
1508750683.021,11.719,49.316,41.992,6.836,26.367,0
1508750683.024,30.273,53.711,22.461,25.391,35.645,0
1508750683.028,26.855,35.156,31.738,20.020,45.898,0
1508750683.032,58.594,62.500,34.180,51.758,61.035,0
1508750683.036,99.121,69.336,55.176,92.285,30.273,0
1508750683.040,49.316,20.996,50.781,35.645,1.953,0
1508750683.044,27.344,4.883,18.066,11.230,41.016,0
1508750683.048,60.547,35.156,22.461,47.363,36.621,0
1508750683.052,86.914,101.074,25.879,75.684,-6.836,0
1508750683.056,20.508,65.918,38.086,13.184,6.348,0
1508750683.060,3.418,40.039,55.176,-3.418,30.273,0
1508750683.064,62.012,55.664,33.203,44.922,32.227,0
1508750683.067,71.777,28.320,26.855,52.246,24.902,0
1508750683.071,70.312,39.062,58.105,54.199,20.508,0
1508750683.075,51.270,42.480,24.414,39.062,42.480,0
1508750683.079,46.875,27.832,-20.020,37.598,20.508,0
1508750683.083,24.414,40.527,42.480,10.254,-27.832,0
1508750683.087,23.926,65.430,81.543,5.371,18.555,0
1508750683.091,36.621,53.711,42.480,26.367,62.500,0
1508750683.095,74.707,75.684,11.230,68.359,48.828,0
1508750683.099,82.031,51.270,9.766,76.172,46.387,0
1508750683.103,43.457,26.855,46.387,51.270,41.504,0
1508750683.107,44.922,70.312,57.617,54.199,14.160,0
1508750683.110,44.922,47.363,9.766,49.805,37.109,0
1508750683.114,31.738,8.301,26.367,36.133,42.480,0
1508750683.118,44.434,36.621,47.363,46.875,26.367,0
1508750683.122,21.484,40.527,28.809,25.391,35.645,5
1508750683.126,45.410,65.918,14.648,47.363,15.137,0
1508750683.130,78.125,97.656,47.363,84.473,12.695,0
1508750683.134,24.414,29.297,69.336,29.785,53.711,0
1508750683.138,24.902,-1.465,26.855,22.461,47.852,0
1508750683.142,48.340,45.898,17.090,44.922,31.250,0
1508750683.146,45.898,48.828,20.508,39.551,64.453,0
1508750683.149,38.574,52.246,11.719,31.738,69.824,0
1508750683.153,19.531,62.012,41.992,18.555,36.133,0
1508750683.157,-0.488,14.160,57.129,-1.465,8.789,0
1508750683.161,1.465,8.301,53.223,-8.789,27.832,0
1508750683.165,32.227,51.758,15.625,15.625,36.621,0
1508750683.169,81.543,112.305,28.809,62.988,46.875,0
1508750683.173,51.270,91.797,57.129,33.691,47.852,0
1508750683.177,-32.715,-3.418,16.113,-44.922,20.508,0
1508750683.181,-46.875,-10.742,39.062,-65.430,25.879,0
1508750683.185,-6.836,37.109,28.320,-24.902,37.109,0
1508750683.189,23.926,45.410,10.742,12.695,24.414,0
1508750683.192,26.367,25.879,28.320,3.906,31.250,0
1508750683.196,28.809,57.129,20.020,-1.465,45.410,0
1508750683.200,-33.203,43.457,83.496,-60.059,27.832,0
1508750683.204,-52.246,-2.441,89.355,-83.496,18.555,0
1508750683.208,-13.184,12.695,31.738,-41.504,44.434,0
1508750683.212,-22.949,48.828,32.715,-43.945,53.711,0
1508750683.216,-36.621,49.316,46.387,-61.523,38.574,0
1508750683.220,-63.477,-5.371,35.645,-85.938,41.504,0
1508750683.224,-61.035,-11.719,27.344,-77.637,45.898,0
1508750683.228,-23.438,27.832,40.527,-45.410,14.648,0
1508750683.232,40.527,59.570,46.387,13.672,18.555,0
1508750683.235,12.695,40.527,70.801,-10.254,50.781,0
1508750683.239,-48.340,3.418,47.852,-67.871,55.176,0
1508750683.243,-7.324,13.672,15.625,-24.414,44.434,0
1508750683.247,16.602,15.137,43.945,-1.953,30.273,0
1508750683.251,-13.672,18.066,60.059,-30.273,45.898,0
1508750683.255,-45.410,5.859,50.781,-53.223,38.086,0
1508750683.259,-12.695,29.785,21.973,-21.484,43.945,0
1508750683.263,68.848,79.102,4.883,57.129,33.203,0
1508750683.267,46.387,47.363,52.734,35.645,45.410,0
1508750683.271,-3.906,21.973,53.223,-9.766,64.453,0
1508750683.274,14.160,11.719,34.180,10.742,32.715,0
1508750683.278,35.645,15.625,48.340,25.879,33.691,0
1508750683.282,59.570,41.992,42.480,45.898,58.105,0
1508750683.286,61.523,20.996,34.180,55.176,52.734,0
1508750683.290,51.758,30.762,27.344,48.828,28.809,0
1508750683.294,55.176,42.480,30.762,51.758,21.484,0
1508750683.298,92.773,62.988,37.598,89.355,54.688,0
1508750683.302,95.703,46.875,35.156,88.867,78.613,0
1508750683.306,70.801,40.039,21.973,59.570,66.406,0
1508750683.310,70.801,54.688,14.160,60.547,47.852,0
1508750683.314,104.980,30.273,15.625,96.680,40.527,0
1508750683.317,86.426,14.648,41.016,77.637,26.367,0
1508750683.321,59.570,41.504,46.387,56.641,-6.836,0
1508750683.325,92.773,78.125,40.039,88.379,-10.742,0
1508750683.329,114.746,50.293,33.691,104.980,24.902,0
1508750683.333,139.648,39.062,24.902,125.977,18.555,0
1508750683.337,122.559,67.383,40.527,105.957,17.578,0
1508750683.341,69.824,42.480,62.988,51.270,37.598,0
1508750683.345,60.059,12.207,28.809,43.457,54.199,0
1508750683.349,72.754,17.090,14.160,56.152,45.410,0
1508750683.353,107.910,42.969,34.668,89.844,27.832,0
1508750683.357,128.906,74.219,21.973,116.211,49.316,0
1508750683.360,91.797,44.922,22.461,77.637,49.805,0
1508750683.364,63.477,12.207,23.926,45.898,29.785,0
1508750683.368,106.934,64.453,35.156,91.797,31.738,0
1508750683.372,148.438,104.980,45.410,134.766,64.453,0
1508750683.376,112.793,42.969,19.043,103.027,52.734,0
1508750683.380,86.426,1.465,15.137,69.336,21.973,0
1508750683.384,93.750,22.461,22.949,68.359,16.113,0
1508750683.388,104.980,52.246,57.129,84.473,46.875,0
1508750683.392,55.664,36.621,34.668,36.621,52.246,0
1508750683.396,62.500,39.551,32.715,41.504,61.035,0
1508750683.399,107.422,46.875,62.500,83.984,88.867,0
1508750683.403,71.777,32.227,11.230,55.176,68.359,0
1508750683.407,87.402,69.336,0.488,83.496,43.945,0
1508750683.411,113.281,92.773,34.180,113.281,41.016,0
1508750683.415,92.773,57.129,46.875,88.867,64.453,0
1508750683.419,104.004,34.180,32.227,105.469,86.426,0
1508750683.423,76.660,20.996,30.273,75.684,46.875,0
1508750683.427,51.758,27.832,56.641,38.086,31.738,0
1508750683.431,75.684,64.941,64.941,58.105,77.148,0
1508750683.435,82.520,63.965,39.551,59.082,82.031,0
1508750683.439,71.777,35.156,21.973,45.898,54.688,0
1508750683.442,86.914,35.156,28.809,67.871,53.223,0
1508750683.446,109.375,46.387,36.133,89.844,61.035,0
1508750683.450,128.906,74.707,32.715,103.516,62.988,0
1508750683.454,101.562,47.363,31.250,76.172,42.969,0
1508750683.458,76.660,-35.645,32.227,42.969,25.879,0
1508750683.462,110.840,22.949,37.109,67.383,32.715,0
1508750683.466,89.355,81.543,34.180,46.875,37.109,0
1508750683.470,44.922,26.855,26.855,2.930,12.207,0
1508750683.474,59.082,20.508,34.668,21.973,4.883,0
1508750683.478,112.305,45.898,39.062,80.566,24.414,0
1508750683.482,105.469,40.039,27.832,75.684,35.645,0
1508750683.485,63.477,38.086,49.316,36.621,17.578,0
1508750683.489,61.035,41.016,67.383,32.715,39.062,0
1508750683.493,56.641,17.578,31.738,30.762,66.895,0
1508750683.497,72.754,5.371,41.016,42.480,42.480,0
1508750683.501,97.656,55.176,30.762,64.941,46.875,0
1508750683.505,107.422,64.453,4.883,85.449,65.918,0
1508750683.509,107.910,70.312,59.570,93.262,68.359,0
1508750683.513,42.480,42.969,33.691,23.926,55.664,0
1508750683.517,52.246,1.465,-7.812,27.344,14.160,0
1508750683.521,101.562,32.715,61.035,78.613,21.484,0
1508750683.524,57.617,27.832,60.547,35.645,39.062,0
1508750683.528,46.875,1.953,47.852,21.484,41.016,0
1508750683.532,78.613,34.668,42.480,49.805,57.129,0
1508750683.536,79.102,64.453,36.621,52.734,44.922,0
1508750683.540,90.820,62.012,13.184,70.312,50.293,0
1508750683.544,83.008,48.828,8.789,61.035,35.156,0
1508750683.548,53.223,43.457,53.711,28.320,19.531,0
1508750683.552,30.762,24.414,35.156,13.184,27.832,0
1508750683.556,45.898,12.695,34.668,28.809,21.973,0
1508750683.560,65.918,21.484,34.668,44.922,-5.371,0
1508750683.564,99.609,68.848,44.434,85.449,-20.996,0
1508750683.567,84.961,41.504,68.359,75.684,16.602,0
1508750683.571,43.457,10.742,16.113,29.785,38.574,0
1508750683.575,75.684,60.547,13.184,63.965,33.203,0
1508750683.579,39.551,35.156,47.363,27.832,25.879,0
1508750683.583,-9.766,-13.672,39.062,-27.832,59.082,0
1508750683.587,12.695,-3.418,36.621,-6.836,67.383,0
1508750683.591,49.316,47.852,12.207,38.086,8.789,0
1508750683.595,66.895,47.363,27.832,58.594,20.508,0
1508750683.599,88.379,49.805,83.496,78.125,43.945,0
1508750683.603,73.730,77.637,40.527,60.059,25.391,0
1508750683.607,40.527,37.598,0.488,21.973,17.090,0
1508750683.610,61.035,27.344,33.691,45.410,37.109,0
1508750683.614,0.488,-1.953,33.691,-6.836,67.383,0
1508750683.618,-9.277,-0.488,7.324,-16.113,49.805,0
1508750683.622,39.551,44.922,27.832,28.320,8.301,0
1508750683.626,46.387,32.227,59.082,34.668,9.277,0
1508750683.630,77.637,42.480,50.293,67.383,46.875,0
1508750683.634,82.031,45.410,30.273,73.730,33.203,0
1508750683.638,29.785,21.973,30.273,26.855,16.602,0
1508750683.642,45.898,29.785,35.645,41.992,34.668,0
1508750683.646,77.637,69.336,37.109,73.242,49.805,0
1508750683.649,43.457,47.852,35.645,39.551,60.059,0
1508750683.653,28.809,9.277,12.207,21.973,16.113,0
1508750683.657,46.875,41.504,52.734,39.551,30.273,0
1508750683.661,43.945,47.852,49.316,41.016,56.641,0
1508750683.665,41.992,29.297,5.859,40.039,39.551,0
1508750683.669,91.797,68.848,50.293,84.961,23.926,0
1508750683.673,59.082,54.199,66.895,56.152,41.992,0
1508750683.677,1.953,13.672,14.160,8.789,56.641,0
1508750683.681,61.035,42.969,10.742,71.289,41.504,0
1508750683.685,62.988,30.762,31.738,68.848,48.340,0
1508750683.689,49.316,40.039,47.363,48.340,49.316,0
1508750683.692,74.219,62.988,51.758,75.195,32.715,0
1508750683.696,33.203,30.762,41.504,36.133,17.090,0
1508750683.700,-16.602,0.488,57.129,-18.555,57.129,0
1508750683.704,8.789,18.555,44.434,4.883,83.984,0
1508750683.708,78.613,62.988,44.434,77.637,45.410,0
1508750683.712,76.172,38.086,36.621,79.590,64.941,0
1508750683.716,45.898,21.973,11.230,43.457,83.008,0
1508750683.720,45.410,35.645,28.320,32.715,64.453,0
1508750683.724,51.758,46.875,35.156,41.992,43.457,0
1508750683.728,46.387,33.691,31.738,41.504,45.898,0
1508750683.732,24.414,19.531,50.293,18.555,58.594,0
1508750683.735,17.090,20.996,51.758,10.742,46.387,0
1508750683.739,44.434,25.879,33.203,39.062,14.160,0
1508750683.743,79.102,55.664,46.387,67.871,-12.695,0
1508750683.747,41.992,41.992,48.828,29.297,29.785,0
1508750683.751,31.250,30.273,25.879,19.043,46.387,0
1508750683.755,51.758,28.320,8.789,40.039,-1.465,0
1508750683.759,65.430,38.086,19.043,52.734,20.508,0
1508750683.763,37.109,47.363,43.945,18.555,55.176,0
1508750683.767,13.672,35.645,26.367,-10.254,41.992,0
1508750683.771,18.066,10.742,27.344,-0.488,52.246,0
1508750683.774,50.293,21.973,59.082,33.203,40.039,0
1508750683.778,51.758,57.129,66.406,31.738,23.926,0
1508750683.782,22.949,45.410,29.297,4.883,22.949,0
1508750683.786,37.598,41.992,19.043,24.902,-0.977,0
1508750683.790,58.594,43.457,35.645,43.457,-1.465,0
1508750683.794,43.945,20.508,40.039,30.273,20.020,0
1508750683.798,32.227,7.812,23.438,22.461,7.324,0
1508750683.802,31.738,18.066,28.320,23.438,-7.324,0
1508750683.806,48.828,36.133,54.199,37.109,33.691,0
1508750683.810,69.824,68.848,35.645,59.082,59.570,0
1508750683.814,38.086,40.527,40.039,31.250,21.973,0
1508750683.817,22.461,17.578,36.621,14.160,11.230,0
1508750683.821,12.695,28.809,26.367,1.953,44.434,0
1508750683.825,15.625,6.348,55.176,2.930,36.621,0
1508750683.829,32.715,9.766,32.227,16.602,19.043,0
1508750683.833,19.043,25.879,21.973,2.441,0.977,0
1508750683.837,66.406,60.059,57.617,52.246,5.371,0
1508750683.841,82.520,66.406,47.852,68.359,20.996,0
1508750683.845,28.809,38.574,-18.066,17.090,12.695,0
1508750683.849,63.477,40.527,14.648,49.805,-13.184,0
1508750683.853,72.266,39.551,63.965,61.035,11.719,0
1508750683.857,34.668,41.504,24.414,27.832,10.742,0
1508750683.860,13.184,16.113,31.250,6.836,-0.488,0
1508750683.864,26.367,3.418,61.523,21.973,33.691,0
1508750683.868,50.293,13.184,55.176,46.875,30.762,0
1508750683.872,30.762,45.410,18.066,35.645,26.855,0
1508750683.876,24.414,66.406,-14.648,25.879,35.156,0
1508750683.880,67.383,72.266,16.602,55.176,52.246,0
1508750683.884,85.449,66.406,79.590,75.195,74.707,0
1508750683.888,14.160,-0.488,44.922,9.766,40.527,0
1508750683.892,-7.324,-15.625,38.086,-11.230,30.762,0
1508750683.896,67.383,34.668,55.176,62.500,53.223,0
1508750683.899,42.480,21.484,33.691,40.527,44.922,0
1508750683.903,3.418,24.902,24.414,2.930,8.301,0
1508750683.907,38.574,32.227,27.344,38.574,17.090,0
1508750683.911,60.547,20.020,26.367,56.641,49.316,0
1508750683.915,74.707,49.805,23.438,70.801,37.598,0
1508750683.919,45.410,50.293,45.898,43.457,28.320,0
1508750683.923,8.301,8.789,49.805,3.906,42.969,0
1508750683.927,63.965,32.715,52.734,59.082,34.180,0
1508750683.931,87.402,61.035,51.758,84.473,32.227,0
1508750683.935,20.020,7.812,11.230,12.695,33.203,0
1508750683.939,26.855,8.301,28.320,12.207,8.789,0
1508750683.942,66.895,56.152,53.223,52.246,18.555,0
1508750683.946,49.805,46.387,42.480,39.551,1.465,0
1508750683.950,27.344,2.930,23.926,15.137,-0.488,0
1508750683.954,56.152,23.926,27.832,41.992,38.574,0
1508750683.958,45.410,40.527,39.062,30.273,53.711,0
1508750683.962,34.668,41.992,53.711,14.160,39.551,0
1508750683.966,51.270,40.039,38.086,34.180,28.320,0
1508750683.970,62.988,28.809,21.973,53.223,-2.441,0
1508750683.974,63.965,31.250,50.781,52.734,15.137,0
1508750683.978,62.988,25.391,44.434,59.082,42.480,0
1508750683.982,46.387,22.949,29.785,42.480,20.020,0
1508750683.985,28.320,41.016,44.434,15.137,23.438,0
1508750683.989,27.832,42.480,49.316,18.555,27.344,0
1508750683.993,41.992,31.738,34.668,36.133,36.621,0
1508750683.997,69.824,51.758,23.926,62.012,83.008,0
1508750684.001,57.129,10.742,21.973,55.176,72.266,0
1508750684.005,23.926,-29.785,26.367,25.879,52.246,0
1508750684.009,0.977,-9.277,45.898,-5.371,28.320,0
1508750684.013,33.203,22.461,50.781,24.902,14.648,0
1508750684.017,78.613,60.547,48.340,69.336,22.949,0
1508750684.021,35.156,5.859,31.738,20.020,34.180,0
1508750684.024,12.695,-16.602,4.395,0.000,21.484,0
1508750684.028,49.805,47.363,38.086,38.086,19.531,0
1508750684.032,27.344,14.648,45.898,13.184,51.758,0
1508750684.036,41.504,-2.930,22.949,27.344,30.762,0
1508750684.040,30.273,-13.184,44.434,15.625,-1.953,0
1508750684.044,29.297,8.301,49.316,6.348,41.992,0
1508750684.048,51.758,16.113,44.434,35.156,61.523,0
1508750684.052,55.176,20.020,24.414,44.922,42.480,0
1508750684.056,88.867,64.453,31.250,78.125,62.988,0
1508750684.060,51.270,28.809,40.527,48.340,58.105,0
1508750684.064,15.137,11.230,20.020,4.883,39.062,0
1508750684.067,25.879,11.230,18.066,10.254,13.184,0
1508750684.071,61.035,36.621,41.016,44.434,-0.977,0
1508750684.075,49.316,30.762,60.059,38.574,15.625,0
1508750684.079,10.742,4.395,18.555,-0.488,43.945,0
1508750684.083,35.645,29.297,18.066,15.625,37.109,0
1508750684.087,57.129,43.945,43.945,32.715,14.160,0
1508750684.091,60.059,34.668,34.180,35.645,20.020,0
1508750684.095,63.477,3.906,39.551,42.480,41.504,0
1508750684.099,49.316,5.859,39.062,27.832,29.297,0
1508750684.103,58.594,65.918,30.273,44.922,-14.160,0
1508750684.107,28.809,54.199,56.641,15.625,22.461,0
1508750684.110,10.254,-3.906,48.828,-8.301,39.551,0
1508750684.114,82.031,30.273,17.578,61.035,29.297,0
1508750684.118,41.016,51.270,27.344,22.461,10.742,0
1508750684.122,-9.277,-0.977,39.062,-22.461,8.301,0
1508750684.126,49.316,27.344,16.113,34.668,18.066,0
1508750684.130,71.777,56.641,37.598,60.059,22.461,0
1508750684.134,49.805,24.902,48.828,36.133,22.461,0
1508750684.138,83.984,50.781,49.805,64.941,10.254,0
1508750684.142,31.250,28.809,57.617,18.555,19.043,0
1508750684.146,-27.344,3.906,29.785,-30.762,26.855,0
1508750684.149,15.137,26.367,27.344,6.348,10.742,0
1508750684.153,33.691,12.695,26.367,17.578,-22.461,0
1508750684.157,66.895,18.555,0.488,57.129,-6.836,0
1508750684.161,49.316,10.254,25.391,38.574,-9.766,0
1508750684.165,26.367,43.457,61.523,7.812,-32.715,0
1508750684.169,12.695,83.496,50.781,29.785,1.465,0
1508750684.173,-58.105,34.180,38.086,2.441,5.371,0
1508750684.177,-34.668,35.156,22.461,35.645,-10.254,0
1508750684.181,21.973,69.824,45.898,88.379,-10.254,0
1508750684.185,-47.363,10.254,46.875,15.625,-11.230,0
1508750684.189,-72.266,-26.855,20.996,-15.137,-16.113,0
1508750684.192,4.395,29.297,8.789,54.688,-13.672,0
1508750684.196,7.324,39.551,31.250,53.711,-0.488,0
1508750684.200,-48.340,19.531,52.246,-9.277,19.043,0
1508750684.204,-25.391,47.852,68.359,8.789,11.719,0
1508750684.208,33.203,67.383,60.059,70.801,-1.465,0
1508750684.212,-7.324,34.180,-10.254,28.320,-20.508,0
1508750684.216,8.301,42.480,-7.324,31.250,11.230,0
1508750684.220,19.043,12.207,56.152,45.898,2.441,0
1508750684.224,0.488,-17.090,42.969,27.344,-40.039,0
1508750684.228,9.766,43.457,24.414,27.344,-10.742,0
1508750684.232,-8.789,48.828,44.922,3.906,-17.578,0
1508750684.235,0.488,31.738,60.547,10.254,-20.508,0
1508750684.239,12.695,20.996,48.340,29.297,24.902,0
1508750684.243,19.531,31.738,24.902,40.039,5.371,0
1508750684.247,36.621,40.039,22.461,52.734,-19.531,0
1508750684.251,46.875,30.762,5.371,62.500,-27.344,0
1508750684.255,71.777,63.477,36.133,85.449,-34.668,0
1508750684.259,16.113,15.137,54.688,27.344,-7.324,0
1508750684.263,-8.301,-5.371,18.555,0.977,-13.672,0
1508750684.267,43.945,53.711,47.852,46.875,-29.297,0
1508750684.271,30.762,12.207,58.105,35.156,-2.930,0
1508750684.274,42.480,9.277,12.695,47.852,-10.742,0
1508750684.278,50.293,60.547,35.156,53.711,-15.625,0
1508750684.282,19.043,37.109,59.570,24.414,-11.719,0
1508750684.286,1.953,7.812,52.734,9.277,-8.301,0
1508750684.290,1.953,2.930,31.250,13.184,2.441,0
1508750684.294,38.574,41.016,8.301,51.270,-12.695,0
1508750684.298,43.945,51.758,20.508,56.152,-19.043,0
1508750684.302,24.902,22.461,27.832,31.738,-20.996,0
1508750684.306,-3.418,5.371,54.199,1.953,-31.250,0
1508750684.310,4.395,25.391,67.383,14.160,-58.105,0
1508750684.314,38.574,34.668,56.641,39.062,-63.477,0
1508750684.317,61.523,25.391,65.918,59.082,-5.371,0
1508750684.321,46.387,29.297,37.109,51.758,0.488,0
1508750684.325,21.973,61.523,-4.395,25.879,-24.902,0
1508750684.329,12.695,41.016,20.996,15.625,-2.441,0
1508750684.333,19.531,-2.930,46.387,26.855,14.648,0
1508750684.337,67.871,46.875,30.762,77.148,10.742,0
1508750684.341,48.340,64.941,16.113,51.270,-14.648,0
1508750684.345,-0.977,28.809,35.156,-1.465,-16.113,0
1508750684.349,12.695,19.531,71.777,12.207,-0.977,0
1508750684.353,55.176,25.879,52.246,53.711,-13.672,0
1508750684.357,46.387,29.785,39.062,42.969,-27.832,0
1508750684.360,36.133,19.043,47.852,26.367,-11.230,0
1508750684.364,70.312,20.996,40.039,59.570,11.719,0
1508750684.368,72.266,54.199,18.555,70.312,12.207,0
1508750684.372,27.344,52.734,24.902,24.414,-16.113,0
1508750684.376,31.250,31.250,42.969,19.043,-2.930,0
1508750684.380,41.504,25.391,49.316,34.180,27.832,0
1508750684.384,27.832,34.180,51.270,21.973,19.043,0
1508750684.388,7.812,19.531,43.945,0.488,0.488,0
1508750684.392,36.133,33.203,35.645,32.227,-2.930,0
1508750684.396,64.941,52.246,34.668,55.664,15.625,0
1508750684.399,65.918,46.387,-1.953,58.594,9.766,0
1508750684.403,86.914,30.273,26.855,78.613,1.465,0
1508750684.407,46.387,2.930,81.543,41.504,9.766,0
1508750684.411,21.973,32.227,45.898,22.949,21.973,0
1508750684.415,27.344,42.480,22.949,21.973,25.879,0
1508750684.419,38.574,30.273,45.410,34.668,33.203,0
1508750684.423,40.527,25.391,45.898,39.551,32.227,0
1508750684.427,24.902,34.668,27.344,21.973,7.324,0
1508750684.431,59.082,59.082,34.180,51.270,6.836,0
1508750684.435,98.633,57.129,61.523,92.285,21.484,0
1508750684.439,72.754,38.086,34.668,75.684,10.742,0
1508750684.442,60.547,43.945,22.949,62.012,13.672,0
1508750684.446,25.879,-0.488,39.062,20.996,13.184,0
1508750684.450,29.785,5.859,61.523,20.996,20.020,0
1508750684.454,72.266,54.199,65.430,69.336,46.875,0
1508750684.458,40.527,35.645,33.691,38.086,10.742,0
1508750684.462,32.227,32.715,58.594,23.926,7.324,0
1508750684.466,81.543,80.078,74.707,70.801,43.457,0
1508750684.470,85.449,71.289,34.180,75.684,27.832,0
1508750684.474,43.945,23.438,41.504,26.855,24.414,0
1508750684.478,42.480,25.879,53.223,28.320,34.180,0
1508750684.482,54.688,20.020,41.016,53.711,9.277,0
1508750684.485,68.848,13.184,61.523,66.895,13.184,0
1508750684.489,56.152,33.203,11.230,50.293,4.395,0
1508750684.493,55.176,67.871,34.180,45.410,-2.930,0
1508750684.497,60.059,69.336,92.285,53.711,16.602,0
1508750684.501,27.832,10.254,41.016,20.508,27.832,0
1508750684.505,40.527,15.625,58.594,32.227,32.715,0
1508750684.509,70.801,71.777,69.824,65.918,43.457,0
1508750684.513,51.758,60.059,29.297,45.410,48.340,0
1508750684.517,11.719,0.977,39.062,-1.465,32.715,0
1508750684.521,15.625,7.812,66.895,9.766,51.270,0
1508750684.524,71.289,75.195,70.801,71.777,85.938,0
1508750684.528,75.195,65.918,32.715,69.824,74.707,0
1508750684.532,38.574,0.977,17.578,34.180,36.621,0
1508750684.536,74.707,45.410,32.227,65.918,5.371,0
1508750684.540,60.547,79.590,74.219,50.781,12.207,0
1508750684.544,-5.859,7.812,85.938,-10.742,41.504,0
1508750684.548,-14.160,-25.391,29.785,-15.625,35.156,0
1508750684.552,-0.977,3.906,21.484,1.465,16.602,0
1508750684.556,44.434,51.758,49.805,41.016,38.086,0
1508750684.560,88.379,73.730,33.203,72.754,35.156,0
1508750684.564,72.266,56.152,18.066,58.594,36.621,0
1508750684.567,54.199,44.434,44.434,49.316,46.875,0
1508750684.571,36.621,11.719,68.848,32.715,44.922,0
1508750684.575,20.508,18.555,50.781,13.184,71.777,0
1508750684.579,13.184,12.695,7.324,3.906,78.125,0
1508750684.583,6.348,-19.043,21.973,-4.883,41.016,0
1508750684.587,21.973,28.320,58.105,11.719,37.109,0
1508750684.591,59.570,69.336,52.734,50.293,52.246,0
1508750684.595,43.945,36.133,10.254,41.992,23.438,0
1508750684.599,20.996,17.090,9.277,19.531,8.789,0
1508750684.603,39.062,20.996,36.133,28.809,30.273,0
1508750684.607,50.781,20.508,64.453,39.551,53.223,0
1508750684.610,50.781,50.293,50.781,40.039,22.949,0
1508750684.614,21.484,39.551,39.062,9.277,7.324,0
1508750684.618,1.953,10.742,38.574,-10.742,45.898,0
1508750684.622,17.090,13.184,23.438,6.836,27.832,0
1508750684.626,48.340,26.855,17.090,38.086,-13.184,0
1508750684.630,26.367,14.160,14.160,17.578,11.230,0
1508750684.634,-8.789,-1.953,55.664,-14.648,36.621,0
1508750684.638,25.879,26.855,43.945,25.879,3.906,0
1508750684.642,74.707,74.219,37.598,76.172,-24.902,0
1508750684.646,15.137,17.578,34.668,14.648,2.441,0
1508750684.649,-5.371,4.883,35.156,-9.766,34.180,0
1508750684.653,28.320,43.945,69.336,24.414,32.227,0
1508750684.657,13.184,24.414,36.133,12.207,15.625,0
1508750684.661,36.621,27.832,25.879,32.227,29.297,0
1508750684.665,25.879,18.555,19.531,23.926,43.945,0
1508750684.669,32.715,46.875,31.250,28.809,23.438,0
1508750684.673,43.945,39.551,49.316,37.598,-0.977,0
1508750684.677,37.109,21.973,12.695,29.785,8.789,0
1508750684.681,83.008,60.547,41.504,70.801,25.391,0
1508750684.685,73.242,52.734,51.270,65.918,-17.090,0
1508750684.689,21.973,31.738,34.668,29.785,-22.461,0
1508750684.692,20.508,29.297,43.457,17.578,32.227,0
1508750684.696,47.363,30.273,24.902,26.367,56.152,0
1508750684.700,57.617,35.156,40.039,36.621,28.320,0
1508750684.704,25.879,24.414,49.805,10.254,36.621,0
1508750684.708,26.367,2.930,32.227,10.254,64.941,0
1508750684.712,66.406,33.203,38.086,49.316,54.688,0
1508750684.716,76.172,64.453,31.250,62.012,61.035,0
1508750684.720,62.988,51.270,25.391,51.758,52.734,0
1508750684.724,47.852,28.320,48.340,38.574,34.180,0
1508750684.728,40.527,-3.418,63.965,28.320,32.227,0
1508750684.732,29.785,-7.812,41.504,19.043,41.504,0
1508750684.735,47.852,40.039,25.879,38.086,25.879,0
1508750684.739,61.523,53.223,10.254,53.223,10.742,0
1508750684.743,61.035,37.598,22.461,53.711,22.461,0
1508750684.747,38.086,23.438,57.129,24.902,15.625,0
1508750684.751,8.789,-16.602,43.457,-7.812,23.926,0
1508750684.755,76.660,35.645,37.109,63.477,34.180,0
1508750684.759,74.219,44.922,38.086,66.895,36.133,0
1508750684.763,12.695,-16.602,21.484,11.719,31.250,0
1508750684.767,12.207,5.859,37.598,10.254,28.320,0
1508750684.771,24.414,31.250,48.828,22.949,59.082,0
1508750684.774,47.852,43.945,22.949,47.363,51.270,0
1508750684.778,46.875,42.480,32.715,40.039,37.598,0
1508750684.782,13.184,-8.301,73.242,-3.418,85.449,0
1508750684.786,28.320,-2.930,35.645,9.277,83.008,0
1508750684.790,86.426,52.734,36.621,78.613,34.180,0
1508750684.794,97.168,41.992,45.898,93.750,49.316,0
1508750684.798,54.688,30.762,41.992,50.293,66.406,0
1508750684.802,14.648,19.043,48.828,5.371,47.852,0
1508750684.806,18.555,-0.488,26.855,4.883,49.316,0
1508750684.810,54.199,20.996,15.625,44.922,49.316,0
1508750684.814,85.449,41.504,15.625,69.824,50.781,0
1508750684.817,68.848,24.902,28.809,48.828,43.457,0
1508750684.821,40.527,28.809,53.711,26.855,23.926,0
1508750684.825,83.984,61.523,66.406,71.777,47.852,0
1508750684.829,112.793,46.387,42.969,100.098,81.543,0
1508750684.833,75.684,43.457,37.109,58.105,60.059,0
1508750684.837,-0.488,24.902,35.156,-23.438,61.523,0
1508750684.841,7.324,-0.977,30.273,-22.949,44.922,0
1508750684.845,48.828,8.789,18.066,15.625,39.551,0
1508750684.849,56.641,43.945,40.039,36.133,52.734,0
1508750684.853,44.922,50.781,58.594,19.531,29.785,0
1508750684.857,42.969,42.480,52.734,14.160,62.012,0
1508750684.860,45.410,33.203,16.113,23.926,51.758,0
1508750684.864,77.637,51.270,11.230,58.105,23.438,0
1508750684.868,86.914,54.199,61.035,66.406,40.039,0
1508750684.872,61.035,31.250,41.504,45.410,80.078,0
1508750684.876,20.508,25.879,28.809,10.742,86.914,0
1508750684.880,-32.227,2.441,26.367,-50.781,65.918,0
1508750684.884,4.883,17.578,31.738,-18.066,65.918,0
1508750684.888,30.762,32.227,59.082,11.719,60.547,0
1508750684.892,35.156,29.785,26.367,14.160,41.992,0
1508750684.896,68.359,58.594,21.973,49.316,37.109,0
1508750684.899,80.566,86.914,28.320,63.965,62.988,0
1508750684.903,58.105,61.035,23.438,44.922,70.312,0
1508750684.907,-2.930,-3.906,21.484,-16.602,55.176,0
1508750684.911,-34.180,-31.738,28.320,-63.965,34.180,0
1508750684.915,15.137,-3.418,63.965,-21.973,41.992,0
1508750684.919,31.738,15.137,25.391,3.906,68.359,0
1508750684.923,29.785,33.691,20.508,2.441,53.711,0
1508750684.927,40.527,42.480,26.855,6.836,68.359,0
1508750684.931,53.711,47.363,27.832,15.137,83.496,0
1508750684.935,79.590,59.570,63.477,46.875,72.266,0
1508750684.939,58.594,45.410,29.785,31.738,52.734,0
1508750684.942,2.930,13.184,0.488,-26.367,41.016,0
1508750684.946,-9.277,6.836,30.273,-39.062,57.129,0
1508750684.950,6.836,20.508,39.062,-20.508,67.871,0
1508750684.954,42.480,34.180,20.508,23.926,52.734,0
1508750684.958,61.523,40.527,17.578,43.945,30.273,0
1508750684.962,35.156,37.598,47.852,13.184,54.199,0
1508750684.966,38.086,26.855,62.500,15.625,55.176,0
1508750684.970,92.285,42.480,30.273,70.312,36.133,0
1508750684.974,38.574,17.090,2.930,18.555,20.020,0
1508750684.978,-31.738,-7.812,34.668,-49.805,40.527,0
1508750684.982,24.902,31.738,51.270,4.395,50.781,0
1508750684.985,77.148,63.965,34.180,49.805,19.043,0
1508750684.989,60.059,43.457,20.020,33.203,15.137,0
1508750684.993,60.547,8.789,39.551,40.039,33.203,0
1508750684.997,90.820,54.199,39.551,74.707,42.480,0
1508750685.001,62.988,55.664,17.090,49.316,34.668,0
1508750685.005,10.254,-11.230,33.691,-2.930,25.391,0
1508750685.009,-6.348,-9.766,44.434,-22.949,33.203,0
1508750685.013,24.902,34.668,22.461,6.348,26.367,0
1508750685.017,59.570,40.527,4.883,41.992,0.000,0
1508750685.021,54.688,21.973,40.527,44.922,-3.418,0
1508750685.024,41.504,33.203,76.172,35.645,24.414,0
1508750685.028,79.590,55.176,39.062,62.988,41.016,0
1508750685.032,111.816,78.125,24.414,95.215,38.086,0
1508750685.036,70.801,52.246,46.387,62.500,57.617,0
1508750685.040,5.371,-20.508,18.066,-6.348,59.570,0
1508750685.044,-5.859,-43.457,35.645,-20.508,57.129,0
1508750685.048,1.465,0.977,48.828,-13.184,40.039,0
1508750685.052,18.066,59.082,42.480,0.977,49.316,0
1508750685.056,44.434,73.242,43.945,22.949,57.129,0
1508750685.060,40.039,45.898,25.391,18.555,12.695,0
1508750685.064,39.062,25.879,32.227,16.113,10.742,0
1508750685.067,42.969,42.480,56.641,21.973,52.246,0
1508750685.071,38.574,20.020,10.742,22.461,27.832,0
1508750685.075,62.988,34.668,25.879,42.480,-5.859,0
1508750685.079,24.414,45.898,42.480,0.488,30.762,0
1508750685.083,-51.758,-24.902,24.902,-83.008,32.715,0
1508750685.087,-29.785,-17.090,39.551,-62.988,6.348,0
1508750685.091,13.672,57.129,38.086,-12.695,18.555,0
1508750685.095,7.324,46.875,13.184,-22.949,34.668,0
1508750685.099,2.441,27.344,2.930,-33.203,31.250,0
1508750685.103,-6.836,55.176,39.062,-38.086,-9.277,0
1508750685.107,-38.574,11.719,50.781,-65.918,-8.789,0
1508750685.110,-46.875,-22.461,30.273,-79.102,43.457,0
1508750685.114,-45.410,14.648,55.176,-80.078,49.805,0
1508750685.118,-31.738,15.137,54.688,-62.012,22.461,0
1508750685.122,-47.363,-2.441,18.066,-76.660,8.301,0
1508750685.126,-51.270,19.531,25.879,-80.566,29.297,0
1508750685.130,37.598,85.938,29.297,9.766,38.086,0
1508750685.134,-3.906,57.617,3.418,-39.551,20.020,0
1508750685.138,-66.406,19.531,33.203,-111.816,0.977,0
1508750685.142,-59.082,5.859,62.012,-99.121,1.465,0
1508750685.146,-73.242,-0.977,46.875,-104.004,42.480,0
1508750685.149,-30.762,37.109,35.645,-64.941,35.645,0
1508750685.153,-9.277,55.664,28.809,-47.852,10.742,0
1508750685.157,-36.621,41.992,28.809,-74.219,15.625,0
1508750685.161,-37.598,6.348,23.926,-80.078,7.324,0
1508750685.165,-10.254,9.277,23.926,-52.246,39.551,0
1508750685.169,-5.371,43.457,27.344,-42.969,53.223,0
1508750685.173,-30.273,43.945,42.480,-62.500,16.602,0
1508750685.177,-54.199,21.484,16.602,-85.449,-1.953,0
1508750685.181,-4.395,61.035,0.488,-45.898,31.250,0
1508750685.185,38.086,89.355,41.504,2.441,61.035,0
1508750685.189,-17.090,10.742,36.133,-43.945,30.273,0
1508750685.192,-15.137,12.207,17.090,-47.852,15.625,0
1508750685.196,10.742,51.758,26.367,-24.414,-0.488,0
1508750685.200,-21.484,0.000,58.105,-56.641,18.555,0
1508750685.204,-12.207,23.926,40.039,-46.387,45.410,0
1508750685.208,27.344,66.406,4.395,-4.883,32.227,0
1508750685.212,43.457,57.617,21.484,9.766,14.160,0
1508750685.216,-32.715,15.625,45.410,-67.383,18.066,0
1508750685.220,-33.691,3.418,32.227,-71.289,44.434,0
1508750685.224,66.406,76.660,3.418,31.250,45.898,0
1508750685.228,53.711,72.754,15.625,20.508,35.645,0
1508750685.232,14.648,10.254,53.711,-22.949,35.156,0
1508750685.235,44.922,40.527,33.203,16.602,18.555,0
1508750685.239,49.316,33.691,-5.859,27.344,10.254,0
1508750685.243,19.043,35.645,25.391,-4.883,6.836,0
1508750685.247,-6.836,29.785,51.758,-42.480,-5.859,0
1508750685.251,57.617,36.133,7.812,14.648,-6.836,0
1508750685.255,122.070,89.844,23.438,90.820,7.812,0
1508750685.259,34.668,55.664,56.152,8.789,15.137,0
1508750685.263,-26.367,-15.137,22.949,-53.223,38.086,0
1508750685.267,104.004,62.012,12.207,82.520,30.762,0
1508750685.271,146.484,68.848,53.223,122.559,26.855,0
1508750685.274,39.551,-23.926,40.527,10.254,42.969,0
1508750685.278,31.738,9.277,0.488,0.977,46.387,0
1508750685.282,84.473,62.012,-18.066,52.734,41.992,0
1508750685.286,97.656,85.938,21.973,72.754,9.277,0
1508750685.290,54.199,53.223,48.828,35.645,15.137,0
1508750685.294,88.867,35.156,41.016,65.430,43.457,0
1508750685.298,109.863,41.504,32.227,81.055,29.785,0
1508750685.302,76.172,42.969,40.527,47.363,10.742,0
1508750685.306,57.129,-1.465,43.945,21.484,19.531,0
1508750685.310,106.445,28.320,37.109,73.242,38.086,0
1508750685.314,99.609,42.480,26.855,76.172,28.809,0
1508750685.317,48.340,1.953,14.160,21.484,0.000,0
1508750685.321,82.031,8.301,27.832,49.805,21.973,0
1508750685.325,128.906,44.922,22.949,101.074,38.574,0
1508750685.329,86.426,58.105,15.625,61.523,26.855,0
1508750685.333,57.129,41.992,34.668,25.879,20.020,0
1508750685.337,80.566,41.992,41.504,48.340,28.320,0
1508750685.341,125.488,74.707,20.508,95.703,28.320,0
1508750685.345,146.484,73.730,2.441,117.676,-2.930,0
1508750685.349,117.676,7.324,38.086,87.891,13.672,0
1508750685.353,65.430,-10.742,52.734,36.621,41.504,0
1508750685.357,23.438,7.812,29.297,-5.371,41.992,0
1508750685.360,30.273,15.625,25.391,-4.395,53.711,0
1508750685.364,48.828,18.555,31.250,17.090,44.922,0
1508750685.368,87.402,33.691,30.273,50.781,21.973,0
1508750685.372,118.652,63.477,18.066,76.660,19.043,0
1508750685.376,145.996,76.172,-2.441,114.258,14.648,0
1508750685.380,123.047,49.805,25.879,94.727,30.762,0
1508750685.384,72.266,32.227,41.504,37.109,60.059,0
1508750685.388,62.500,31.250,35.645,30.273,21.484,0
1508750685.392,48.828,18.066,42.969,23.438,14.160,0
1508750685.396,46.875,23.926,42.480,20.996,44.922,0
1508750685.399,54.199,26.367,61.523,34.668,40.039,0
1508750685.403,82.031,35.645,42.969,67.383,24.902,0
1508750685.407,124.023,58.105,22.949,112.793,-12.695,0
1508750685.411,103.516,28.320,43.945,102.051,-16.602,0
1508750685.415,52.246,-5.859,32.715,66.895,39.062,0
1508750685.419,82.031,4.883,5.371,90.820,48.828,0
1508750685.423,91.309,42.969,25.879,90.332,-8.789,0
1508750685.427,35.645,39.062,65.430,43.457,-19.531,0
1508750685.431,43.945,33.691,45.898,48.340,20.020,0
1508750685.435,86.914,37.598,12.695,89.355,-21.484,0
1508750685.439,108.398,49.805,34.668,120.117,-32.715,0
1508750685.442,120.605,56.641,56.152,132.812,19.043,0
1508750685.446,68.848,26.367,46.387,81.055,12.207,0
1508750685.450,-4.883,-14.648,44.434,7.324,10.254,0
1508750685.454,29.297,1.465,39.062,38.086,21.484,0
1508750685.458,82.031,52.734,24.414,90.820,8.789,0
1508750685.462,68.359,26.367,22.949,78.125,-11.230,0
1508750685.466,85.938,31.738,25.391,95.703,-0.488,0
1508750685.470,108.398,67.383,52.246,121.094,0.000,0
1508750685.474,64.941,39.062,37.109,80.566,-32.715,0
1508750685.478,77.148,40.039,1.465,91.309,-11.230,0
1508750685.482,55.664,23.438,35.156,67.383,-6.348,0
1508750685.485,-18.555,-10.742,62.012,-10.254,-21.973,0
1508750685.489,-3.906,-8.301,41.992,5.371,-21.973,0
1508750685.493,50.781,15.625,27.344,57.129,-13.672,0
1508750685.497,80.566,50.293,32.227,89.844,1.953,0
1508750685.501,77.148,51.270,39.551,89.844,9.766,0
1508750685.505,48.828,22.461,31.738,56.152,19.531,0
1508750685.509,49.805,41.016,37.109,53.223,23.926,0
1508750685.513,73.730,62.988,51.270,74.219,3.906,0
1508750685.517,52.734,12.695,47.852,53.711,-16.602,0
1508750685.521,34.668,13.184,36.621,41.016,-11.230,0
1508750685.524,59.570,43.457,2.441,71.777,-21.973,0
1508750685.528,75.195,32.715,32.227,83.984,-38.086,0
1508750685.532,52.734,34.180,69.336,61.523,12.695,0
1508750685.536,70.312,37.598,31.738,79.590,10.254,0
1508750685.540,74.219,37.598,27.344,83.496,0.488,0
1508750685.544,41.016,26.855,30.762,48.340,4.395,0
1508750685.548,60.547,24.902,49.805,64.453,-14.648,0
1508750685.552,111.816,48.340,28.809,114.746,-18.066,0
1508750685.556,72.266,14.648,9.766,74.707,3.418,0
1508750685.560,44.922,19.043,62.012,47.363,48.828,0
1508750685.564,56.152,27.832,56.641,60.059,24.414,0
1508750685.567,60.059,29.297,24.902,67.383,5.371,0
1508750685.571,62.500,41.504,-4.883,68.359,-18.066,0
1508750685.575,92.773,43.945,33.203,94.238,-27.344,0
1508750685.579,82.520,27.344,64.453,82.031,25.391,0
1508750685.583,19.043,16.113,36.133,18.555,20.996,0
1508750685.587,31.250,2.441,41.504,29.297,7.812,0
1508750685.591,61.035,20.020,32.715,54.199,22.949,0
1508750685.595,82.520,57.617,32.227,74.707,32.227,0
1508750685.599,59.082,42.480,33.691,55.176,27.832,0
1508750685.603,21.484,29.785,38.574,16.602,-0.977,0
1508750685.607,24.902,28.320,49.316,21.484,4.395,0
1508750685.610,67.383,47.852,34.180,63.477,47.363,0
1508750685.614,103.027,57.617,32.227,94.727,20.020,0
1508750685.618,49.316,18.066,42.969,40.039,-25.391,0
1508750685.622,11.230,-0.488,28.809,1.465,18.555,0
1508750685.626,54.688,28.320,20.020,49.805,31.250,0
1508750685.630,83.496,63.477,38.574,78.613,25.391,0
1508750685.634,48.828,58.594,39.062,39.551,20.996,0
1508750685.638,-31.250,-1.465,31.738,-38.574,17.090,0
1508750685.642,-25.391,-0.977,37.598,-29.785,23.926,0
1508750685.646,36.133,43.945,33.203,32.715,9.766,0
1508750685.649,83.496,72.754,44.434,79.102,30.762,0
1508750685.653,94.238,42.969,56.152,91.797,29.297,0
1508750685.657,16.113,-19.043,15.137,12.207,-9.766,0
1508750685.661,-11.719,7.812,5.859,-15.625,-13.672,0
1508750685.665,12.207,27.344,47.852,8.789,10.742,0
1508750685.669,-4.883,-7.324,41.504,-12.207,30.762,0
1508750685.673,20.020,16.602,11.230,10.742,17.090,0
1508750685.677,41.992,31.250,20.020,33.691,6.348,0
1508750685.681,52.734,31.250,26.367,51.270,30.762,0
1508750685.685,27.344,16.602,20.020,27.344,52.246,0
1508750685.689,-2.930,0.000,51.270,-6.836,27.832,0
1508750685.692,34.180,30.762,41.016,29.297,7.324,0
1508750685.696,74.707,31.738,22.461,65.918,32.227,0
1508750685.700,56.152,20.996,12.207,44.922,29.785,0
1508750685.704,28.809,17.090,-5.371,18.555,6.348,0
1508750685.708,22.949,-22.949,41.504,21.973,15.137,0
1508750685.712,16.113,9.766,52.246,14.648,44.434,0
1508750685.716,21.484,51.758,42.969,13.672,58.105,0
1508750685.720,20.020,29.297,9.277,13.672,29.297,0
1508750685.724,56.152,52.246,32.715,53.711,14.160,0
1508750685.728,74.707,26.367,52.734,68.848,32.715,0
1508750685.732,79.590,26.367,15.137,67.871,24.902,0
1508750685.735,65.430,58.594,14.648,54.199,14.648,0
1508750685.739,44.922,19.531,32.227,31.738,42.480,0
1508750685.743,33.203,1.953,36.133,21.484,43.457,0
1508750685.747,26.855,-14.160,35.645,19.043,34.180,0
1508750685.751,49.805,6.836,29.297,43.457,5.859,0
1508750685.755,39.062,45.898,24.902,33.203,-9.277,0
1508750685.759,46.875,44.922,46.875,34.668,36.133,0
1508750685.763,74.219,34.668,53.223,61.035,45.410,0
1508750685.767,62.012,34.180,27.832,51.270,32.715,0
1508750685.771,76.660,47.852,45.898,65.918,41.992,0
1508750685.774,68.848,24.414,32.715,63.965,36.621,0
1508750685.778,23.926,0.000,3.418,20.508,42.480,0
1508750685.782,22.949,7.324,27.832,14.648,55.176,0
1508750685.786,29.297,14.648,35.156,21.484,56.152,0
1508750685.790,66.895,46.387,47.852,68.359,35.156,0
1508750685.794,87.402,52.734,59.082,85.449,17.578,0
1508750685.798,54.688,28.320,19.043,44.922,26.855,0
1508750685.802,59.570,41.016,34.668,56.152,48.828,0
1508750685.806,80.566,53.711,47.363,83.984,43.457,0
1508750685.810,27.832,12.207,-4.395,30.762,32.715,0
1508750685.814,-16.602,5.371,8.789,-19.531,35.645,0
1508750685.817,17.578,30.762,73.730,9.277,49.805,0
1508750685.821,34.180,13.184,63.965,32.227,24.414,0
1508750685.825,34.668,3.418,27.344,33.691,-7.812,0
1508750685.829,65.430,24.902,31.738,60.059,-1.465,0
1508750685.833,80.078,59.082,39.551,78.125,22.461,0
1508750685.837,53.223,64.941,-2.930,50.781,21.973,0
1508750685.841,27.344,34.668,12.207,26.367,13.672,0
1508750685.845,9.766,0.000,55.176,8.789,23.926,0
1508750685.849,39.062,14.160,39.062,32.227,37.109,0
1508750685.853,83.984,60.059,25.391,79.102,37.109,0
1508750685.857,69.824,50.293,32.715,63.965,8.789,0
1508750685.860,49.805,35.156,56.641,39.062,29.297,0
1508750685.864,39.062,17.578,36.621,26.367,51.270,0
1508750685.868,39.062,7.812,3.906,19.531,25.391,0
1508750685.872,42.480,32.227,5.859,19.531,25.391,0
1508750685.876,43.457,25.879,48.340,20.020,28.320,0
1508750685.880,59.082,32.715,29.785,33.203,6.836,0
1508750685.884,65.918,56.641,31.250,39.551,20.996,0
1508750685.888,36.621,20.508,51.270,16.113,53.223,0
1508750685.892,31.738,9.766,22.461,20.508,42.480,0
1508750685.896,68.359,62.012,26.855,61.523,25.391,0
1508750685.899,96.191,74.707,6.348,89.844,21.973,0
1508750685.903,78.613,41.992,-1.953,72.266,25.391,0
1508750685.907,20.996,15.625,46.387,11.719,49.805,0
1508750685.911,12.207,9.766,49.316,8.301,55.664,0
1508750685.915,14.160,-2.930,43.457,17.090,70.312,0
1508750685.919,14.160,3.418,44.922,12.695,50.293,0
1508750685.923,50.293,43.457,39.062,50.293,16.602,0
1508750685.927,69.336,63.965,31.250,72.754,51.758,0
1508750685.931,38.574,38.086,34.180,45.898,61.035,0
1508750685.935,21.484,27.832,23.926,29.297,55.176,0
1508750685.939,50.781,44.922,22.461,56.152,48.340,0
1508750685.942,20.020,4.395,31.738,24.414,24.414,0
1508750685.946,-3.906,-10.254,43.945,2.441,5.371,0
1508750685.950,16.602,21.484,73.242,23.438,13.672,0
1508750685.954,19.531,28.809,44.434,22.949,34.180,0
1508750685.958,52.246,36.133,14.648,60.547,44.434,0
1508750685.962,59.570,41.992,27.344,67.383,60.547,0
1508750685.966,-1.465,22.461,26.367,-4.395,41.504,0
1508750685.970,0.488,20.020,48.340,-0.488,22.461,0
1508750685.974,18.555,27.832,50.781,23.926,33.691,0
1508750685.978,27.344,31.738,41.504,27.832,52.246,0
1508750685.982,29.785,38.574,42.969,23.926,54.199,0
1508750685.985,34.180,47.363,29.297,29.297,41.504,0
1508750685.989,52.246,39.551,25.391,45.898,19.531,0
1508750685.993,62.012,21.484,23.926,59.082,17.578,0
1508750685.997,63.477,41.016,44.434,62.012,38.086,0
1508750686.001,31.738,59.082,42.480,23.926,27.344,0
1508750686.005,25.879,45.898,34.668,20.508,23.438,0
1508750686.009,8.789,1.465,32.227,4.395,54.199,0
1508750686.013,7.812,9.277,41.992,-5.859,83.008,0
1508750686.017,49.316,49.316,48.828,29.785,61.523,0
1508750686.021,32.715,28.320,30.273,20.508,15.625,0
1508750686.024,15.625,39.551,38.574,0.488,11.230,0
1508750686.028,21.484,28.320,50.781,0.488,45.410,0
1508750686.032,97.168,62.988,20.996,83.984,46.875,0
1508750686.036,95.215,80.566,-7.812,85.938,13.184,0
1508750686.040,-4.395,-1.465,48.828,-7.324,-16.602,0
1508750686.044,-0.488,3.906,58.105,0.488,13.184,0
1508750686.048,33.203,50.781,32.227,31.250,19.531,0
1508750686.052,18.066,44.434,32.715,11.719,20.020,0
1508750686.056,18.066,45.410,42.480,17.578,49.316,0
1508750686.060,25.391,23.926,57.617,28.320,29.785,0
1508750686.064,31.250,3.906,43.457,29.297,9.277,0
1508750686.067,34.668,22.949,26.367,34.180,41.992,0
1508750686.071,47.852,33.691,15.137,43.457,43.457,0
1508750686.075,65.918,38.574,35.156,65.918,15.625,0
1508750686.079,34.180,36.133,32.715,35.156,15.625,0
1508750686.083,19.043,35.156,5.859,9.766,-6.836,0
1508750686.087,35.645,37.109,67.871,21.484,20.020,0
1508750686.091,30.273,35.156,63.477,19.531,46.875,0
1508750686.095,23.926,25.879,15.625,23.926,10.254,0
1508750686.099,28.320,12.695,55.664,33.691,10.254,0
1508750686.103,24.414,20.996,53.223,14.160,26.367,0
1508750686.107,24.414,32.227,41.504,4.395,25.879,0
1508750686.110,31.250,20.020,34.180,13.672,21.484,0
1508750686.114,30.273,33.691,24.902,11.719,28.320,0
1508750686.118,39.062,54.199,55.664,22.461,48.340,0
1508750686.122,56.152,47.363,25.391,47.363,24.902,0
1508750686.126,73.242,42.480,26.367,62.988,23.438,0
1508750686.130,69.336,39.062,65.430,46.387,30.273,0
1508750686.134,45.410,42.480,51.758,20.996,11.719,0
1508750686.138,20.020,18.066,27.344,-3.906,-1.465,0
1508750686.142,22.949,-15.625,16.602,-3.418,0.000,0
1508750686.146,62.988,2.930,52.734,40.039,27.344,0
1508750686.149,92.285,66.895,51.270,69.824,44.434,0
1508750686.153,69.336,81.543,28.320,42.969,13.672,0
1508750686.157,19.531,15.137,6.348,-9.766,6.836,0
1508750686.161,49.316,13.184,29.297,17.090,29.785,0
1508750686.165,82.031,63.965,84.473,52.246,19.531,0
1508750686.169,54.199,40.039,44.434,22.461,-10.254,0
1508750686.173,45.410,-9.766,12.695,6.348,-29.785,0
1508750686.177,84.473,31.250,43.457,54.688,-18.066,0
1508750686.181,82.520,45.410,41.016,65.430,1.953,0
1508750686.185,67.871,18.066,41.504,49.805,-22.461,0
1508750686.189,114.746,55.176,56.152,89.355,-26.855,0
1508750686.192,93.262,58.105,39.551,58.594,6.836,0
1508750686.196,74.707,38.086,26.367,35.156,-7.324,0
1508750686.200,100.098,20.020,34.668,62.500,-27.344,0
1508750686.204,95.215,36.133,44.922,66.406,-5.371,0
1508750686.208,105.469,67.383,37.109,78.613,35.156,0
1508750686.212,76.172,0.488,47.363,49.316,9.766,0
1508750686.216,40.039,-20.996,66.406,14.160,-15.137,0
1508750686.220,47.852,30.273,53.223,24.414,1.953,0
1508750686.224,76.660,61.523,43.457,54.688,27.832,0
1508750686.228,117.188,70.312,23.926,94.238,34.668,0
1508750686.232,121.582,47.852,18.066,98.633,1.465,0
1508750686.235,46.875,5.859,50.781,25.391,11.719,0
1508750686.239,12.695,7.324,67.383,-7.324,30.762,0
1508750686.243,42.969,35.156,49.316,22.949,15.137,0
1508750686.247,62.012,38.574,52.246,41.016,28.320,0
1508750686.251,95.703,21.973,43.457,71.289,17.578,0
1508750686.255,82.520,44.922,18.555,57.129,4.395,0
1508750686.259,31.738,29.297,26.367,15.137,14.648,0
1508750686.263,63.965,15.625,53.223,50.293,16.602,0
1508750686.267,93.750,56.641,62.988,73.242,23.438,0
1508750686.271,83.984,50.781,40.039,66.406,15.137,0
1508750686.274,53.711,23.438,8.301,40.039,-3.906,0
1508750686.278,28.320,9.766,30.273,12.207,-5.371,0
1508750686.282,26.855,19.531,68.359,11.230,41.016,0
1508750686.286,24.414,36.133,53.711,12.207,57.617,0
1508750686.290,28.809,18.066,19.531,18.066,35.156,0
1508750686.294,33.203,18.066,41.992,24.414,45.898,0
1508750686.298,46.387,33.691,57.617,37.598,85.449,0
1508750686.302,82.520,52.246,45.410,72.754,61.523,0
1508750686.306,68.359,24.414,34.180,53.711,53.711,0
1508750686.310,56.641,6.836,15.137,32.715,66.895,0
1508750686.314,54.688,50.781,22.461,35.156,42.969,0
1508750686.317,25.391,54.199,41.992,24.414,17.578,0
1508750686.321,49.316,47.363,50.781,57.617,-11.230,0
1508750686.325,63.477,50.293,42.480,58.105,14.648,0
1508750686.329,50.293,8.301,16.602,30.273,69.824,0
1508750686.333,50.293,-5.371,35.156,31.738,50.293,0
1508750686.337,37.109,42.969,61.035,19.531,14.648,0
1508750686.341,21.973,30.762,48.828,2.441,22.949,0
1508750686.345,31.250,25.391,24.414,16.113,51.270,0
1508750686.349,55.176,42.969,23.926,39.551,54.688,0
1508750686.353,68.848,62.012,46.387,51.758,44.922,0
1508750686.357,24.414,28.320,38.574,11.719,53.711,0
1508750686.360,27.832,15.137,44.922,19.531,52.246,0
1508750686.364,45.410,26.855,35.645,40.039,34.668,0
1508750686.368,30.273,18.066,18.066,33.203,17.090,0
1508750686.372,40.527,11.230,26.367,47.852,41.992,0
1508750686.376,54.199,32.227,43.457,54.199,56.152,0
1508750686.380,46.387,56.152,49.316,47.852,16.602,0
1508750686.384,31.250,18.066,51.758,30.762,39.062,0
1508750686.388,47.363,19.043,33.203,45.898,75.684,0
1508750686.392,41.504,43.457,0.977,46.875,31.738,0
1508750686.396,33.691,40.039,45.898,42.969,26.855,0
1508750686.399,41.016,26.367,84.473,47.852,33.203,0
1508750686.403,41.992,0.488,60.059,37.598,31.738,0
1508750686.407,50.781,10.742,33.203,42.480,32.227,0
1508750686.411,65.430,62.500,32.227,64.453,1.953,0
1508750686.415,41.992,35.645,46.387,48.828,19.531,0
1508750686.419,28.809,34.180,52.734,32.227,51.270,0
1508750686.423,74.219,50.293,38.086,75.684,28.320,0
1508750686.427,35.645,3.906,18.066,41.504,21.484,0
1508750686.431,5.371,14.160,47.852,13.672,14.648,0
1508750686.435,39.551,41.504,53.223,49.316,10.742,0
1508750686.439,23.926,32.227,28.809,46.875,2.930,0
1508750686.442,19.043,35.645,59.570,41.992,4.883,0
1508750686.446,29.297,56.641,57.617,41.992,41.016,0
1508750686.450,1.953,15.137,43.945,9.277,47.852,0
1508750686.454,25.879,8.789,38.574,29.785,5.859,0
1508750686.458,39.062,46.875,36.133,42.969,-10.254,0
1508750686.462,26.855,19.531,52.734,29.297,19.531,0
1508750686.466,48.340,20.996,47.852,41.992,51.758,0
1508750686.470,15.137,34.668,31.738,13.184,13.672,0
1508750686.474,2.930,43.945,39.551,5.859,-9.277,0
1508750686.478,37.109,41.016,60.059,34.668,51.270,0
1508750686.482,75.195,59.082,70.312,65.918,65.918,0
1508750686.485,84.961,69.824,34.668,67.871,48.828,0
1508750686.489,64.941,47.852,46.875,48.340,35.645,0
1508750686.493,24.414,-11.230,65.918,4.395,30.762,0
1508750686.497,28.809,-7.812,36.621,8.301,30.273,0
1508750686.501,41.016,20.020,16.602,21.973,11.719,0
1508750686.505,37.109,26.855,34.180,14.160,2.441,0
1508750686.509,72.754,70.312,51.758,49.805,16.113,0
1508750686.513,63.477,52.246,23.926,40.527,30.273,0
1508750686.517,70.801,60.547,41.016,45.410,21.484,0
1508750686.521,97.656,63.477,92.773,76.660,22.461,0
1508750686.524,53.223,9.277,68.848,35.156,75.684,0
1508750686.528,14.160,-28.320,39.551,-0.977,58.105,0
1508750686.532,24.414,5.859,56.641,12.695,24.414,0
1508750686.536,61.035,40.039,53.711,49.316,43.945,0
1508750686.540,62.012,45.898,43.457,57.129,41.504,0
1508750686.544,49.316,37.598,52.246,42.480,11.719,0
1508750686.548,35.645,24.902,42.969,28.809,-24.902,0
1508750686.552,46.875,35.156,44.922,37.109,1.465,0
1508750686.556,121.582,77.148,61.523,106.934,24.414,0
1508750686.560,63.965,31.738,36.621,57.617,-20.996,0
1508750686.564,-15.625,-5.371,54.688,-28.809,-0.488,0
1508750686.567,13.184,14.160,75.195,-8.789,17.578,0
1508750686.571,29.297,1.953,49.316,13.184,-2.930,0
1508750686.575,48.340,24.414,49.316,35.645,-2.441,0
1508750686.579,60.547,49.805,63.477,51.270,3.418,0
1508750686.583,56.641,55.664,52.734,45.410,44.922,0
1508750686.587,54.199,48.340,27.832,41.504,31.738,0
1508750686.591,56.641,34.668,16.113,40.527,4.883,0
1508750686.595,69.824,64.453,37.598,56.641,5.371,0
1508750686.599,39.062,37.109,48.340,33.691,-1.953,0
1508750686.603,1.953,-9.766,46.387,-2.441,-8.789,0
1508750686.607,11.230,12.207,60.547,1.953,-13.672,0
1508750686.610,41.016,43.945,62.012,23.438,8.301,0
1508750686.614,33.691,35.156,41.504,14.160,24.902,0
1508750686.618,30.273,39.551,41.504,20.508,12.695,0
1508750686.622,28.809,31.738,59.570,24.414,2.441,0
1508750686.626,57.617,52.246,56.641,47.363,0.977,0
1508750686.630,70.312,51.758,43.457,50.293,20.020,0
1508750686.634,37.598,24.414,47.852,18.066,28.320,0
1508750686.638,43.457,48.828,54.688,30.273,21.973,0
1508750686.642,24.902,11.230,62.988,15.625,37.598,0
1508750686.646,19.043,27.344,51.758,8.301,50.293,0
1508750686.649,25.391,39.551,50.781,12.695,33.203,0
1508750686.653,7.324,-1.465,34.668,0.000,5.859,0
1508750686.657,44.434,37.598,50.293,41.504,41.504,0
1508750686.661,52.734,73.730,60.547,51.758,56.152,0
1508750686.665,7.324,29.785,37.598,3.418,33.203,0
1508750686.669,11.230,-7.324,45.410,3.906,31.738,0
1508750686.673,51.758,37.598,57.129,44.922,59.082,0
1508750686.677,55.664,42.480,70.312,60.547,66.895,0
1508750686.681,11.719,-2.930,57.129,20.996,42.480,0
1508750686.685,17.578,53.711,36.133,21.973,40.527,0
1508750686.689,31.738,50.293,30.762,40.527,44.922,0
1508750686.692,-5.859,4.883,31.250,-3.906,34.668,0
1508750686.696,-4.883,14.160,30.762,-15.625,14.160,0
1508750686.700,28.809,30.273,66.406,23.926,0.977,0
1508750686.704,40.527,37.598,52.246,43.945,25.879,0
1508750686.708,42.969,46.875,25.391,46.875,28.809,0
1508750686.712,39.551,42.969,62.500,43.945,20.996,0
1508750686.716,25.391,9.277,60.059,35.156,46.387,0
1508750686.720,20.996,6.836,32.227,27.832,51.270,0
1508750686.724,42.969,34.180,28.320,51.758,18.066,0
1508750686.728,40.039,29.297,36.621,50.293,37.598,0
1508750686.732,28.320,31.250,56.152,33.691,45.898,0
1508750686.735,23.438,43.457,60.059,29.785,11.230,0
1508750686.739,11.719,40.039,34.180,18.066,-1.465,0
1508750686.743,9.277,3.418,28.320,10.254,14.648,0
1508750686.747,62.988,39.062,60.059,63.965,51.758,0
1508750686.751,62.988,61.523,47.852,72.266,41.016,0
1508750686.755,15.137,36.621,19.043,23.926,-14.160,0
1508750686.759,20.020,0.000,53.711,24.414,-17.578,0
1508750686.763,17.578,-7.324,53.223,15.137,45.898,0
1508750686.767,43.945,77.148,20.020,41.992,76.660,0
1508750686.771,49.805,41.504,11.719,51.758,34.668,0
1508750686.774,21.484,-2.441,59.082,21.484,21.973,0
1508750686.778,54.199,59.570,78.125,55.664,81.543,0
1508750686.782,77.148,58.105,45.410,81.055,92.773,0
1508750686.786,32.715,20.508,24.414,46.387,56.152,0
1508750686.790,34.668,2.441,31.738,51.758,46.875,0
1508750686.794,48.340,9.766,63.477,64.453,77.148,0
1508750686.798,8.789,26.855,30.762,22.461,81.543,0
1508750686.802,14.160,23.926,27.832,17.090,54.688,0
1508750686.806,40.527,36.621,76.172,44.434,44.434,0
1508750686.810,59.570,46.387,66.406,69.824,61.035,0
1508750686.814,52.246,38.086,45.410,65.918,79.102,0
1508750686.817,55.176,53.711,48.828,62.988,71.777,0
1508750686.821,73.730,40.039,41.016,82.031,99.121,0
1508750686.825,38.574,25.391,22.949,51.270,105.957,0
1508750686.829,23.926,37.109,14.648,26.367,57.129,0
1508750686.833,41.016,39.551,39.062,41.504,20.020,0
1508750686.837,35.156,36.133,77.637,43.945,39.062,0
1508750686.841,38.086,30.273,40.527,41.016,104.980,0
1508750686.845,48.340,34.180,23.438,42.969,97.168,0
1508750686.849,51.270,25.391,72.754,55.176,67.871,0
1508750686.853,24.902,27.832,58.594,31.738,87.402,0
1508750686.857,14.648,45.410,17.090,15.137,77.148,0
1508750686.860,42.480,55.176,11.719,41.992,55.664,0
1508750686.864,48.340,46.387,37.598,47.363,65.430,0
1508750686.868,29.785,18.066,30.273,34.668,68.359,0
1508750686.872,60.059,42.969,23.438,62.012,51.758,0
1508750686.876,71.777,76.660,68.848,82.031,53.223,0
1508750686.880,-8.301,4.395,73.242,5.371,79.590,0
1508750686.884,-53.711,-23.926,35.156,-54.199,51.758,0
1508750686.888,-20.508,32.227,32.227,-10.742,20.996,0
1508750686.892,28.809,20.508,35.156,44.434,18.555,0
1508750686.896,53.223,21.484,55.664,58.105,17.578,0
1508750686.899,45.410,59.082,41.992,49.805,43.945,0
1508750686.903,31.250,47.852,24.414,39.551,58.105,0
1508750686.907,24.414,28.320,30.762,34.180,45.410,0
1508750686.911,28.320,30.762,36.133,34.668,51.270,0
1508750686.915,49.316,43.945,69.824,57.129,79.102,0
1508750686.919,46.387,41.504,76.660,65.918,48.340,0
1508750686.923,14.160,11.230,39.551,28.809,15.625,0
1508750686.927,22.461,13.672,24.902,34.180,38.574,0
1508750686.931,25.391,28.320,46.875,37.598,63.965,0
1508750686.935,13.184,32.715,32.715,20.508,23.438,0
1508750686.939,19.043,43.457,29.297,25.391,0.977,0
1508750686.942,23.438,26.855,60.059,31.738,59.570,0
1508750686.946,42.969,18.066,44.922,47.852,41.504,0
1508750686.950,49.805,36.133,33.691,50.293,29.297,0
1508750686.954,55.664,48.828,54.199,59.570,59.570,0
1508750686.958,47.852,23.926,33.203,52.734,68.359,0
1508750686.962,6.348,-5.859,2.930,6.836,55.664,0
1508750686.966,30.273,23.926,36.621,27.832,39.551,0
1508750686.970,54.199,48.828,52.246,50.781,47.852,0
1508750686.974,22.461,29.297,33.203,13.672,31.738,0
1508750686.978,20.020,26.367,20.020,5.859,43.945,0
1508750686.982,35.645,43.457,33.691,24.414,41.504,0
1508750686.985,66.406,23.926,42.969,50.293,13.184,0
1508750686.989,97.168,40.039,11.719,86.914,6.836,0
1508750686.993,63.477,60.547,29.785,56.152,13.672,0
1508750686.997,10.254,10.742,66.406,0.000,5.371,0
1508750687.001,0.977,-5.859,62.012,-9.277,9.766,0
1508750687.005,39.062,32.227,51.270,25.879,27.832,0
1508750687.009,61.035,44.434,52.246,49.316,21.973,0
1508750687.013,31.738,40.527,37.109,18.066,14.648,0
1508750687.017,38.574,33.203,39.062,20.996,30.762,0
1508750687.021,61.035,51.758,56.641,44.922,26.855,0
1508750687.024,26.855,48.828,40.039,15.137,0.488,0
1508750687.028,20.020,5.371,27.344,6.348,-0.977,0
1508750687.032,26.855,-6.348,41.504,8.301,36.621,0
1508750687.036,28.320,13.184,49.316,19.531,47.852,0
1508750687.040,25.391,16.602,19.043,27.344,-9.277,0
1508750687.044,18.066,25.879,23.438,17.090,-1.465,0
1508750687.048,33.691,47.363,58.105,38.086,60.059,0
1508750687.052,49.805,61.035,47.852,58.105,38.086,0
1508750687.056,11.719,24.414,10.742,16.113,26.855,0
1508750687.060,28.320,24.414,36.621,25.391,48.828,0
1508750687.064,38.574,18.066,60.059,36.133,43.457,0
1508750687.067,17.090,23.926,44.434,17.578,29.297,0
1508750687.071,17.090,20.508,49.805,26.367,-10.742,0
1508750687.075,2.441,-3.906,58.105,7.812,29.785,0
1508750687.079,21.973,47.852,32.715,20.508,87.891,0
1508750687.083,59.082,77.637,34.668,59.570,53.711,0
1508750687.087,46.387,38.574,55.664,55.176,9.766,0
1508750687.091,-2.930,-2.930,54.199,9.766,16.602,0
1508750687.095,1.953,17.578,57.617,13.672,36.621,0
1508750687.099,33.203,27.344,60.547,41.992,12.695,0
1508750687.103,41.504,31.738,70.312,45.898,13.184,0
1508750687.107,24.414,20.996,62.500,25.879,30.762,0
1508750687.110,33.691,24.414,54.688,38.086,34.180,0
1508750687.114,60.547,76.660,50.781,68.848,12.207,0
1508750687.118,36.621,67.383,57.617,42.969,-17.090,0
1508750687.122,-13.184,10.254,60.059,-6.836,7.812,0
1508750687.126,32.715,29.785,63.965,35.645,36.133,0
1508750687.130,68.359,66.406,65.918,64.453,28.320,0
1508750687.134,29.785,39.062,40.527,21.973,30.273,0
1508750687.138,7.812,-3.418,38.086,-2.930,13.672,0
1508750687.142,-13.672,-12.207,51.270,-25.391,-16.602,0
1508750687.146,-6.836,-16.602,59.082,-10.742,-7.812,0
1508750687.149,55.664,15.625,84.961,50.293,11.719,0
1508750687.153,59.082,64.941,78.125,49.805,18.066,0
1508750687.157,0.000,40.527,45.410,-4.883,12.207,0
1508750687.161,16.602,43.945,55.664,3.418,-5.371,0
1508750687.165,39.551,52.734,92.773,24.902,-8.789,0
1508750687.169,25.391,23.438,78.125,23.926,1.953,0
1508750687.173,26.367,24.414,72.266,33.203,13.184,0
1508750687.177,22.949,13.184,79.102,37.109,10.254,0
1508750687.181,30.762,21.484,62.988,42.969,-3.418,0
1508750687.185,44.434,53.711,69.824,43.457,2.930,0
1508750687.189,23.438,32.715,78.125,18.066,-23.438,0
1508750687.192,-3.906,-1.465,76.660,-2.930,-5.371,0
1508750687.196,23.438,31.738,59.570,16.602,-1.953,0
1508750687.200,68.359,47.363,61.035,61.523,10.742,0
1508750687.204,26.367,-6.348,59.082,38.574,12.695,0
1508750687.208,-3.418,2.930,63.965,9.277,-14.160,0
1508750687.212,8.301,12.695,98.633,10.742,8.789,0
1508750687.216,53.711,21.484,78.125,55.176,21.973,0
1508750687.220,69.824,51.758,57.617,69.824,-15.625,0
1508750687.224,50.293,52.246,92.773,47.852,-6.348,0
1508750687.228,13.184,22.949,93.262,17.578,37.109,0
1508750687.232,-1.953,13.184,72.266,-12.207,51.270,0
1508750687.235,37.109,6.836,78.125,16.602,53.711,0
1508750687.239,44.434,3.906,70.312,31.738,42.969,0
1508750687.243,66.895,60.059,71.289,62.012,33.691,0
1508750687.247,74.219,45.410,85.938,67.383,19.531,0
1508750687.251,33.691,11.719,72.266,26.855,17.090,0
1508750687.255,18.066,27.344,54.688,8.789,6.348,0
1508750687.259,49.805,32.715,67.383,38.574,7.812,0
1508750687.263,51.270,34.180,64.941,35.156,13.672,0
1508750687.267,7.324,17.578,48.828,-9.277,9.766,0
1508750687.271,9.766,-0.488,58.105,-0.977,10.742,0
1508750687.274,39.062,-17.578,59.570,22.949,30.273,0
1508750687.278,40.039,3.906,30.273,29.297,7.812,0
1508750687.282,110.840,82.031,51.270,95.703,-12.695,0
1508750687.286,112.305,96.680,111.328,100.586,8.789,0
1508750687.290,28.320,29.297,95.215,20.508,14.160,0
1508750687.294,26.367,9.277,62.012,12.207,-1.465,0
1508750687.298,62.012,9.277,62.012,48.340,-14.160,0
1508750687.302,77.148,12.695,83.008,59.082,2.930,0
1508750687.306,55.664,27.344,97.656,35.156,15.625,0
1508750687.310,54.199,43.457,90.820,29.297,-7.324,0
1508750687.314,119.141,79.102,102.539,88.867,-24.902,0
1508750687.317,150.879,88.867,112.305,130.371,12.207,0
1508750687.321,69.824,53.223,81.543,62.500,25.391,0
1508750687.325,38.574,-1.465,81.543,31.738,3.418,0
1508750687.329,74.219,18.066,101.074,61.035,-19.531,0
1508750687.333,96.191,76.660,131.348,80.566,-1.465,0
1508750687.337,97.656,70.312,109.863,82.031,4.883,0
1508750687.341,84.961,34.180,73.242,70.801,-1.465,0
1508750687.345,88.867,35.645,72.754,73.242,-9.766,0
1508750687.349,99.609,53.711,91.797,82.520,-17.578,0
1508750687.353,90.332,36.133,88.867,77.637,0.488,0
1508750687.357,92.773,50.781,60.547,83.496,-3.906,0
1508750687.360,96.680,64.941,85.938,83.496,-31.250,0
1508750687.364,78.125,38.086,86.914,67.383,-10.254,0
1508750687.368,54.688,1.465,67.871,41.504,13.184,0
1508750687.372,50.781,16.602,90.820,36.133,13.184,0
1508750687.376,96.680,38.574,80.078,79.590,11.230,0
1508750687.380,113.281,47.363,80.078,90.820,9.277,0
1508750687.384,84.473,60.059,53.711,68.359,8.301,0
1508750687.388,74.219,54.199,45.898,66.895,10.254,0
1508750687.392,49.316,38.574,74.219,43.945,6.836,0
1508750687.396,29.785,12.695,69.824,19.531,2.441,0
1508750687.399,52.734,41.016,59.082,30.273,1.465,0
1508750687.403,57.129,36.621,73.730,41.992,-8.301,0
1508750687.407,41.504,0.000,92.773,39.062,24.902,0
1508750687.411,41.016,11.719,47.363,33.203,48.828,0
1508750687.415,20.996,34.668,37.598,11.230,35.156,0
1508750687.419,27.832,50.293,71.289,23.438,21.973,0
1508750687.423,55.176,50.781,35.156,58.105,44.922,0
1508750687.427,51.758,66.406,19.043,54.199,39.062,0
1508750687.431,15.625,20.020,53.711,14.648,20.996,0
1508750687.435,-14.160,-3.906,71.289,-11.230,33.203,0
1508750687.439,-27.832,29.297,71.289,-21.484,45.898,0
1508750687.442,-7.812,18.555,39.551,-4.395,24.414,0
1508750687.446,28.320,40.039,39.551,29.297,-16.602,0
1508750687.450,4.395,40.039,42.969,3.418,18.555,0
1508750687.454,16.602,36.621,38.086,14.160,64.453,0
1508750687.458,51.270,43.945,41.504,60.059,37.109,0
1508750687.462,9.766,26.367,39.551,26.855,23.926,0
1508750687.466,-5.859,32.715,59.082,3.418,39.551,0
1508750687.470,23.926,31.738,33.203,30.762,47.852,0
1508750687.474,34.180,41.992,39.062,41.992,31.738,0
1508750687.478,40.527,37.598,57.617,35.645,30.273,0
1508750687.482,17.090,20.508,33.203,14.648,47.852,0
1508750687.485,17.578,29.785,42.969,25.391,35.645,0
1508750687.489,56.641,25.879,46.387,62.500,41.992,0
1508750687.493,72.754,43.945,48.828,82.031,40.527,0
1508750687.497,57.617,45.898,60.059,67.383,23.438,0
1508750687.501,39.551,41.992,45.410,39.062,30.762,0
1508750687.505,66.895,73.242,54.688,67.383,16.602,0
1508750687.509,53.223,51.758,65.430,54.199,30.273,0
1508750687.513,20.508,-4.395,45.898,11.230,60.059,0
1508750687.517,67.383,8.789,39.062,56.152,47.363,0
1508750687.521,104.492,31.738,54.199,103.516,17.090,0
1508750687.524,85.938,32.715,66.406,79.590,27.832,0
1508750687.528,72.754,67.383,76.172,57.617,45.410,0
1508750687.532,65.918,75.195,45.410,58.594,40.039,0
1508750687.536,59.082,48.340,40.039,52.734,25.879,0
1508750687.540,63.477,45.410,83.984,50.293,20.996,0
1508750687.544,37.598,28.809,47.363,22.461,34.180,0
1508750687.548,53.711,29.785,29.297,36.621,60.059,0
1508750687.552,72.266,56.152,57.617,63.965,36.133,0
1508750687.556,24.902,16.113,55.176,17.090,8.789,0
1508750687.560,32.715,5.371,53.711,16.113,37.598,0
1508750687.564,45.898,32.715,65.430,40.039,19.043,0
1508750687.567,7.812,44.434,61.523,1.953,22.949,0
1508750687.571,8.789,50.293,68.848,-6.348,42.480,0
1508750687.575,42.480,40.039,65.430,31.738,44.922,0
1508750687.579,29.785,27.344,35.156,24.414,57.617,0
1508750687.583,24.902,43.457,43.945,15.137,30.762,0
1508750687.587,52.246,34.180,80.078,46.387,20.996,0
1508750687.591,42.480,27.344,78.613,41.016,50.781,0
1508750687.595,-7.812,61.523,51.758,-10.742,42.480,0
1508750687.599,-41.992,40.527,45.410,-41.992,25.391,0
1508750687.603,-37.109,1.953,51.758,-37.109,41.504,0
1508750687.607,-14.648,19.531,55.176,-12.695,65.430,0
1508750687.610,8.301,47.852,52.734,8.789,36.133,0
1508750687.614,23.438,60.547,39.062,25.879,15.625,0
1508750687.618,33.203,54.688,60.547,41.992,23.438,0
1508750687.622,-2.930,22.949,80.566,3.418,31.738,0
1508750687.626,-17.090,0.977,55.176,-17.090,37.109,0
1508750687.630,24.414,-2.441,53.711,21.484,29.297,0
1508750687.634,56.152,61.523,55.664,58.594,44.434,0
1508750687.638,64.453,90.820,50.293,68.848,62.500,0
1508750687.642,46.875,48.340,61.035,43.457,56.641,0
1508750687.646,26.855,22.949,76.172,16.602,51.270,0
1508750687.649,38.086,-6.348,72.754,24.902,71.289,0
1508750687.653,29.785,11.230,61.035,22.461,65.918,0
1508750687.657,41.992,72.266,37.598,36.621,46.387,0
1508750687.661,71.289,78.125,50.293,52.734,43.457,0
1508750687.665,56.641,62.012,83.008,34.668,52.246,0
1508750687.669,24.414,35.645,53.711,18.066,66.895,0
1508750687.673,51.270,23.926,58.594,36.621,22.949,0
1508750687.677,77.148,49.805,84.961,52.734,7.324,0
1508750687.681,60.547,41.992,63.965,39.551,54.688,0
1508750687.685,58.594,44.922,33.203,41.992,11.719,0
