timestamps,TP9,AF7,AF8,TP10,Right AUX,Marker0
1508657919.084,36.133,23.438,16.602,38.086,41.504,0
1508657919.087,30.762,20.508,11.230,35.156,58.594,0
1508657919.091,30.762,21.484,1.465,37.598,36.133,0
1508657919.095,44.922,30.273,5.859,39.062,18.066,0
1508657919.099,54.688,34.180,12.207,44.434,12.695,0
1508657919.103,53.711,38.574,0.488,44.434,34.180,0
1508657919.107,51.758,41.504,0.977,40.527,31.250,0
1508657919.111,46.875,36.133,15.137,36.621,3.418,0
1508657919.115,40.039,31.738,24.902,28.320,4.883,0
1508657919.119,43.945,33.691,30.762,33.691,20.508,0
1508657919.123,52.246,39.551,30.762,41.992,41.992,0
1508657919.127,48.828,37.109,26.855,39.551,40.527,0
1508657919.130,48.828,36.133,30.273,39.551,30.273,0
1508657919.134,50.293,42.969,31.738,45.898,17.090,0
1508657919.138,49.805,42.480,28.320,50.293,36.621,0
1508657919.142,48.828,36.621,22.949,50.781,47.363,0
1508657919.146,48.828,34.180,7.324,42.969,35.645,0
1508657919.150,54.688,34.668,6.348,48.828,32.715,0
1508657919.154,49.805,30.762,10.254,45.410,21.484,0
1508657919.158,43.457,27.344,12.695,31.250,24.414,0
1508657919.162,44.434,26.367,22.949,36.621,34.180,0
1508657919.166,39.551,18.555,20.996,35.645,14.648,0
1508657919.170,38.574,13.672,10.742,35.156,-11.230,0
1508657919.173,33.691,8.301,-0.977,33.691,9.766,0
1508657919.177,26.367,4.883,-3.906,31.250,30.273,0
1508657919.181,26.855,7.812,2.930,31.738,25.879,0
1508657919.185,32.715,12.207,-4.395,33.203,29.297,0
1508657919.189,36.621,14.160,4.883,38.086,42.480,0
1508657919.193,35.645,15.625,15.625,31.250,40.527,0
1508657919.197,39.551,19.531,15.137,31.738,27.344,0
1508657919.201,42.480,23.438,12.207,35.645,30.273,0
1508657919.205,43.457,23.438,6.348,40.039,19.043,0
1508657919.209,43.457,22.949,12.207,45.410,11.230,0
1508657919.212,36.133,16.602,11.719,25.879,-20.020,0
1508657919.216,32.227,15.137,9.277,13.672,3.418,0
1508657919.220,39.062,21.484,10.742,24.414,20.996,0
1508657919.224,36.621,19.043,1.465,29.297,-20.508,0
1508657919.228,30.273,15.625,-6.348,24.902,-5.371,0
1508657919.232,30.273,16.602,4.883,23.438,33.203,0
1508657919.236,31.738,21.484,25.391,30.762,48.828,0
1508657919.240,37.598,29.297,37.109,37.598,34.180,0
1508657919.244,41.016,34.180,31.250,40.527,28.809,0
1508657919.248,44.922,33.691,20.508,40.039,34.180,0
1508657919.252,44.922,29.297,25.879,34.668,30.273,0
1508657919.255,42.480,36.621,40.039,41.504,12.695,0
1508657919.259,49.316,45.898,35.156,50.293,-1.953,0
1508657919.263,52.734,43.457,33.691,51.270,39.062,0
1508657919.267,43.457,37.598,38.574,42.969,62.988,0
1508657919.271,37.109,36.621,38.086,41.016,32.715,0
1508657919.275,37.598,38.574,39.551,44.434,27.832,0
1508657919.279,39.062,39.062,26.367,41.992,45.898,0
1508657919.283,35.645,38.574,14.648,38.086,40.039,0
1508657919.287,35.645,41.016,33.203,37.598,24.414,0
1508657919.291,41.504,44.434,52.734,45.898,18.555,0
1508657919.295,42.969,46.875,54.688,49.805,16.113,0
1508657919.298,41.016,41.016,44.922,49.805,25.879,0
1508657919.302,34.668,33.691,35.645,49.316,20.508,0
1508657919.306,33.691,35.645,38.574,47.852,39.551,0
1508657919.310,34.180,33.691,34.180,45.410,57.129,0
1508657919.314,33.691,26.855,27.832,42.969,18.066,0
1508657919.318,34.668,21.484,31.250,42.969,35.645,0
1508657919.322,39.551,26.855,44.434,51.758,64.941,0
1508657919.326,45.410,35.156,53.223,54.199,41.016,0
1508657919.330,46.387,37.109,46.387,44.434,10.742,0
1508657919.334,45.410,35.645,40.527,47.852,9.277,0
1508657919.337,44.434,35.645,38.574,52.734,12.207,0
1508657919.341,48.828,38.086,40.039,45.898,4.883,0
1508657919.345,52.246,42.480,45.898,47.852,-12.695,0
1508657919.349,46.387,39.062,44.434,47.363,-54.688,0
1508657919.353,42.480,34.180,38.574,42.969,-4.395,0
1508657919.357,44.434,39.551,44.922,45.410,35.156,0
1508657919.361,48.340,43.457,48.828,46.875,16.602,0
1508657919.365,55.176,49.316,39.551,54.199,51.270,0
1508657919.369,57.129,51.270,26.855,52.734,74.707,0
1508657919.373,52.734,47.852,26.367,43.945,77.637,0
1508657919.377,52.246,44.434,46.387,41.504,62.988,0
1508657919.380,51.758,39.551,54.199,41.504,26.855,0
1508657919.384,52.734,37.109,50.781,39.551,26.855,0
1508657919.388,58.105,41.504,50.293,41.504,20.996,0
1508657919.392,61.523,50.293,50.293,46.875,-17.090,0
1508657919.396,57.617,48.828,50.293,44.434,-3.906,0
1508657919.400,57.617,47.852,52.734,42.969,22.949,0
1508657919.404,58.594,46.387,45.410,42.969,-8.301,0
1508657919.408,50.781,39.062,41.504,40.527,-9.766,0
1508657919.412,50.781,36.133,41.992,38.086,26.367,0
1508657919.416,53.711,35.645,35.645,37.598,27.832,0
1508657919.420,52.246,36.621,30.273,41.016,25.391,0
1508657919.423,53.223,34.180,21.973,41.016,15.137,0
1508657919.427,56.641,38.086,24.902,47.363,4.883,0
1508657919.431,54.199,43.457,34.180,52.246,11.230,0
1508657919.435,42.969,33.691,32.715,48.340,-9.766,0
1508657919.439,40.527,32.227,31.738,46.875,-5.371,0
1508657919.443,42.480,34.180,31.738,38.574,37.598,0
1508657919.447,36.621,28.320,25.391,35.156,54.199,0
1508657919.451,37.598,26.855,27.832,42.480,14.648,0
1508657919.455,41.504,29.297,26.855,41.016,-25.879,0
1508657919.459,41.016,30.762,23.926,37.598,27.832,0
1508657919.462,40.527,31.250,24.902,41.992,35.645,0
1508657919.466,38.086,27.344,18.555,36.621,-1.953,0
1508657919.470,29.297,18.066,16.113,26.367,14.648,0
1508657919.474,26.855,14.648,12.207,33.203,13.184,0
1508657919.478,27.832,16.113,0.000,38.574,22.949,0
1508657919.482,21.484,10.742,-13.672,26.367,12.695,0
1508657919.486,23.438,11.719,-17.090,24.902,-3.906,0
1508657919.490,26.855,14.648,16.113,31.250,20.508,0
1508657919.494,27.344,14.648,40.527,30.273,24.414,0
1508657919.498,24.902,13.184,22.949,25.391,22.949,0
1508657919.502,24.902,12.695,20.508,25.391,5.371,0
1508657919.505,30.762,17.090,29.785,33.691,16.602,0
1508657919.509,35.156,23.926,37.109,49.316,19.531,0
1508657919.513,28.809,20.508,32.227,34.180,3.906,0
1508657919.517,19.531,8.789,11.719,12.207,43.945,0
1508657919.521,17.578,5.371,5.859,16.113,62.012,0
1508657919.525,26.367,16.602,11.719,25.391,28.320,0
1508657919.529,32.227,22.461,18.066,29.297,-6.348,0
1508657919.533,31.250,22.461,34.668,33.203,35.645,0
1508657919.537,30.273,20.020,41.016,37.598,76.660,0
1508657919.541,30.273,17.578,34.668,39.062,31.250,0
1508657919.545,31.738,20.020,28.809,50.293,31.250,0
1508657919.548,32.227,21.484,23.438,59.570,43.945,0
1508657919.552,35.156,20.020,27.832,65.918,28.809,0
1508657919.556,34.180,16.113,34.668,69.824,38.086,0
1508657919.560,31.250,16.602,36.621,60.059,33.203,0
1508657919.564,32.715,18.555,39.551,53.711,30.273,0
1508657919.568,42.969,27.344,50.293,64.453,49.805,0
1508657919.572,47.363,30.762,57.129,64.941,16.113,0
1508657919.576,35.645,19.531,44.922,52.734,18.066,0
1508657919.580,29.297,16.113,32.715,49.805,53.711,0
1508657919.584,21.484,15.137,30.762,50.293,35.645,0
1508657919.587,11.230,10.254,25.391,39.551,18.555,0
1508657919.591,1.465,5.371,30.273,24.902,18.555,0
1508657919.595,-4.395,0.977,34.180,18.555,52.246,0
1508657919.599,-4.395,-2.930,21.484,15.625,38.574,0
1508657919.603,-2.930,-0.488,33.691,23.438,39.551,0
1508657919.607,1.465,5.371,58.594,27.344,52.734,0
1508657919.611,6.348,12.695,62.500,26.855,38.574,0
1508657919.615,9.766,15.625,57.617,38.086,38.574,0
1508657919.619,8.301,11.230,62.500,33.203,13.672,0
1508657919.623,9.277,12.207,57.617,32.227,24.902,0
1508657919.627,11.719,18.066,48.340,41.016,5.859,0
1508657919.630,6.348,13.184,47.363,33.691,-31.250,0
1508657919.634,3.418,3.906,41.016,15.137,1.465,0
1508657919.638,0.488,0.488,47.852,10.742,20.508,0
1508657919.642,1.953,6.836,46.875,24.414,18.066,0
1508657919.646,8.301,12.207,44.922,29.785,-16.602,0
1508657919.650,5.859,3.418,40.039,25.879,-22.461,0
1508657919.654,0.488,-3.418,32.227,14.648,36.621,0
1508657919.658,-1.953,-2.441,39.551,9.766,47.363,0
1508657919.662,-7.324,-9.766,35.645,6.348,-10.254,0
1508657919.666,-11.719,-20.996,21.484,-5.859,-9.766,0
1508657919.670,-14.160,-23.926,2.441,-13.672,36.133,0
1508657919.673,-12.207,-17.578,3.418,-9.277,41.016,0
1508657919.677,-6.836,-13.184,9.277,-1.465,31.250,0
1508657919.681,-2.441,-11.230,4.883,0.488,12.695,0
1508657919.685,-3.906,-8.789,26.855,-0.977,9.766,0
1508657919.689,8.301,0.977,45.898,18.555,6.836,0
1508657919.693,28.320,12.207,39.551,29.297,-14.648,0
1508657919.697,30.273,16.113,26.367,25.879,0.977,0
1508657919.701,36.621,25.879,39.551,38.086,41.504,0
1508657919.705,43.457,32.715,62.012,47.363,45.898,0
1508657919.709,40.527,28.809,51.758,50.781,39.551,0
1508657919.712,36.621,27.344,40.527,45.410,54.688,0
1508657919.716,31.738,20.508,35.156,29.785,39.062,0
1508657919.720,33.203,16.113,18.555,34.180,31.738,0
1508657919.724,31.738,15.625,10.254,41.992,0.977,0
1508657919.728,22.949,11.230,18.555,33.691,15.625,0
1508657919.732,19.531,6.348,12.695,20.996,75.684,0
1508657919.736,23.926,11.719,17.090,25.391,48.828,0
1508657919.740,29.297,21.484,26.367,33.691,5.371,0
1508657919.744,34.668,22.949,32.227,35.156,28.809,0
1508657919.748,34.668,22.949,47.852,41.504,38.086,0
1508657919.752,24.414,20.508,47.852,38.086,10.254,0
1508657919.755,17.578,10.254,29.297,27.832,16.602,0
1508657919.759,13.672,2.441,17.090,20.996,46.387,0
1508657919.763,13.672,4.395,12.695,26.855,11.719,0
1508657919.767,16.113,3.906,12.207,24.902,-6.836,0
1508657919.771,9.766,-0.488,8.301,14.648,37.109,0
1508657919.775,12.207,5.371,8.789,18.066,69.824,0
1508657919.779,16.113,9.766,22.461,19.043,41.016,0
1508657919.783,22.461,12.695,26.855,26.367,12.207,0
1508657919.787,28.320,14.160,20.508,29.297,45.898,0
1508657919.791,23.438,6.836,24.414,29.785,44.922,0
1508657919.795,24.902,3.906,29.785,32.715,20.508,0
1508657919.798,21.484,0.000,17.578,22.949,5.371,0
1508657919.802,18.555,-4.883,14.160,15.137,16.113,0
1508657919.806,18.066,-7.812,21.973,12.207,17.090,0
1508657919.810,15.625,-7.324,12.695,9.766,-5.371,0
1508657919.814,15.625,-7.324,7.812,6.836,-9.277,0
1508657919.818,16.602,-7.812,14.648,3.906,18.555,0
1508657919.822,24.414,-1.465,13.672,12.695,48.340,0
1508657919.826,27.832,1.465,13.672,18.555,13.672,0
1508657919.830,27.344,1.953,29.785,16.602,-1.465,0
1508657919.834,37.109,8.301,37.598,25.391,24.414,0
1508657919.837,48.828,18.555,29.785,39.062,29.785,0
1508657919.841,51.270,23.438,31.738,39.551,17.578,0
1508657919.845,42.969,14.648,42.969,35.645,10.254,0
1508657919.849,46.387,14.160,52.246,35.156,15.137,0
1508657919.853,54.688,18.066,47.363,35.156,0.000,0
1508657919.857,50.293,11.719,34.180,28.809,-35.645,0
1508657919.861,50.781,11.719,34.668,28.809,-17.090,0
1508657919.865,56.641,22.461,42.969,34.180,33.691,0
1508657919.869,62.988,30.762,51.270,40.039,34.668,0
1508657919.873,54.199,15.625,39.062,34.180,9.766,0
1508657919.877,40.527,1.953,25.879,19.043,12.695,0
1508657919.880,37.109,6.348,24.414,12.695,22.949,0
1508657919.884,29.785,3.906,18.066,4.883,10.742,0
1508657919.888,31.738,2.930,26.855,8.301,-9.277,0
1508657919.892,31.250,4.883,35.156,13.672,21.973,0
1508657919.896,31.738,10.742,32.227,13.184,37.598,0
1508657919.900,32.227,9.766,39.062,13.184,15.137,0
1508657919.904,21.484,1.953,45.410,4.395,19.531,0
1508657919.908,15.625,-1.465,31.250,-8.789,32.227,0
1508657919.912,10.742,-5.371,22.949,-16.113,43.945,0
1508657919.916,3.906,-9.766,17.578,-16.602,19.043,0
1508657919.920,2.441,-10.254,10.742,-15.137,-6.348,0
1508657919.923,11.230,0.000,23.438,0.488,30.273,0
1508657919.927,21.484,10.254,33.691,16.602,53.223,0
1508657919.931,20.996,9.766,30.273,19.531,48.828,0
1508657919.935,20.508,7.812,26.367,21.484,40.527,0
1508657919.939,25.391,12.695,26.855,25.391,43.945,0
1508657919.943,27.832,14.160,30.762,30.762,59.570,0
1508657919.947,22.949,10.742,44.434,22.949,33.203,0
1508657919.951,14.648,3.906,38.574,19.043,46.387,0
1508657919.955,11.230,-3.418,24.902,23.438,43.945,0
1508657919.959,19.531,3.418,23.438,34.668,14.648,0
1508657919.962,32.715,15.137,36.133,44.922,22.949,0
1508657919.966,28.809,13.184,43.457,40.039,20.508,0
1508657919.970,30.273,11.719,35.156,43.457,16.602,0
1508657919.974,37.598,14.648,31.738,48.828,20.996,0
1508657919.978,32.227,10.742,28.320,40.527,23.438,0
1508657919.982,31.250,13.184,40.527,36.621,36.621,0
1508657919.986,34.668,20.996,49.805,42.480,47.852,0
1508657919.990,26.855,18.066,35.156,42.969,57.129,0
1508657919.994,20.020,10.742,20.020,34.180,36.133,0
1508657919.998,28.320,14.160,26.367,40.039,11.719,0
1508657920.002,29.785,15.137,33.203,43.457,14.160,0
1508657920.005,33.203,17.090,40.039,46.875,17.090,0
1508657920.009,42.480,25.879,46.387,55.176,23.438,0
1508657920.013,46.387,30.273,44.434,48.828,33.691,0
1508657920.017,50.293,31.738,42.480,44.922,63.965,0
1508657920.021,51.270,33.691,32.715,48.828,62.988,0
1508657920.025,46.387,30.762,45.410,44.922,28.809,0
1508657920.029,33.203,20.508,49.316,40.039,32.715,0
1508657920.033,22.461,8.301,17.090,25.879,36.133,0
1508657920.037,18.066,2.930,5.859,3.906,12.207,0
1508657920.041,17.090,-1.465,7.812,3.418,11.719,0
1508657920.045,16.602,-4.883,-6.836,8.789,12.207,0
1508657920.048,17.578,-2.930,-9.277,7.324,39.062,0
1508657920.052,19.531,1.953,11.230,10.742,27.832,0
1508657920.056,19.531,7.324,3.418,11.719,27.832,0
1508657920.060,20.508,7.324,-4.395,10.254,77.148,0
1508657920.064,24.414,2.930,19.043,8.301,56.152,0
1508657920.068,18.066,-5.371,16.602,-1.465,48.828,0
1508657920.072,13.672,-4.883,8.301,-3.906,54.688,0
1508657920.076,23.438,7.812,20.508,12.207,62.988,0
1508657920.080,31.738,20.996,33.691,31.738,67.871,0
1508657920.084,35.156,28.320,37.109,30.762,42.480,0
1508657920.087,34.180,25.391,34.668,20.508,56.641,0
1508657920.091,31.738,23.438,41.504,20.508,64.453,0
1508657920.095,25.879,18.066,29.785,13.184,52.246,0
1508657920.099,19.043,13.184,18.555,3.906,18.555,0
1508657920.103,26.855,21.484,19.043,11.719,6.348,0
1508657920.107,28.320,21.973,16.113,15.625,41.504,0
1508657920.111,21.973,18.066,23.438,16.602,0.977,0
1508657920.115,24.902,16.602,21.484,17.578,-33.691,0
1508657920.119,22.461,11.719,28.809,5.859,35.156,0
1508657920.123,20.996,14.160,36.133,4.395,36.133,0
1508657920.127,19.531,9.766,22.949,3.418,26.855,0
1508657920.130,15.625,2.930,10.742,-1.953,44.434,0
1508657920.134,17.090,6.836,13.672,-5.859,63.965,0
1508657920.138,23.926,11.230,23.438,0.000,67.871,0
1508657920.142,25.879,13.184,20.508,7.324,13.184,0
1508657920.146,33.691,25.879,30.762,13.184,12.207,0
1508657920.150,49.316,41.504,45.898,30.762,54.688,0
1508657920.154,43.457,35.645,35.156,32.227,27.344,0
1508657920.158,36.621,27.832,30.273,23.926,24.902,0
1508657920.162,33.203,26.367,24.414,18.555,42.480,0
1508657920.166,35.645,27.832,25.391,19.043,26.367,0
1508657920.170,49.316,36.133,42.969,24.414,7.324,0
1508657920.173,58.594,43.945,57.129,33.691,27.832,0
1508657920.177,61.523,46.875,60.547,45.410,24.414,0
1508657920.181,57.129,44.434,53.223,45.410,35.645,0
1508657920.185,61.523,45.898,43.457,46.875,31.250,0
1508657920.189,59.082,41.992,30.762,46.875,1.953,0
1508657920.193,43.945,27.832,16.602,28.320,26.855,0
1508657920.197,50.293,29.297,20.996,29.785,44.922,0
1508657920.201,61.035,35.645,29.297,41.504,22.949,0
1508657920.205,62.988,35.645,31.738,39.551,16.602,0
1508657920.209,66.406,40.527,30.762,47.363,29.785,0
1508657920.212,63.965,41.016,23.926,44.434,28.809,0
1508657920.216,68.359,41.992,20.020,40.039,16.113,0
1508657920.220,73.242,45.410,32.227,45.898,22.949,0
1508657920.224,74.219,43.945,46.875,46.875,41.504,0
1508657920.228,82.520,48.340,39.551,62.500,38.574,0
1508657920.232,84.961,48.828,35.156,66.895,19.043,0
1508657920.236,73.242,31.250,32.715,50.781,34.668,0
1508657920.240,69.336,27.832,26.367,43.945,74.219,0
1508657920.244,68.359,32.227,25.391,36.133,65.918,0
1508657920.248,62.500,24.902,19.043,33.203,36.133,0
1508657920.252,61.523,18.066,12.207,29.785,44.922,0
1508657920.255,66.406,22.949,14.160,36.621,58.594,0
1508657920.259,71.289,26.855,16.113,49.805,40.039,0
1508657920.263,76.660,30.762,11.719,54.688,48.828,0
1508657920.267,76.660,31.738,7.324,53.711,47.363,0
1508657920.271,69.824,27.344,-6.348,40.527,50.781,0
1508657920.275,68.848,31.250,-5.371,46.387,20.996,0
1508657920.279,62.988,27.344,-5.371,45.898,-10.254,0
1508657920.283,54.688,16.113,0.000,36.621,20.020,0
1508657920.287,51.270,14.648,12.207,32.715,47.363,0
1508657920.291,48.340,15.137,0.977,28.320,30.762,0
1508657920.295,40.039,10.254,-19.043,26.855,35.645,0
1508657920.298,38.086,7.812,-14.648,29.297,45.898,0
1508657920.302,45.410,15.137,7.324,38.086,22.461,0
1508657920.306,53.711,23.438,15.625,36.133,23.438,0
1508657920.310,54.688,26.367,9.277,35.156,29.297,0
1508657920.314,52.734,23.438,0.488,36.621,14.160,0
1508657920.318,60.547,29.297,4.395,45.898,11.230,0
1508657920.322,64.453,37.109,18.066,59.570,21.973,0
1508657920.326,55.664,30.273,19.043,54.688,30.762,0
1508657920.330,45.410,19.531,6.836,41.992,33.691,0
1508657920.334,41.016,17.578,3.418,45.410,20.020,0
1508657920.337,32.227,11.719,-0.977,35.645,-12.695,0
1508657920.341,16.113,2.930,-3.418,14.160,-1.953,0
1508657920.345,20.020,5.371,2.441,24.902,55.664,0
1508657920.349,34.180,12.695,5.371,38.574,25.391,0
1508657920.353,39.551,19.043,24.414,45.410,8.789,0
1508657920.357,41.504,21.484,30.273,49.805,53.711,0
1508657920.361,41.016,26.367,26.855,52.734,60.059,0
1508657920.365,33.203,23.926,26.367,50.781,17.090,0
1508657920.369,31.250,21.484,22.461,45.898,13.184,0
1508657920.373,36.621,26.367,14.160,42.480,17.578,0
1508657920.377,36.621,26.367,13.184,38.574,39.062,0
1508657920.380,36.621,24.414,29.297,40.039,48.340,0
1508657920.384,34.668,22.461,22.461,38.086,9.766,0
1508657920.388,28.320,16.602,10.742,33.691,8.301,0
1508657920.392,26.367,13.672,20.508,36.133,19.531,0
1508657920.396,29.785,11.719,22.461,36.621,33.691,0
1508657920.400,39.062,17.578,28.320,42.969,18.555,0
1508657920.404,47.363,33.691,41.504,51.270,46.387,0
1508657920.408,56.641,47.363,47.852,57.129,75.195,0
1508657920.412,67.383,51.270,50.293,62.012,53.711,0
1508657920.416,70.312,51.270,53.223,66.895,27.832,0
1508657920.420,65.918,51.270,51.758,67.871,31.738,0
1508657920.423,65.430,47.852,42.480,64.453,54.688,0
1508657920.427,61.523,40.527,30.762,59.082,21.484,0
1508657920.431,54.688,37.109,23.438,55.664,5.371,0
1508657920.435,61.035,41.016,32.227,51.270,41.504,0
1508657920.439,64.453,41.016,33.203,56.152,57.617,0
1508657920.443,64.453,36.621,25.391,63.965,40.039,0
1508657920.447,62.012,34.668,28.320,62.012,36.621,0
1508657920.451,57.129,28.320,24.902,52.246,31.738,0
1508657920.455,53.223,21.973,9.277,46.875,15.137,0
1508657920.459,44.922,19.531,18.066,39.062,16.113,0
1508657920.462,41.016,17.578,26.367,36.133,51.270,0
1508657920.466,38.086,11.230,16.602,36.133,45.898,0
1508657920.470,27.832,-0.977,1.465,35.156,21.973,0
1508657920.474,18.066,-8.789,-11.719,28.809,41.504,0
1508657920.478,21.484,-4.395,-0.488,28.809,63.477,0
1508657920.482,37.598,8.789,16.602,45.410,81.055,0
1508657920.486,44.434,16.113,16.602,50.781,51.758,0
1508657920.490,35.156,9.766,7.812,47.363,22.949,0
1508657920.494,26.367,-0.977,18.555,41.992,49.316,0
1508657920.498,35.645,2.930,33.691,47.363,67.383,0
1508657920.502,43.457,17.090,22.461,58.594,77.637,0
1508657920.505,43.945,25.879,24.902,63.477,47.852,0
1508657920.509,41.016,23.438,41.992,64.453,34.668,0
1508657920.513,32.715,17.090,40.039,53.223,47.363,0
1508657920.517,22.461,7.812,29.785,48.828,23.926,0
1508657920.521,18.066,-2.441,17.578,43.945,36.621,0
1508657920.525,25.391,4.395,20.996,41.504,49.805,0
1508657920.529,31.738,12.207,28.320,44.922,36.621,0
1508657920.533,31.250,11.719,20.508,41.016,51.270,0
1508657920.537,25.391,9.277,22.949,41.504,73.730,0
1508657920.541,32.715,21.484,41.992,56.152,64.941,0
1508657920.545,37.598,31.738,44.434,61.035,47.363,0
1508657920.548,25.879,23.438,24.414,56.152,49.316,0
1508657920.552,14.648,12.207,15.137,52.246,30.762,0
1508657920.556,12.207,6.836,20.996,49.316,11.230,0
1508657920.560,20.508,17.090,31.250,52.734,-0.488,0
1508657920.564,21.484,22.461,32.715,56.641,-0.977,0
1508657920.568,13.672,12.207,16.602,50.781,-3.418,0
1508657920.572,12.207,6.836,9.766,41.016,20.508,0
1508657920.576,11.719,9.766,9.277,40.039,8.301,0
1508657920.580,15.625,10.254,8.301,41.504,-17.578,0
1508657920.584,25.879,15.137,14.648,47.363,35.156,0
1508657920.587,36.621,29.297,26.855,59.082,61.523,0
1508657920.591,48.828,43.457,41.016,71.777,36.133,0
1508657920.595,52.734,48.828,43.945,78.125,2.930,0
1508657920.599,53.711,49.805,34.180,78.125,10.742,0
1508657920.603,57.617,51.758,22.949,84.961,19.531,0
1508657920.607,55.664,48.340,24.414,85.938,0.488,0
1508657920.611,54.199,39.551,41.016,73.730,-7.812,0
1508657920.615,51.758,33.203,46.387,62.500,9.277,0
1508657920.619,53.711,36.621,46.875,65.918,39.551,0
1508657920.623,49.316,37.598,49.805,64.941,23.926,0
1508657920.627,42.969,29.785,33.691,53.711,28.809,0
1508657920.630,46.387,29.297,28.809,56.641,68.359,0
1508657920.634,58.105,39.062,46.875,66.406,57.617,0
1508657920.638,67.383,41.504,51.270,65.918,30.762,0
1508657920.642,63.965,40.039,43.945,63.965,37.598,0
1508657920.646,62.012,39.062,40.527,63.965,42.480,0
1508657920.650,65.430,39.062,28.320,65.430,32.227,0
1508657920.654,67.871,39.062,26.855,66.406,10.254,0
1508657920.658,70.312,42.969,42.969,69.336,40.527,0
1508657920.662,78.125,51.758,53.711,82.520,67.871,0
1508657920.666,81.055,52.246,50.781,82.031,50.781,0
1508657920.670,81.055,49.805,42.480,77.637,81.055,0
1508657920.673,81.055,50.293,50.293,79.590,89.844,0
1508657920.677,85.449,48.828,59.570,73.730,80.566,0
1508657920.681,85.938,47.852,55.176,62.012,76.172,0
1508657920.685,82.520,49.805,53.711,64.453,35.156,0
1508657920.689,73.242,41.504,51.758,61.523,27.832,0
1508657920.693,67.871,34.668,48.828,62.500,49.316,0
1508657920.697,60.547,37.598,41.992,62.988,15.625,0
1508657920.701,46.875,32.715,0.488,49.805,15.137,0
1508657920.705,45.898,29.297,-1.465,50.293,45.898,0
1508657920.709,53.711,33.203,44.922,55.664,60.059,0
1508657920.712,58.105,40.039,61.523,57.617,52.246,0
1508657920.716,42.969,33.691,49.805,48.340,43.945,0
1508657920.720,29.297,20.020,32.227,42.969,59.082,0
1508657920.724,23.926,11.719,14.160,36.621,32.715,0
1508657920.728,17.578,2.930,-3.418,25.879,21.973,0
1508657920.732,15.625,-1.953,-7.812,27.832,59.570,0
1508657920.736,25.391,5.859,-3.418,37.109,51.270,0
1508657920.740,27.344,4.395,-16.113,44.434,36.621,0
1508657920.744,17.090,-9.766,-13.184,40.039,24.902,0
1508657920.748,20.508,-4.395,9.277,40.039,20.508,0
1508657920.752,30.762,5.859,16.113,48.340,16.602,0
1508657920.755,36.133,12.207,23.438,56.641,1.465,0
1508657920.759,38.574,15.625,13.672,52.246,5.859,0
1508657920.763,36.621,10.742,7.812,45.898,49.805,0
1508657920.767,35.645,8.301,29.297,50.781,65.918,0
1508657920.771,37.598,7.324,40.039,56.641,26.855,0
1508657920.775,33.691,3.906,35.156,57.617,52.734,0
1508657920.779,30.273,-1.465,28.809,51.758,75.195,0
1508657920.783,33.203,-1.953,29.785,49.805,40.527,0
1508657920.787,39.551,6.836,21.484,54.199,12.207,0
1508657920.791,48.340,14.648,23.926,62.012,23.438,0
1508657920.795,53.223,18.555,41.504,67.383,27.344,0
1508657920.798,53.223,23.438,42.480,62.500,21.973,0
1508657920.802,60.059,28.320,52.246,67.871,15.625,0
1508657920.806,61.523,29.785,51.758,67.871,7.324,0
1508657920.810,49.316,23.926,25.879,48.828,35.645,0
1508657920.814,49.805,24.902,25.391,56.152,23.438,0
1508657920.818,57.129,31.250,54.688,70.801,7.324,0
1508657920.822,50.781,24.414,59.082,64.453,31.250,0
1508657920.826,38.574,16.602,44.922,51.270,52.246,0
1508657920.830,36.621,16.602,43.457,44.922,38.574,0
1508657920.834,47.852,23.438,46.387,51.758,23.438,0
1508657920.837,53.223,28.320,43.945,50.293,37.109,0
1508657920.841,42.969,22.949,44.434,50.293,42.480,0
1508657920.845,42.480,26.367,49.316,61.523,23.438,0
1508657920.849,53.223,38.086,48.828,70.801,16.602,0
1508657920.853,60.547,44.434,48.340,77.148,40.039,0
1508657920.857,67.871,47.852,52.734,85.449,54.688,0
1508657920.861,65.918,47.363,44.434,71.289,32.715,0
1508657920.865,60.059,43.945,41.016,55.664,5.859,0
1508657920.869,62.500,43.457,57.617,65.918,32.715,0
1508657920.873,60.059,41.992,54.199,66.406,36.621,0
1508657920.877,46.875,34.180,41.016,57.617,4.395,0
1508657920.880,45.898,34.180,46.875,57.617,28.809,0
1508657920.884,56.641,39.062,49.805,58.105,51.270,0
1508657920.888,60.547,43.945,42.969,67.383,50.293,0
1508657920.892,56.641,45.410,41.992,65.430,32.227,0
1508657920.896,51.758,35.645,47.852,49.316,15.137,0
1508657920.900,60.059,41.992,55.664,56.641,35.645,0
1508657920.904,62.988,49.805,54.688,65.918,30.762,0
1508657920.908,55.664,41.016,39.551,57.617,37.598,0
1508657920.912,48.828,32.715,22.949,45.898,60.059,0
1508657920.916,47.852,34.668,30.762,46.875,64.453,0
1508657920.920,47.852,35.645,36.133,47.363,36.621,0
1508657920.923,40.039,26.855,30.273,41.016,18.555,0
1508657920.927,38.574,24.902,37.598,38.086,40.527,0
1508657920.931,45.898,30.273,34.668,41.992,33.203,0
1508657920.935,41.992,27.832,19.531,32.227,18.066,0
1508657920.939,34.180,20.508,19.531,23.926,25.391,0
1508657920.943,27.344,14.648,27.344,34.668,28.320,0
1508657920.947,25.391,16.602,24.902,28.320,28.320,0
1508657920.951,31.250,20.996,22.949,13.672,14.160,0
1508657920.955,38.574,20.996,30.762,17.090,4.883,0
1508657920.959,35.156,14.648,30.762,19.043,42.480,0
1508657920.962,32.715,11.230,27.832,15.137,60.059,0
1508657920.966,36.621,15.625,28.320,15.137,29.297,0
1508657920.970,38.574,19.531,21.484,20.996,36.133,0
1508657920.974,38.574,20.508,20.020,27.344,60.547,0
1508657920.978,44.922,25.879,34.180,34.668,20.996,0
1508657920.982,51.758,26.855,28.320,38.086,-24.902,0
1508657920.986,50.781,21.484,28.320,33.691,4.395,0
1508657920.990,65.918,30.273,48.340,36.133,54.199,0
1508657920.994,82.031,41.504,59.570,48.828,41.016,0
1508657920.998,81.543,42.480,69.824,54.688,34.668,0
1508657921.002,80.078,41.992,70.312,53.223,50.781,0
1508657921.005,79.102,41.504,59.570,56.641,34.668,0
1508657921.009,74.219,37.598,39.062,54.199,30.762,0
1508657921.013,75.684,38.086,39.062,47.852,55.664,0
1508657921.017,74.219,35.156,45.898,48.340,62.988,0
1508657921.021,77.637,36.621,48.340,59.082,64.453,0
1508657921.025,89.844,49.805,54.199,67.383,24.902,0
1508657921.029,83.008,49.805,50.293,69.336,19.531,0
1508657921.033,77.637,45.898,44.922,74.219,43.457,0
1508657921.037,77.637,41.992,50.781,70.312,50.293,0
1508657921.041,73.242,37.598,54.688,71.777,21.973,0
1508657921.045,66.406,30.273,39.062,66.895,10.254,0
1508657921.048,69.336,32.715,39.551,67.871,53.223,0
1508657921.052,75.195,42.480,51.758,75.195,43.457,0
1508657921.056,71.289,39.551,46.875,71.777,8.789,0
1508657921.060,60.059,28.320,34.668,62.500,13.672,0
1508657921.064,55.176,24.902,28.320,56.641,23.926,0
1508657921.068,58.105,28.809,27.344,60.059,19.531,0
1508657921.072,55.664,29.297,26.855,63.477,31.250,0
1508657921.076,62.500,34.180,28.320,64.453,12.695,0
1508657921.080,67.383,37.598,26.855,65.430,7.324,0
1508657921.084,65.918,38.086,30.762,58.105,29.785,0
1508657921.087,64.453,37.109,36.133,52.734,-5.371,0
1508657921.091,56.641,28.320,42.969,56.641,5.371,0
1508657921.095,60.059,33.203,42.480,59.082,42.480,0
1508657921.099,57.617,34.668,33.691,52.246,5.859,0
1508657921.103,46.875,23.926,29.785,43.945,1.953,0
1508657921.107,44.922,21.484,23.926,44.434,35.645,0
1508657921.111,42.969,20.996,30.762,43.945,39.062,0
1508657921.115,41.504,21.973,36.621,40.039,22.461,0
1508657921.119,43.945,27.344,34.668,48.340,5.859,0
1508657921.123,35.645,21.484,27.832,49.316,22.461,0
1508657921.127,25.391,15.625,18.555,27.832,25.879,0
1508657921.130,30.273,18.066,19.043,24.414,-7.812,0
1508657921.134,27.832,16.113,19.043,23.926,-16.602,0
1508657921.138,21.484,10.254,10.254,18.555,21.484,0
1508657921.142,29.297,14.160,15.137,34.668,53.711,0
1508657921.146,40.039,21.484,25.391,45.898,25.879,0
1508657921.150,38.574,17.090,20.020,41.992,14.648,0
1508657921.154,30.762,13.184,18.066,41.504,37.598,0
1508657921.158,33.203,23.438,23.926,45.410,26.367,0
1508657921.162,32.715,24.902,20.020,41.504,4.395,0
1508657921.166,27.832,18.555,24.414,36.133,0.977,0
1508657921.170,35.645,22.949,28.320,39.062,4.883,0
1508657921.173,37.598,26.367,22.949,40.527,22.949,0
1508657921.177,30.273,20.020,25.879,29.297,-8.301,0
1508657921.181,26.367,15.625,26.367,15.625,-7.812,0
1508657921.185,32.715,23.926,28.809,20.996,41.504,0
1508657921.189,37.598,31.738,25.391,34.180,30.273,0
1508657921.193,36.133,31.250,20.020,37.598,41.504,0
1508657921.197,34.180,28.809,28.809,38.574,51.270,0
1508657921.201,38.086,27.832,35.156,41.992,33.691,0
1508657921.205,42.480,28.809,37.109,44.434,12.695,0
1508657921.209,41.504,27.832,38.086,39.551,0.977,0
1508657921.212,37.109,22.949,24.414,37.109,12.695,0
1508657921.216,34.668,21.973,18.066,41.504,5.859,0
1508657921.220,40.039,24.902,28.320,45.410,-10.254,0
1508657921.224,37.598,20.020,30.762,40.039,-41.992,0
1508657921.228,31.250,12.695,22.461,31.738,-27.344,0
1508657921.232,36.133,18.555,21.484,41.992,27.832,0
1508657921.236,43.945,26.855,20.996,54.688,2.930,0
1508657921.240,42.480,25.391,26.855,55.664,-17.090,0
1508657921.244,39.062,20.996,39.551,56.152,8.301,0
1508657921.248,41.016,21.484,40.039,56.152,6.836,0
1508657921.252,43.945,22.461,32.715,53.223,19.043,0
1508657921.255,44.434,21.973,30.273,58.105,36.133,0
1508657921.259,42.969,24.414,36.621,60.547,20.508,0
1508657921.263,42.969,27.344,43.457,57.129,-0.977,0
1508657921.267,46.875,31.738,53.711,61.035,-15.137,0
1508657921.271,44.922,26.855,48.340,62.988,-2.441,0
1508657921.275,44.922,24.902,41.016,61.523,19.531,0
1508657921.279,42.969,23.926,41.992,55.176,6.348,0
1508657921.283,41.016,20.508,40.527,53.711,11.230,0
1508657921.287,42.480,21.484,41.504,47.852,19.043,0
1508657921.291,52.246,33.203,45.410,54.199,35.645,0
1508657921.295,63.965,44.922,52.246,68.359,23.926,0
1508657921.298,64.941,46.387,61.523,70.312,-4.395,0
1508657921.302,58.105,42.969,57.129,69.824,41.504,0
1508657921.306,54.199,40.527,49.316,66.895,44.922,0
1508657921.310,57.129,42.969,53.223,58.594,4.883,0
1508657921.314,62.012,46.387,56.152,65.430,-17.090,0
1508657921.318,61.035,44.434,46.387,67.383,32.227,0
1508657921.322,63.477,45.898,45.898,60.547,64.453,0
1508657921.326,62.012,40.527,46.875,61.523,22.461,0
1508657921.330,58.105,37.598,34.668,59.570,29.297,0
1508657921.334,66.406,50.293,46.875,59.082,43.945,0
1508657921.337,73.242,55.664,66.406,61.035,15.625,0
1508657921.341,66.895,54.199,65.430,57.129,-11.719,0
1508657921.345,63.477,51.758,48.828,52.246,16.602,0
1508657921.349,63.965,46.875,36.133,47.852,43.945,0
1508657921.353,53.223,38.086,31.250,36.133,4.883,0
1508657921.357,44.434,34.180,20.996,26.855,-22.461,0
1508657921.361,42.480,26.855,15.137,19.043,-30.762,0
1508657921.365,41.992,20.020,13.184,17.578,-3.418,0
1508657921.369,33.203,15.625,4.395,24.902,5.859,0
1508657921.373,21.973,11.230,-4.395,20.020,15.625,0
1508657921.377,26.367,13.672,0.977,16.602,6.836,0
1508657921.380,34.180,18.555,11.230,20.996,16.113,0
1508657921.384,37.109,20.508,22.461,30.273,27.832,0
1508657921.388,44.434,26.367,25.879,36.621,40.527,0
1508657921.392,51.270,32.227,20.508,42.480,39.062,0
1508657921.396,46.387,27.832,24.902,45.898,29.297,0
1508657921.400,48.828,22.461,30.273,41.016,23.926,0
1508657921.404,47.852,19.531,22.949,41.992,-3.906,0
1508657921.408,41.504,16.113,14.160,40.039,19.043,0
1508657921.412,49.316,21.484,15.137,42.969,41.504,0
1508657921.416,48.340,20.996,22.461,50.293,6.836,0
1508657921.420,33.203,7.812,20.020,44.922,2.441,0
1508657921.423,32.227,5.859,16.602,46.387,55.176,0
1508657921.427,41.504,11.230,17.578,48.340,40.527,0
1508657921.431,51.270,19.531,25.879,53.223,20.508,0
1508657921.435,48.828,23.926,22.949,56.152,32.227,0
1508657921.439,45.898,22.461,19.531,57.617,35.645,0
1508657921.443,50.293,26.367,30.273,54.199,49.805,0
1508657921.447,48.828,27.344,33.691,48.340,40.527,0
1508657921.451,39.551,18.066,23.438,47.852,15.625,0
1508657921.455,34.180,10.254,7.812,48.340,2.930,0
1508657921.459,33.203,7.324,13.184,47.363,21.484,0
1508657921.462,32.227,6.836,26.855,43.945,8.301,0
1508657921.466,34.668,8.301,27.344,43.457,5.371,0
1508657921.470,39.062,11.230,24.902,45.898,48.828,0
1508657921.474,42.969,18.066,27.344,54.199,43.945,0
1508657921.478,41.992,16.602,22.949,57.617,26.855,0
1508657921.482,36.621,8.789,14.160,51.270,44.434,0
1508657921.486,41.992,11.719,15.137,54.199,37.109,0
1508657921.490,46.387,13.672,14.160,51.270,21.973,0
1508657921.494,48.828,15.137,20.508,55.176,28.320,0
1508657921.498,51.270,18.555,33.203,65.918,33.203,0
1508657921.502,50.781,20.996,31.738,60.059,39.551,0
1508657921.505,56.641,28.320,39.062,61.035,19.043,0
1508657921.509,59.082,32.227,49.805,64.453,-16.602,0
1508657921.513,46.875,19.531,31.738,51.758,-11.719,0
1508657921.517,41.504,17.578,21.973,50.293,31.250,0
1508657921.521,45.410,26.367,23.926,56.641,19.531,0
1508657921.525,35.645,16.602,16.602,43.945,-3.906,0
1508657921.529,34.180,12.695,19.531,38.086,33.691,0
1508657921.533,40.039,18.555,22.461,46.875,30.762,0
1508657921.537,32.227,14.648,10.254,40.039,19.043,0
1508657921.541,30.762,14.648,9.766,26.855,29.297,0
1508657921.545,33.691,17.578,13.184,27.832,24.414,0
1508657921.548,34.180,16.602,7.324,29.297,33.203,0
1508657921.552,39.062,17.090,12.207,29.785,9.277,0
1508657921.556,41.504,19.531,19.043,32.715,3.418,0
1508657921.560,44.434,24.414,27.832,40.039,47.363,0
1508657921.564,48.828,28.809,28.320,41.504,59.570,0
1508657921.568,50.293,31.738,25.879,48.340,39.062,0
1508657921.572,50.781,31.738,30.762,46.875,40.039,0
1508657921.576,52.734,32.227,28.809,46.875,55.664,0
1508657921.580,50.781,34.668,29.297,53.223,55.176,0
1508657921.584,37.598,26.855,24.902,46.875,33.691,0
1508657921.587,25.879,20.996,22.461,33.691,37.109,0
1508657921.591,25.879,22.461,31.250,36.621,43.945,0
1508657921.595,31.250,24.414,36.133,54.688,-10.254,0
1508657921.599,29.785,20.996,31.738,57.129,-23.926,0
1508657921.603,29.785,20.020,24.902,51.270,12.207,0
1508657921.607,35.156,26.367,21.484,52.246,55.664,0
1508657921.611,36.621,27.344,26.367,56.641,69.336,0
1508657921.615,36.133,26.367,31.250,66.895,47.852,0
1508657921.619,34.668,24.414,34.668,70.312,63.477,0
1508657921.623,41.016,27.344,43.457,72.266,57.617,0
1508657921.627,38.574,25.391,36.133,69.824,52.734,0
1508657921.630,32.227,18.066,27.344,60.547,50.293,0
1508657921.634,37.109,19.043,29.785,64.453,16.113,0
1508657921.638,35.645,19.043,29.785,67.871,3.906,0
1508657921.642,34.180,19.531,29.785,68.359,-3.418,0
1508657921.646,35.156,17.090,17.090,68.359,19.043,0
1508657921.650,44.434,23.926,19.531,68.848,40.039,0
1508657921.654,54.199,34.668,37.598,72.754,22.461,0
1508657921.658,47.852,29.297,37.109,73.242,20.020,0
1508657921.662,39.551,21.484,28.320,64.941,29.297,0
1508657921.666,42.969,20.508,26.855,66.895,30.273,0
1508657921.670,57.617,28.809,35.156,80.566,32.715,0
1508657921.673,69.824,38.086,44.434,88.379,11.230,0
1508657921.677,73.242,39.551,45.410,91.797,-0.488,0
1508657921.681,77.637,41.992,48.828,93.262,8.789,0
1508657921.685,77.637,42.969,57.617,97.168,0.000,0
1508657921.689,66.895,33.691,49.805,85.938,-24.414,0
1508657921.693,59.570,21.973,38.574,69.336,-10.742,0
1508657921.697,57.617,21.973,37.598,64.453,23.926,0
1508657921.701,56.641,24.902,33.691,66.895,27.832,0
1508657921.705,65.430,34.180,37.598,77.637,7.812,0
1508657921.709,71.289,40.039,50.781,76.660,9.766,0
1508657921.712,65.918,31.250,53.711,69.336,45.410,0
1508657921.716,64.453,31.250,46.387,70.312,39.551,0
1508657921.720,66.406,36.621,36.133,67.383,11.719,0
1508657921.724,63.477,36.621,38.574,70.312,37.598,0
1508657921.728,60.059,39.551,54.199,63.965,25.879,0
1508657921.732,54.688,41.016,46.387,49.316,-11.230,0
1508657921.736,47.852,35.156,25.879,45.410,20.020,0
1508657921.740,47.852,33.203,22.461,40.527,86.914,0
1508657921.744,51.758,37.598,30.762,41.992,77.637,0
1508657921.748,50.781,37.109,34.668,46.387,14.160,0
1508657921.752,47.852,39.062,31.250,38.086,25.879,0
1508657921.755,45.410,39.551,34.668,41.016,57.129,0
1508657921.759,41.992,32.227,31.250,39.551,24.902,0
1508657921.763,30.273,22.461,11.230,26.367,16.602,0
1508657921.767,21.973,14.648,4.395,20.996,44.434,0
1508657921.771,22.461,18.066,11.719,22.461,60.059,0
1508657921.775,20.020,18.555,6.836,17.090,44.434,0
1508657921.779,18.066,14.160,-2.930,11.230,24.902,0
1508657921.783,20.508,15.625,-3.906,20.020,41.504,0
1508657921.787,34.180,26.855,11.719,30.273,70.801,0
1508657921.791,48.340,41.016,24.414,39.551,38.086,0
1508657921.795,41.016,36.621,19.531,40.039,1.953,0
1508657921.798,31.250,26.855,18.555,35.645,40.527,0
1508657921.802,37.109,31.738,24.902,43.457,62.988,0
1508657921.806,49.316,42.480,27.344,57.617,63.477,0
1508657921.810,53.711,42.480,33.691,63.477,51.270,0
1508657921.814,61.035,45.898,46.387,64.941,48.340,0
1508657921.818,67.871,55.176,49.805,72.266,40.527,0
1508657921.822,67.871,53.711,46.875,75.195,37.598,0
1508657921.826,68.359,51.270,43.945,77.637,40.039,0
1508657921.830,57.617,39.062,29.297,68.359,25.391,0
1508657921.834,46.875,26.855,18.555,58.105,39.062,0
1508657921.837,46.875,26.367,16.602,60.059,2.441,0
1508657921.841,45.410,23.438,12.207,55.176,4.395,0
1508657921.845,44.922,21.973,7.324,54.688,72.266,0
1508657921.849,50.293,25.879,11.719,59.570,59.570,0
1508657921.853,55.664,24.414,17.090,64.941,30.762,0
1508657921.857,57.617,14.648,12.695,57.129,37.109,0
1508657921.861,61.035,17.090,13.184,54.199,33.691,0
1508657921.865,62.012,23.438,9.277,60.547,50.781,0
1508657921.869,57.129,23.438,12.207,62.988,36.621,0
1508657921.873,48.340,17.578,15.137,60.059,30.762,0
1508657921.877,44.434,14.160,18.066,58.105,60.059,0
1508657921.880,39.062,14.160,20.020,55.176,33.691,0
1508657921.884,37.598,14.648,13.184,50.781,-7.812,0
1508657921.888,43.457,20.020,13.672,56.152,26.855,0
1508657921.892,46.875,25.879,19.531,57.129,81.055,0
1508657921.896,43.457,22.949,19.531,53.711,38.574,0
1508657921.900,44.922,19.531,20.996,51.758,11.719,0
1508657921.904,39.551,17.090,11.230,41.992,42.969,0
1508657921.908,32.227,14.160,1.953,38.574,42.969,0
1508657921.912,29.297,12.695,8.301,26.367,32.227,0
1508657921.916,28.320,13.184,3.906,22.949,21.484,0
1508657921.920,28.809,14.648,-21.973,36.133,44.922,0
1508657921.923,29.785,20.020,-6.348,38.574,49.316,0
1508657921.927,33.691,23.438,28.809,40.527,-19.531,0
1508657921.931,37.109,22.949,32.227,40.527,-3.418,0
1508657921.935,48.340,31.250,32.227,43.457,57.617,0
1508657921.939,56.641,39.551,31.738,50.781,46.875,0
1508657921.943,57.617,41.504,34.180,53.711,9.766,0
1508657921.947,66.406,46.875,32.227,55.176,10.254,0
1508657921.951,78.613,56.641,34.668,71.777,61.035,0
1508657921.955,78.613,59.082,48.340,83.496,64.453,0
1508657921.959,77.637,57.129,45.898,78.125,30.273,0
1508657921.962,73.242,55.176,41.016,69.824,23.926,0
1508657921.966,66.895,57.129,46.387,71.289,44.922,0
1508657921.970,67.383,61.035,45.410,79.102,27.832,0
1508657921.974,60.547,50.781,31.250,71.777,2.930,0
1508657921.978,46.387,35.156,17.578,60.547,52.734,0
1508657921.982,44.434,37.109,21.973,60.547,60.547,0
1508657921.986,42.480,39.551,27.344,62.012,42.480,0
1508657921.990,47.363,44.434,34.668,63.965,49.805,0
1508657921.994,55.664,50.781,35.645,72.754,45.410,0
1508657921.998,57.129,47.363,34.180,79.590,40.527,0
1508657922.002,54.688,43.457,34.668,68.848,39.062,0
1508657922.005,54.199,41.992,30.273,60.547,27.344,0
1508657922.009,54.199,45.410,37.598,63.965,18.066,0
1508657922.013,58.594,52.734,48.828,68.848,33.691,0
1508657922.017,60.547,50.293,51.270,68.848,15.137,0
1508657922.021,56.152,47.852,47.363,63.477,18.066,0
1508657922.025,60.059,52.246,48.340,67.871,53.223,0
1508657922.029,65.430,53.711,46.387,73.242,26.367,0
1508657922.033,65.430,51.270,38.574,78.125,32.227,0
1508657922.037,61.035,47.363,31.250,71.289,34.180,0
1508657922.041,58.594,45.898,24.902,58.105,23.926,0
1508657922.045,55.176,41.992,26.855,52.734,11.230,0
1508657922.048,43.457,27.344,22.461,40.527,4.395,0
1508657922.052,44.922,25.391,17.090,40.039,32.227,0
1508657922.056,49.316,28.809,23.926,43.945,44.434,0
1508657922.060,47.363,27.344,27.344,40.527,15.137,0
1508657922.064,41.992,20.508,22.949,35.156,-8.301,0
1508657922.068,40.039,16.113,21.973,32.227,12.207,0
1508657922.072,51.270,26.367,26.367,45.410,11.719,0
1508657922.076,51.270,26.367,24.902,49.316,0.977,0
1508657922.080,44.922,18.066,20.508,50.293,16.602,0
1508657922.084,40.527,14.160,26.855,50.293,27.344,0
1508657922.087,48.828,22.949,32.227,54.199,35.156,0
1508657922.091,59.082,32.227,34.180,65.430,31.250,0
1508657922.095,62.012,34.668,43.945,66.406,17.090,0
1508657922.099,65.918,36.133,40.039,69.824,29.297,0
1508657922.103,68.848,39.551,38.574,74.707,22.461,0
1508657922.107,68.848,39.551,38.574,74.707,8.301,0
1508657922.111,55.664,32.715,36.133,70.312,30.762,0
1508657922.115,53.223,35.645,45.410,67.871,43.457,0
1508657922.119,64.453,43.945,52.734,72.266,28.809,0
1508657922.123,68.359,42.969,41.016,63.477,7.812,0
1508657922.127,66.406,40.039,31.250,60.059,42.480,0
1508657922.130,64.453,38.086,41.016,62.988,68.359,0
1508657922.134,66.895,41.992,50.781,66.406,61.035,0
1508657922.138,69.824,43.945,49.805,72.266,61.523,0
1508657922.142,66.895,43.945,50.781,74.219,43.457,0
1508657922.146,69.824,45.898,58.105,80.566,15.137,0
1508657922.150,67.383,41.992,56.641,76.660,12.695,0
1508657922.154,56.152,33.691,50.781,69.336,22.461,0
1508657922.158,62.012,34.668,46.875,80.078,38.574,0
1508657922.162,66.895,40.527,30.762,81.055,30.273,0
1508657922.166,56.152,30.273,22.949,64.941,11.230,0
1508657922.170,42.969,15.137,32.227,56.152,0.977,0
1508657922.173,42.969,12.695,37.598,52.246,19.043,0
1508657922.177,52.734,20.508,47.852,58.594,57.617,0
1508657922.181,45.898,18.555,50.293,62.012,55.176,0
1508657922.185,36.133,10.254,35.645,52.734,39.551,0
1508657922.189,43.457,13.672,34.180,54.688,40.527,0
1508657922.193,53.223,25.391,43.945,65.430,56.152,0
1508657922.197,55.664,28.809,42.969,65.430,54.688,0
1508657922.201,59.570,35.156,39.551,68.848,25.391,0
1508657922.205,57.617,34.668,29.297,71.777,35.156,0
1508657922.209,57.617,33.691,36.621,65.430,39.551,0
1508657922.212,60.059,30.762,42.969,51.270,2.441,0
1508657922.216,61.523,29.785,35.156,48.340,24.902,0
1508657922.220,50.293,26.367,31.738,43.945,50.781,0
1508657922.224,30.762,14.160,26.367,28.320,16.602,0
1508657922.228,30.762,12.695,31.738,24.414,0.000,0
1508657922.232,30.762,11.719,31.738,19.043,35.156,0
1508657922.236,28.809,14.160,28.320,21.973,40.039,0
1508657922.240,30.273,18.555,28.809,22.949,19.043,0
1508657922.244,27.344,16.113,33.203,22.461,19.043,0
1508657922.248,21.973,9.277,30.273,23.926,15.625,0
1508657922.252,27.832,14.160,26.367,28.320,33.691,0
1508657922.255,41.016,26.367,35.156,33.203,9.277,0
1508657922.259,29.785,16.113,32.715,18.555,-19.531,0
1508657922.263,16.602,7.812,30.762,9.277,17.090,0
1508657922.267,22.949,15.625,30.273,17.090,35.156,0
1508657922.271,25.879,21.973,34.180,26.855,24.414,0
1508657922.275,29.785,29.297,42.969,41.992,24.902,0
1508657922.279,35.156,31.738,49.316,52.246,22.949,0
1508657922.283,37.598,31.250,53.711,51.758,7.324,0
1508657922.287,36.621,31.250,50.781,49.805,-17.090,0
1508657922.291,36.133,26.855,45.410,42.480,7.812,0
1508657922.295,37.598,24.414,36.621,42.480,41.504,0
1508657922.298,34.180,21.973,32.715,40.527,33.203,0
1508657922.302,33.203,22.949,42.969,37.109,25.391,0
1508657922.306,35.156,26.855,55.176,41.016,49.316,0
1508657922.310,40.039,32.715,60.547,50.293,69.336,0
1508657922.314,49.805,39.062,69.824,60.059,58.594,0
1508657922.318,55.664,46.387,83.008,69.824,59.082,0
1508657922.322,55.664,46.875,76.660,67.383,68.848,0
1508657922.326,57.617,42.480,70.312,65.918,78.613,0
1508657922.330,60.547,45.898,74.219,67.871,48.828,0
1508657922.334,54.199,44.434,68.848,53.711,45.898,0
1508657922.337,51.270,41.992,59.570,54.199,23.438,0
1508657922.341,54.199,44.434,55.176,58.594,13.672,0
1508657922.345,60.059,47.852,65.918,59.570,12.695,0
1508657922.349,59.570,42.480,69.336,61.035,0.488,0
1508657922.353,49.805,36.133,62.012,57.129,41.504,0
1508657922.357,53.223,40.527,65.918,55.176,53.223,0
1508657922.361,53.711,39.062,58.594,56.641,14.648,0
1508657922.365,50.293,37.109,45.898,57.129,21.484,0
1508657922.369,51.758,35.645,41.992,58.105,58.105,0
1508657922.373,42.480,24.902,36.621,48.340,63.965,0
1508657922.377,40.527,23.926,39.062,47.363,45.898,0
1508657922.380,41.504,27.832,42.969,46.875,57.617,0
1508657922.384,30.762,22.949,36.133,32.715,37.598,0
1508657922.388,20.996,17.090,31.250,28.809,5.859,0
1508657922.392,22.949,17.578,30.762,35.156,19.043,0
1508657922.396,27.344,20.996,26.367,37.598,32.227,0
1508657922.400,42.480,32.227,35.156,40.527,21.484,0
1508657922.404,53.223,40.527,48.828,42.969,26.855,0
1508657922.408,49.316,40.039,50.293,47.852,32.227,0
1508657922.412,41.504,34.180,49.805,46.875,41.992,0
1508657922.416,45.410,36.621,57.129,48.828,37.109,0
1508657922.420,53.223,43.945,56.641,53.223,10.254,0
1508657922.423,53.223,40.039,45.898,56.641,10.742,0
1508657922.427,54.199,38.574,49.805,67.383,15.137,0
1508657922.431,45.898,32.715,44.434,69.336,41.992,0
1508657922.435,32.715,22.461,24.414,49.805,31.250,0
1508657922.439,28.320,17.578,26.367,36.133,-3.906,0
1508657922.443,26.367,10.742,31.738,32.715,15.137,0
1508657922.447,32.227,18.066,40.527,36.621,22.949,0
1508657922.451,37.109,25.879,49.805,42.969,18.066,0
1508657922.455,34.668,26.367,47.852,47.363,20.020,0
1508657922.459,34.668,26.855,42.480,47.363,1.465,0
1508657922.462,31.738,25.879,36.621,43.945,8.789,0
1508657922.466,31.250,23.926,32.715,42.969,20.996,0
1508657922.470,30.273,17.578,29.785,38.086,42.480,0
1508657922.474,29.785,14.160,32.715,32.715,60.547,0
1508657922.478,32.227,13.184,29.785,36.621,42.969,0
1508657922.482,30.762,11.230,26.855,41.016,25.879,0
1508657922.486,30.273,7.812,19.531,26.855,4.395,0
1508657922.490,32.227,8.789,23.926,26.367,27.344,0
1508657922.494,34.668,12.207,40.527,34.180,46.875,0
1508657922.498,34.180,11.719,41.504,29.297,22.949,0
1508657922.502,31.250,10.254,39.062,27.344,22.461,0
1508657922.505,23.926,4.883,37.109,25.391,41.992,0
1508657922.509,18.066,0.000,37.598,21.484,31.738,0
1508657922.513,18.555,1.465,36.133,23.438,53.711,0
1508657922.517,15.137,2.441,29.297,22.461,46.387,0
1508657922.521,12.695,-0.488,20.508,16.602,40.527,0
1508657922.525,18.066,1.953,22.949,14.648,42.969,0
1508657922.529,18.066,4.395,20.996,15.137,11.719,0
1508657922.533,8.301,0.000,6.836,12.207,42.969,0
1508657922.537,9.277,1.953,13.672,1.953,64.453,0
1508657922.541,21.973,15.625,36.621,11.230,49.316,0
1508657922.545,28.320,20.996,41.016,24.902,15.625,0
1508657922.548,29.297,21.484,38.574,27.344,48.828,0
1508657922.552,37.109,27.832,44.922,33.691,56.152,0
1508657922.556,43.457,30.762,46.875,38.574,20.020,0
1508657922.560,36.133,23.926,39.062,33.691,6.836,0
1508657922.564,30.273,20.996,32.715,33.691,23.438,0
1508657922.568,37.109,24.902,35.645,32.227,37.598,0
1508657922.572,37.109,24.414,33.203,26.367,33.203,0
1508657922.576,32.227,21.484,31.738,23.438,37.109,0
1508657922.580,31.738,17.090,36.621,22.949,16.113,0
1508657922.584,38.086,14.648,38.574,24.414,29.785,0
1508657922.587,40.039,15.625,38.574,27.832,21.484,0
1508657922.591,30.762,12.207,33.203,25.391,8.789,0
1508657922.595,30.273,13.672,35.645,29.297,78.613,0
1508657922.599,34.180,21.484,39.062,41.016,76.660,0
1508657922.603,25.391,15.137,28.809,30.762,33.203,0
1508657922.607,22.949,9.766,22.461,9.766,55.176,0
1508657922.611,32.227,11.719,24.902,8.301,81.543,0
1508657922.615,34.668,10.742,33.203,6.348,69.336,0
1508657922.619,37.109,21.484,45.898,10.254,60.059,0
1508657922.623,48.340,32.715,49.805,24.414,36.621,0
1508657922.627,56.152,36.133,52.246,29.785,34.668,0
1508657922.630,60.547,47.852,54.199,34.668,5.371,0
1508657922.634,58.105,50.781,52.246,36.621,-22.461,0
1508657922.638,46.875,37.598,56.641,25.879,23.438,0
1508657922.642,38.086,30.762,47.852,21.973,55.664,0
1508657922.646,31.250,23.438,28.809,24.414,48.828,0
1508657922.650,29.785,20.996,27.344,16.113,46.875,0
1508657922.654,34.180,27.344,32.715,17.578,66.895,0
1508657922.658,39.062,32.715,37.109,27.344,77.637,0
1508657922.662,37.598,31.738,43.457,24.902,56.641,0
1508657922.666,37.598,34.668,42.969,23.438,49.805,0
1508657922.670,38.574,34.180,37.598,23.438,61.523,0
1508657922.673,41.016,35.156,42.969,28.320,52.246,0
1508657922.677,42.969,42.480,46.875,34.180,35.645,0
1508657922.681,41.504,37.109,43.945,30.273,12.207,0
1508657922.685,44.434,35.645,43.457,30.762,27.344,0
1508657922.689,46.387,38.574,41.016,38.086,39.062,0
1508657922.693,46.387,39.062,48.340,43.457,30.762,0
1508657922.697,38.574,28.809,44.434,29.785,37.109,0
1508657922.701,36.621,26.855,31.250,21.973,45.898,0
1508657922.705,44.434,33.203,24.902,30.273,43.457,0
1508657922.709,47.852,33.691,32.715,40.527,44.922,0
1508657922.712,49.316,41.504,44.922,40.039,59.570,0
1508657922.716,58.105,46.875,49.805,45.898,60.059,0
1508657922.720,60.547,47.363,45.898,50.781,17.578,0
1508657922.724,41.016,34.180,22.949,31.250,9.277,0
1508657922.728,35.156,27.344,20.996,23.438,58.105,0
1508657922.732,43.945,35.156,33.691,31.250,59.082,0
1508657922.736,37.598,28.809,30.762,26.367,38.086,0
1508657922.740,42.480,30.762,35.645,30.273,37.109,0
1508657922.744,53.711,41.016,41.992,39.062,50.781,0
1508657922.748,58.594,48.340,39.551,40.527,58.594,0
1508657922.752,65.430,53.711,45.410,52.246,29.297,0
1508657922.755,62.988,48.340,45.898,49.316,23.926,0
1508657922.759,63.477,46.875,36.133,41.504,30.273,0
1508657922.763,64.453,48.828,38.574,40.039,7.812,0
1508657922.767,63.477,47.363,48.828,38.574,-14.160,0
1508657922.771,59.570,44.434,47.852,35.156,-7.324,0
1508657922.775,53.711,41.992,47.363,34.180,40.039,0
1508657922.779,46.387,38.086,52.246,33.203,43.945,0
1508657922.783,36.621,29.785,45.898,25.391,31.738,0
1508657922.787,30.762,26.855,41.504,19.531,28.320,0
1508657922.791,27.832,26.367,42.969,19.531,41.992,0
1508657922.795,24.902,21.484,37.598,20.508,50.293,0
1508657922.798,20.020,17.090,32.227,11.719,38.086,0
1508657922.802,21.484,18.555,28.320,7.324,29.785,0
1508657922.806,22.949,22.461,25.879,14.648,29.297,0
1508657922.810,19.043,22.949,29.785,14.648,15.625,0
1508657922.814,20.508,20.996,34.668,9.277,-23.438,0
1508657922.818,17.090,12.207,31.738,5.859,2.441,0
1508657922.822,15.137,12.207,29.297,9.277,19.043,0
1508657922.826,17.578,14.160,20.996,11.719,-0.488,0
1508657922.830,18.066,8.789,21.484,12.207,19.043,0
1508657922.834,25.879,13.184,28.809,22.461,56.641,0
1508657922.837,36.133,20.020,33.203,32.715,51.758,0
1508657922.841,43.945,20.020,33.203,36.621,20.996,0
1508657922.845,43.945,20.996,37.109,37.109,26.367,0
1508657922.849,42.969,22.949,45.410,34.180,52.246,0
1508657922.853,50.781,29.297,45.410,39.062,61.523,0
1508657922.857,61.523,42.480,49.805,57.129,19.531,0
1508657922.861,54.688,35.645,45.898,53.223,-19.531,0
1508657922.865,48.828,26.367,40.527,41.016,32.227,0
1508657922.869,51.758,31.250,38.086,45.410,30.762,0
1508657922.873,44.922,27.344,33.203,47.852,25.391,0
1508657922.877,38.086,19.043,25.879,45.898,52.734,0
1508657922.880,42.969,19.043,19.043,39.551,66.406,0
1508657922.884,48.828,25.391,24.902,44.922,69.824,0
1508657922.888,44.434,27.344,27.344,44.922,26.855,0
1508657922.892,39.551,25.391,27.344,39.062,14.648,0
1508657922.896,41.016,29.297,32.715,39.062,37.109,0
1508657922.900,43.945,32.227,31.250,40.039,17.090,0
1508657922.904,34.668,23.438,23.438,29.785,-2.441,0
1508657922.908,28.320,18.555,22.461,29.785,15.137,0
1508657922.912,37.598,24.414,22.461,39.062,26.855,0
1508657922.916,35.645,22.461,19.531,32.715,31.250,0
1508657922.920,35.645,23.438,23.926,29.785,32.227,0
1508657922.923,39.551,30.273,35.645,34.668,36.621,0
1508657922.927,36.133,28.809,29.785,26.367,34.668,0
1508657922.931,32.715,22.461,24.414,17.578,38.574,0
1508657922.935,20.996,13.184,26.855,13.672,27.832,0
1508657922.939,11.230,8.789,15.625,8.789,30.762,0
1508657922.943,15.625,17.090,13.672,0.977,34.180,0
1508657922.947,13.184,14.160,19.043,-5.371,36.621,0
1508657922.951,10.742,12.695,17.090,-5.859,32.715,0
1508657922.955,18.555,28.320,26.855,3.418,17.578,0
1508657922.959,15.137,27.344,29.785,9.766,9.277,0
1508657922.962,11.719,20.020,6.348,6.348,-1.953,0
1508657922.966,9.277,13.672,-17.090,1.953,14.648,0
1508657922.970,5.371,7.324,-3.418,-11.719,49.316,0
1508657922.974,4.395,6.348,20.508,-16.113,36.621,0
1508657922.978,7.324,6.836,22.461,-10.254,33.691,0
1508657922.982,10.254,6.348,13.184,-0.488,57.129,0
1508657922.986,18.555,17.090,13.184,11.719,71.289,0
1508657922.990,20.996,23.438,20.996,3.906,42.480,0
1508657922.994,25.879,20.996,27.832,4.883,1.953,0
1508657922.998,38.574,30.762,33.203,22.461,-3.418,0
1508657923.002,42.969,36.133,31.250,31.738,35.645,0
1508657923.005,47.363,36.621,21.484,33.691,21.484,0
1508657923.009,48.340,38.574,25.879,35.156,-1.465,0
1508657923.013,48.828,38.574,32.227,33.203,47.363,0
1508657923.017,54.688,42.480,41.016,33.203,54.199,0
1508657923.021,57.129,43.945,46.387,31.250,21.973,0
1508657923.025,40.527,26.367,27.344,15.625,23.438,0
1508657923.029,39.062,23.438,25.879,19.531,26.855,0
1508657923.033,50.293,30.273,32.715,29.785,41.016,0
1508657923.037,49.316,26.367,22.949,21.484,35.156,0
1508657923.041,47.852,25.879,21.973,19.531,2.441,0
1508657923.045,43.457,20.020,21.973,17.578,9.766,0
1508657923.048,43.945,16.113,23.926,14.160,24.414,0
1508657923.052,52.246,23.438,36.621,19.531,24.414,0
1508657923.056,61.035,32.227,41.016,27.832,17.578,0
1508657923.060,62.988,32.715,38.574,26.367,19.531,0
1508657923.064,63.477,39.062,39.062,35.156,22.461,0
1508657923.068,57.129,41.016,37.109,42.480,3.418,0
1508657923.072,46.875,29.297,33.203,30.273,-10.254,0
1508657923.076,40.039,19.043,21.484,19.531,4.883,0
1508657923.080,31.738,13.672,8.301,8.789,5.859,0
1508657923.084,33.203,14.648,17.090,7.324,12.207,0
1508657923.087,38.574,17.578,23.926,8.789,16.602,0
1508657923.091,40.527,23.438,24.414,19.531,5.859,0
1508657923.095,41.016,26.367,33.691,27.344,-0.977,0
1508657923.099,28.320,18.555,33.691,22.461,-12.695,0
1508657923.103,13.672,7.324,27.344,5.371,2.441,0
1508657923.107,11.230,2.930,19.043,-5.859,33.203,0
1508657923.111,14.648,6.836,10.742,-1.465,22.949,0
1508657923.115,22.949,14.648,18.066,5.859,22.461,0
1508657923.119,26.855,16.113,26.367,16.602,41.016,0
1508657923.123,35.645,26.367,27.832,25.879,48.340,0
1508657923.127,37.109,25.391,26.367,23.438,48.340,0
1508657923.130,25.391,12.695,23.926,13.184,41.504,0
1508657923.134,26.855,15.625,27.344,15.625,33.691,0
1508657923.138,23.438,15.137,25.391,16.602,61.035,0
1508657923.142,15.625,7.812,16.113,2.441,57.617,0
1508657923.146,24.414,11.719,18.555,-1.953,32.715,0
1508657923.150,39.551,26.855,33.691,19.043,54.199,0
1508657923.154,51.270,40.527,43.457,37.109,48.340,0
1508657923.158,55.664,38.574,42.480,39.551,50.293,0
1508657923.162,56.641,40.527,48.340,44.434,64.453,0
1508657923.166,63.965,57.129,61.523,56.152,38.574,0
1508657923.170,72.754,62.500,62.012,65.430,24.902,0
1508657923.173,73.730,57.617,55.176,64.941,51.270,0
1508657923.177,69.336,50.781,49.316,58.594,41.016,0
1508657923.181,63.965,41.992,41.504,55.664,6.836,0
1508657923.185,57.617,39.062,43.945,56.641,2.441,0
1508657923.189,53.711,36.621,44.434,54.688,-9.766,0
1508657923.193,44.434,27.832,35.645,43.945,28.320,0
1508657923.197,38.574,24.414,28.809,30.762,50.781,0
1508657923.201,45.410,26.855,31.738,32.715,30.762,0
1508657923.205,47.852,32.227,45.898,45.898,37.598,0
1508657923.209,47.363,36.621,47.363,58.594,33.203,0
1508657923.212,51.758,40.039,39.551,58.594,16.602,0
1508657923.216,59.082,45.410,46.387,58.594,9.277,0
1508657923.220,60.059,46.875,56.152,63.965,40.039,0
1508657923.224,52.734,45.898,49.805,57.617,59.570,0
1508657923.228,49.805,41.016,42.480,46.387,21.973,0
1508657923.232,47.363,32.227,34.668,41.016,-5.859,0
1508657923.236,42.480,24.414,16.113,33.203,7.812,0
1508657923.240,39.551,24.902,17.578,31.250,43.945,0
1508657923.244,46.387,33.203,37.109,41.504,25.391,0
1508657923.248,50.293,38.086,37.598,41.992,10.254,0
1508657923.252,49.805,38.574,30.762,39.551,21.484,0
1508657923.255,52.246,41.016,33.203,45.898,43.457,0
1508657923.259,44.434,33.691,20.996,41.016,20.020,0
1508657923.263,42.480,28.320,21.973,46.875,6.348,0
1508657923.267,45.410,31.738,32.227,45.898,19.531,0
1508657923.271,48.340,30.762,26.855,37.598,23.438,0
1508657923.275,50.781,31.250,28.809,47.363,16.602,0
1508657923.279,42.969,23.438,24.414,42.480,11.230,0
1508657923.283,49.316,26.855,22.461,46.875,-1.465,0
1508657923.287,53.223,32.227,34.180,49.316,-7.324,0
1508657923.291,45.898,29.297,40.039,43.457,26.367,0
1508657923.295,48.340,27.344,30.273,46.875,11.719,0
1508657923.298,44.434,21.484,21.484,40.527,-0.977,0
1508657923.302,46.875,23.438,29.297,42.480,26.855,0
1508657923.306,52.734,29.297,34.180,45.898,66.406,0
1508657923.310,51.758,25.879,38.086,40.039,49.805,0
1508657923.314,51.758,25.391,39.551,45.898,35.156,0
1508657923.318,52.734,30.762,40.527,63.477,25.391,0
1508657923.322,60.547,37.109,41.992,67.383,32.227,0
1508657923.326,73.730,46.875,53.711,64.941,27.344,0
1508657923.330,76.172,49.805,62.500,63.965,17.578,0
1508657923.334,78.613,53.711,60.059,64.453,19.531,0
1508657923.337,73.242,46.875,51.270,61.523,-0.488,0
1508657923.341,60.547,33.691,32.715,54.688,14.648,0
1508657923.345,61.523,38.086,34.668,52.734,19.043,0
1508657923.349,70.312,45.898,54.199,61.035,16.113,0
1508657923.353,74.707,45.898,51.758,65.918,25.879,0
1508657923.357,72.754,41.016,45.410,66.895,26.367,0
1508657923.361,78.613,46.387,53.711,79.102,50.293,0
1508657923.365,81.543,51.758,55.176,72.754,54.199,0
1508657923.369,77.148,47.852,46.387,66.406,23.926,0
1508657923.373,70.801,41.992,44.922,67.383,33.691,0
1508657923.377,64.941,39.062,47.852,59.082,39.551,0
1508657923.380,62.500,41.016,43.945,63.477,33.203,0
1508657923.384,57.129,34.180,31.738,55.664,46.875,0
1508657923.388,53.223,31.738,29.297,40.039,46.875,0
1508657923.392,58.594,39.551,37.598,51.270,54.688,0
1508657923.396,56.152,40.039,37.109,55.664,17.578,0
1508657923.400,45.898,31.250,27.344,50.781,-22.949,0
1508657923.404,47.852,27.832,24.902,59.570,24.414,0
1508657923.408,55.176,31.738,24.902,56.641,41.504,0
1508657923.412,53.711,28.809,28.809,47.363,18.555,0
1508657923.416,50.781,29.297,32.715,50.293,-13.672,0
1508657923.420,51.270,29.785,37.598,57.129,22.461,0
1508657923.423,49.316,27.832,47.363,61.035,55.176,0
1508657923.427,47.852,25.391,44.922,57.617,-0.488,0
1508657923.431,48.340,23.438,34.180,56.152,10.742,0
1508657923.435,59.570,32.715,43.457,75.684,65.430,0
1508657923.439,66.406,38.086,60.547,85.449,44.434,0
1508657923.443,63.965,37.109,60.547,72.266,18.066,0
1508657923.447,58.105,30.273,59.082,65.918,17.090,0
1508657923.451,51.270,22.461,54.199,63.965,33.691,0
1508657923.455,44.434,19.043,43.945,53.223,23.438,0
1508657923.459,37.109,15.137,38.086,46.387,14.160,0
1508657923.462,32.715,9.766,28.809,43.457,21.484,0
1508657923.466,26.855,4.395,17.578,35.645,-11.719,0
1508657923.470,20.996,2.441,16.113,35.156,-27.832,0
1508657923.474,19.043,5.371,19.531,39.551,-22.949,0
1508657923.478,23.438,8.789,16.602,29.297,19.043,0
1508657923.482,28.809,10.254,11.230,18.066,50.781,0
1508657923.486,33.691,15.137,23.926,23.926,33.203,0
1508657923.490,40.527,22.949,41.504,24.902,23.926,0
1508657923.494,44.434,26.367,50.781,26.855,38.086,0
1508657923.498,42.480,28.809,44.434,35.645,41.504,0
1508657923.502,39.551,24.902,29.297,23.926,22.461,0
1508657923.505,39.062,22.949,27.344,13.672,8.301,0
1508657923.509,41.016,28.809,33.691,27.832,37.598,0
1508657923.513,45.410,34.180,38.086,36.133,44.434,0
1508657923.517,45.898,33.691,39.062,36.621,0.000,0
1508657923.521,44.922,30.273,38.574,35.156,-3.906,0
1508657923.525,49.316,34.180,40.039,40.527,49.805,0
1508657923.529,53.223,38.574,45.898,44.434,51.758,0
1508657923.533,52.246,37.109,45.410,41.992,25.391,0
1508657923.537,42.480,31.250,42.969,41.992,40.039,0
1508657923.541,49.805,32.715,49.316,43.945,84.473,0
1508657923.545,58.594,38.086,52.246,50.781,78.125,0
1508657923.548,57.617,40.039,46.875,53.711,38.574,0
1508657923.552,52.734,35.645,37.109,49.316,35.645,0
1508657923.556,44.922,27.344,34.668,43.457,66.895,0
1508657923.560,39.551,21.484,27.344,34.180,41.016,0
1508657923.564,30.762,11.719,15.625,26.367,3.418,0
1508657923.568,24.902,4.395,17.090,25.879,28.320,0
1508657923.572,28.809,13.672,22.949,25.879,47.363,0
1508657923.576,32.715,18.066,24.902,30.273,49.316,0
1508657923.580,36.621,23.926,36.133,42.969,52.246,0
1508657923.584,42.969,37.598,43.945,43.457,42.969,0
1508657923.587,39.551,37.598,39.551,37.109,23.926,0
1508657923.591,32.227,28.809,28.320,33.203,40.039,0
1508657923.595,27.832,21.973,19.043,31.738,41.504,0
1508657923.599,26.855,21.973,20.996,37.598,35.156,0
1508657923.603,29.785,25.879,19.043,41.016,34.668,0
1508657923.607,24.414,24.414,24.902,31.738,12.695,0
1508657923.611,25.391,24.902,39.062,30.273,8.789,0
1508657923.615,34.668,29.785,36.621,33.203,43.945,0
1508657923.619,43.457,35.645,33.691,38.574,44.922,0
1508657923.623,40.527,35.645,33.691,40.039,-8.301,0
1508657923.627,34.180,28.809,33.691,30.762,-7.812,0
1508657923.630,36.133,34.180,34.668,28.809,22.949,0
1508657923.634,38.574,39.551,37.109,36.133,4.395,0
1508657923.638,35.645,31.250,34.668,37.598,-1.953,0
1508657923.642,30.273,29.785,30.273,28.809,23.926,0
1508657923.646,29.785,34.180,39.062,22.461,36.133,0
1508657923.650,33.691,36.133,48.828,28.320,24.902,0
1508657923.654,34.668,34.180,41.016,25.391,24.414,0
1508657923.658,36.133,36.133,38.574,30.273,34.180,0
1508657923.662,40.039,43.457,54.688,41.504,48.340,0
1508657923.666,42.480,47.363,56.641,50.293,40.039,0
1508657923.670,43.457,41.992,47.852,48.828,48.828,0
1508657923.673,39.062,33.203,48.828,40.039,75.684,0
1508657923.677,35.156,32.227,47.363,39.551,48.340,0
1508657923.681,35.156,29.785,43.457,38.574,36.133,0
1508657923.685,31.738,26.855,44.922,38.574,50.293,0
1508657923.689,36.133,31.738,47.852,35.645,45.410,0
1508657923.693,49.316,39.062,51.758,45.410,30.762,0
1508657923.697,54.688,39.062,50.781,56.641,39.551,0
1508657923.701,50.293,31.738,45.410,57.617,62.500,0
1508657923.705,36.621,22.949,46.387,52.246,43.945,0
1508657923.709,29.785,20.996,47.363,43.457,53.223,0
1508657923.712,35.645,20.020,45.410,41.016,14.160,0
1508657923.716,27.832,13.184,36.133,31.250,-18.555,0
1508657923.720,26.367,17.578,30.762,26.367,37.598,0
1508657923.724,37.598,23.926,42.969,42.969,32.227,0
1508657923.728,30.273,16.113,51.758,36.621,23.926,0
1508657923.732,20.508,10.254,46.387,29.297,62.012,0
1508657923.736,25.391,11.719,46.387,36.133,58.105,0
1508657923.740,37.109,20.020,50.781,31.250,35.156,0
1508657923.744,49.805,31.738,51.758,41.992,16.602,0
1508657923.748,48.828,34.668,46.875,46.387,12.207,0
1508657923.752,44.434,28.809,50.781,43.945,58.105,0
1508657923.755,53.711,33.203,61.035,53.223,37.598,0
1508657923.759,61.035,39.062,58.594,54.199,6.836,0
1508657923.763,54.688,32.715,47.852,45.410,27.344,0
1508657923.767,49.805,25.879,44.434,44.434,41.016,0
1508657923.771,51.758,24.414,39.551,46.875,27.832,0
1508657923.775,57.129,25.391,37.598,46.875,4.883,0
1508657923.779,60.547,28.320,36.621,54.688,8.301,0
1508657923.783,69.824,33.691,41.504,61.035,3.906,0
1508657923.787,69.824,32.227,44.434,58.105,33.691,0
1508657923.791,70.312,34.180,41.016,62.500,61.523,0
1508657923.795,71.289,34.180,46.875,60.059,48.340,0
1508657923.798,74.219,34.180,51.758,69.336,22.949,0
1508657923.802,74.219,35.156,50.293,70.312,-4.883,0
1508657923.806,53.223,13.184,27.832,42.969,-0.977,0
1508657923.810,43.945,2.930,12.207,37.109,24.414,0
1508657923.814,50.293,13.184,14.160,46.387,29.785,0
1508657923.818,49.316,16.113,20.996,44.434,20.020,0
1508657923.822,52.246,22.461,27.344,42.480,43.945,0
1508657923.826,53.223,25.391,22.461,44.922,20.996,0
1508657923.830,44.434,16.113,16.113,41.504,8.789,0
1508657923.834,40.039,10.742,20.020,37.109,22.949,0
1508657923.837,34.668,4.883,17.090,35.156,14.160,0
1508657923.841,26.855,4.395,11.719,31.738,27.344,0
1508657923.845,34.668,19.531,21.973,36.133,-0.977,0
1508657923.849,41.016,23.438,27.344,42.969,3.906,0
1508657923.853,35.156,16.602,21.973,31.250,76.172,0
1508657923.857,35.645,25.391,27.832,30.273,66.406,0
1508657923.861,32.227,28.809,22.461,40.039,24.414,0
1508657923.865,25.879,24.902,18.066,39.062,59.082,0
1508657923.869,22.949,20.508,26.855,32.227,83.984,0
1508657923.873,20.020,21.484,27.344,27.344,72.266,0
1508657923.877,18.066,25.879,20.020,26.855,41.992,0
1508657923.880,10.742,15.137,11.230,19.531,8.301,0
1508657923.884,13.184,15.137,16.113,19.531,32.227,0
1508657923.888,24.414,26.855,24.902,32.715,40.527,0
1508657923.892,24.414,27.344,28.320,40.527,6.836,0
1508657923.896,20.996,21.484,19.043,38.086,5.371,0
1508657923.900,21.973,22.461,15.137,25.391,47.852,0
1508657923.904,24.414,26.855,16.113,21.973,44.434,0
1508657923.908,19.043,22.949,11.230,18.555,5.371,0
1508657923.912,17.090,16.602,8.789,14.160,31.250,0
1508657923.916,27.832,26.855,18.555,33.691,60.059,0
1508657923.920,33.203,37.109,32.715,43.945,23.438,0
1508657923.923,26.855,31.250,31.250,34.180,11.230,0
1508657923.927,23.926,25.391,23.926,35.645,24.414,0
1508657923.931,26.855,24.902,27.344,37.109,34.668,0
1508657923.935,26.855,26.855,26.367,29.785,8.789,0
1508657923.939,25.879,24.902,20.996,27.344,-21.484,0
1508657923.943,26.367,22.461,34.180,28.809,4.883,0
1508657923.947,25.879,22.949,38.574,31.250,26.367,0
1508657923.951,27.344,18.555,34.180,24.902,20.508,0
1508657923.955,32.227,13.184,34.668,26.367,6.348,0
1508657923.959,37.109,13.672,34.668,32.715,46.387,0
1508657923.962,39.551,16.602,31.250,32.715,52.246,0
1508657923.966,36.133,15.137,24.414,36.621,7.324,0
1508657923.970,42.480,24.902,41.016,50.781,14.648,0
1508657923.974,57.617,43.945,65.918,57.129,40.039,0
1508657923.978,61.523,47.852,71.289,57.617,34.180,0
1508657923.982,53.711,36.133,59.570,56.641,-11.719,0
1508657923.986,45.410,29.297,46.387,51.758,-6.348,0
1508657923.990,41.016,27.344,39.062,52.734,48.340,0
1508657923.994,49.805,32.227,39.551,50.293,52.246,0
1508657923.998,50.293,32.227,43.945,39.551,11.230,0
1508657924.002,36.621,21.484,44.922,35.156,24.414,0
1508657924.005,41.992,26.367,49.316,48.340,57.129,0
1508657924.009,51.758,36.133,54.199,62.988,39.062,0
1508657924.013,45.898,31.738,47.852,55.664,12.695,0
1508657924.017,36.621,20.996,34.180,45.410,43.945,0
1508657924.021,39.551,21.973,38.086,47.852,82.520,0
1508657924.025,35.645,23.438,42.480,44.922,55.176,0
1508657924.029,25.879,13.672,25.879,40.527,33.203,0
1508657924.033,21.484,4.883,16.602,28.809,57.129,0
1508657924.037,29.785,13.672,27.832,30.762,71.777,0
1508657924.041,35.156,23.926,33.691,40.039,35.156,0
1508657924.045,39.551,32.715,42.969,41.504,7.812,0
1508657924.048,48.828,39.551,45.898,48.340,40.039,0
1508657924.052,41.992,40.039,45.898,50.293,54.688,0
1508657924.056,40.527,45.898,51.758,43.457,15.625,0
1508657924.060,41.992,43.945,47.852,34.180,-4.883,0
1508657924.064,39.062,41.016,47.363,33.203,33.691,0
1508657924.068,39.062,39.062,45.410,42.480,55.664,0
1508657924.072,36.133,37.598,34.668,43.945,45.410,0
1508657924.076,34.668,37.109,33.691,35.156,19.531,0
1508657924.080,27.832,29.785,35.156,32.227,38.086,0
1508657924.084,20.508,24.902,30.762,31.738,59.082,0
1508657924.087,23.926,27.832,32.715,24.902,43.945,0
1508657924.091,28.809,30.762,31.738,20.996,43.457,0
1508657924.095,26.855,33.691,31.738,22.949,68.848,0
1508657924.099,32.227,37.598,38.086,32.227,63.477,0
1508657924.103,33.691,38.086,37.598,41.504,2.441,0
1508657924.107,26.855,33.691,34.668,35.645,6.836,0
1508657924.111,30.273,30.762,38.086,27.832,31.738,0
1508657924.115,32.715,30.762,37.598,26.367,14.648,0
1508657924.119,33.203,34.180,37.109,30.762,8.301,0
1508657924.123,37.109,31.738,41.992,32.715,16.113,0
1508657924.127,36.621,27.344,42.480,34.180,42.969,0
1508657924.130,40.039,31.738,32.715,36.621,24.414,0
1508657924.134,37.109,31.250,18.066,31.738,-24.902,0
1508657924.138,32.227,25.879,26.855,32.227,15.625,0
1508657924.142,41.504,28.809,45.898,34.668,46.387,0
1508657924.146,50.293,34.180,54.688,35.156,48.340,0
1508657924.150,46.875,33.203,47.363,32.227,67.383,0
1508657924.154,44.434,27.832,38.574,22.949,68.359,0
1508657924.158,44.922,25.391,26.855,22.949,52.246,0
1508657924.162,42.480,20.996,14.648,17.578,35.156,0
1508657924.166,39.062,19.043,20.996,12.695,13.184,0
1508657924.170,41.504,23.438,28.320,20.996,20.508,0
1508657924.173,42.480,24.414,29.297,27.832,45.410,0
1508657924.177,37.598,22.949,29.785,23.926,23.926,0
1508657924.181,32.715,15.625,19.043,8.789,12.695,0
1508657924.185,35.156,14.160,18.555,1.953,43.945,0
1508657924.189,41.016,21.973,27.832,15.137,71.777,0
1508657924.193,37.109,19.531,21.973,21.973,38.574,0
1508657924.197,34.180,20.020,11.230,24.414,34.180,0
1508657924.201,41.504,32.227,23.926,29.297,60.059,0
1508657924.205,48.828,35.645,43.945,33.691,15.137,0
1508657924.209,45.410,30.273,49.316,31.250,23.926,0
1508657924.212,45.410,31.250,49.805,34.668,38.086,0
1508657924.216,52.734,38.086,48.340,45.410,20.996,0
1508657924.220,38.574,26.855,38.086,38.574,12.695,0
1508657924.224,24.902,16.602,28.320,33.691,12.207,0
1508657924.228,26.855,15.625,25.391,30.762,48.828,0
1508657924.232,27.832,12.207,25.391,23.926,59.082,0
1508657924.236,42.480,23.926,35.156,39.062,19.531,0
1508657924.240,40.527,19.531,27.344,36.621,12.207,0
1508657924.244,27.832,6.348,17.578,28.320,62.500,0
1508657924.248,40.527,19.531,37.598,46.387,56.641,0
1508657924.252,46.875,28.320,47.363,45.410,17.090,0
1508657924.255,44.434,24.902,42.969,43.457,43.457,0
1508657924.259,50.781,24.414,47.363,50.781,39.062,0
1508657924.263,50.781,23.438,44.434,46.387,13.672,0
1508657924.267,41.992,21.973,40.039,40.039,6.836,0
1508657924.271,34.180,16.602,37.109,35.645,11.230,0
1508657924.275,31.738,13.184,28.320,30.273,33.691,0
1508657924.279,36.133,21.973,30.762,28.809,22.949,0
1508657924.283,35.645,21.973,34.668,26.855,16.602,0
1508657924.287,33.203,17.578,21.973,20.020,33.203,0
1508657924.291,38.086,23.926,19.531,23.438,28.809,0
1508657924.295,44.922,30.273,32.227,29.297,12.695,0
1508657924.298,53.223,31.738,43.457,41.016,1.953,0
1508657924.302,50.781,26.855,37.598,24.902,12.695,0
1508657924.306,43.457,21.484,26.855,-39.551,29.297,0
1508657924.310,45.898,24.414,29.297,-80.566,16.113,0
1508657924.314,40.527,17.578,20.020,-96.680,2.441,0
1508657924.318,28.809,4.395,5.371,-110.352,43.457,0
1508657924.322,31.738,6.836,6.348,-99.609,56.641,0
1508657924.326,41.992,15.625,14.160,-77.148,30.762,0
1508657924.330,43.945,19.043,19.043,-74.219,39.062,0
1508657924.334,45.898,20.508,16.113,-68.848,24.414,0
1508657924.337,50.293,25.391,19.043,-52.734,30.762,0
1508657924.341,51.758,31.250,30.273,-44.434,48.828,0
1508657924.345,56.641,35.156,31.738,-30.762,31.738,0
1508657924.349,58.594,36.133,36.621,-20.508,19.531,0
1508657924.353,60.547,39.062,41.992,-15.137,42.969,0
1508657924.357,66.895,43.457,45.410,-8.789,26.367,0
1508657924.361,68.848,41.504,45.898,-6.348,-5.371,0
1508657924.365,76.660,47.363,44.922,6.836,19.531,0
1508657924.369,83.008,57.617,52.246,26.855,17.578,0
1508657924.373,78.125,57.617,46.387,29.785,11.719,0
1508657924.377,74.219,53.711,39.551,10.254,20.996,0
1508657924.380,73.242,49.805,44.922,10.742,37.598,0
1508657924.384,66.895,44.434,42.969,22.461,60.059,0
1508657924.388,62.500,39.551,38.574,21.973,47.852,0
1508657924.392,58.594,34.668,33.691,17.578,44.434,0
1508657924.396,51.270,27.344,23.926,15.137,47.852,0
1508657924.400,43.457,19.043,18.555,11.719,27.344,0
1508657924.404,37.598,9.766,16.602,7.812,20.020,0
1508657924.408,41.992,14.160,20.020,17.090,22.461,0
1508657924.412,43.457,20.020,24.414,18.066,19.531,0
1508657924.416,45.410,21.973,29.297,17.578,-7.324,0
1508657924.420,40.527,17.578,21.973,14.648,-23.438,0
1508657924.423,35.645,9.766,5.859,11.230,17.090,0
1508657924.427,35.645,6.836,3.906,5.371,39.551,0
1508657924.431,35.156,7.812,7.324,7.324,27.832,0
1508657924.435,46.387,17.090,17.578,20.020,20.996,0
1508657924.439,49.805,20.020,18.555,20.996,32.715,0
1508657924.443,46.387,15.625,17.578,20.020,33.203,0
1508657924.447,37.598,11.719,13.184,18.066,27.344,0
1508657924.451,32.715,7.812,8.789,15.625,33.203,0
1508657924.455,37.598,6.836,11.230,18.555,50.781,0
1508657924.459,41.016,8.789,13.672,26.855,54.688,0
1508657924.462,43.457,11.230,14.648,33.691,13.184,0
1508657924.466,41.992,7.324,11.230,32.715,-12.695,0
1508657924.470,41.992,6.348,12.207,30.762,28.809,0
1508657924.474,44.434,10.742,24.902,36.133,39.551,0
1508657924.478,44.922,10.742,32.227,46.875,6.836,0
1508657924.482,45.898,8.301,25.879,49.316,48.828,0
1508657924.486,48.828,12.695,27.344,56.641,45.898,0
1508657924.490,46.875,12.207,31.738,61.035,-0.977,0
1508657924.494,47.852,10.254,30.273,52.246,12.695,0
1508657924.498,49.805,12.207,21.973,53.711,10.254,0
1508657924.502,45.410,12.207,18.066,59.082,23.926,0
1508657924.505,57.129,19.043,36.621,66.406,3.418,0
1508657924.509,65.430,26.855,46.387,78.613,-25.391,0
1508657924.513,62.988,26.855,45.898,77.148,31.250,0
1508657924.517,65.430,29.785,45.410,74.707,43.945,0
1508657924.521,58.594,25.879,29.785,65.918,42.969,0
1508657924.525,48.340,17.090,31.738,58.105,40.039,0
1508657924.529,41.992,12.207,40.039,52.246,39.062,0
1508657924.533,38.574,13.184,33.203,45.410,49.316,0
1508657924.537,40.527,20.508,33.203,53.711,19.043,0
1508657924.541,33.203,20.996,31.738,45.410,6.348,0
1508657924.545,22.949,12.207,21.484,30.273,27.344,0
1508657924.548,17.578,11.719,18.555,23.926,42.969,0
1508657924.552,32.715,24.414,28.809,35.645,16.113,0
1508657924.556,59.082,30.273,35.645,39.551,-6.836,0
1508657924.560,67.383,30.273,34.180,38.574,44.922,0
1508657924.564,65.430,34.668,35.645,38.574,57.129,0
1508657924.568,59.082,34.668,38.574,30.762,28.320,0
1508657924.572,43.457,17.090,27.832,16.113,25.879,0
1508657924.576,41.504,14.648,14.648,8.789,36.621,0
1508657924.580,40.039,17.090,11.719,8.301,51.270,0
1508657924.584,34.180,14.160,13.184,5.371,53.223,0
1508657924.587,45.898,26.855,20.996,19.043,37.598,0
1508657924.591,53.223,37.109,34.668,31.250,23.438,0
1508657924.595,47.363,28.809,33.203,25.391,10.254,0
1508657924.599,32.715,12.695,13.672,11.230,12.695,0
1508657924.603,25.879,9.277,4.395,0.000,40.039,0
1508657924.607,36.133,18.555,16.602,13.184,49.316,0
1508657924.611,39.551,25.391,27.344,23.438,15.625,0
1508657924.615,36.133,18.555,14.648,14.648,-20.996,0
1508657924.619,37.109,14.160,3.418,12.695,14.648,0
1508657924.623,40.039,16.602,11.230,21.484,47.363,0
1508657924.627,36.133,14.160,15.137,18.555,27.344,0
1508657924.630,35.645,19.043,19.043,22.949,13.184,0
1508657924.634,41.016,27.344,26.367,33.203,34.668,0
1508657924.638,43.945,27.344,17.090,37.598,29.297,0
1508657924.642,49.805,27.344,10.742,44.922,-6.348,0
1508657924.646,48.340,27.832,23.926,37.598,5.859,0
1508657924.650,46.387,28.320,24.902,32.715,58.105,0
1508657924.654,50.293,39.062,30.762,44.922,29.785,0
1508657924.658,48.340,40.527,37.109,42.480,-3.418,0
1508657924.662,42.969,34.180,28.809,29.297,7.324,0
1508657924.666,51.270,42.969,35.645,44.922,32.227,0
1508657924.670,61.035,54.688,50.293,59.082,-6.348,0
1508657924.673,55.664,49.316,47.852,55.664,-5.859,0
1508657924.677,51.270,41.992,43.457,50.781,66.406,0
1508657924.681,52.246,41.504,48.340,50.293,36.133,0
1508657924.685,52.734,44.434,46.875,53.223,18.555,0
1508657924.689,47.363,42.480,40.527,55.664,38.086,0
1508657924.693,33.691,27.832,34.668,45.898,59.082,0
1508657924.697,31.250,24.902,36.621,35.645,53.223,0
1508657924.701,26.855,22.461,35.156,29.297,39.062,0
1508657924.705,17.090,12.207,23.926,22.949,34.180,0
1508657924.709,15.137,12.207,17.578,15.625,32.227,0
1508657924.712,25.879,21.484,31.738,30.762,29.297,0
1508657924.716,28.809,20.508,38.086,36.621,21.973,0
1508657924.720,23.926,19.531,41.016,33.203,26.367,0
1508657924.724,27.832,24.414,45.410,39.551,41.016,0
1508657924.728,27.832,22.461,41.992,29.785,36.133,0
1508657924.732,28.809,23.926,47.852,33.203,2.441,0
1508657924.736,30.762,24.902,44.922,37.598,-0.488,0
1508657924.740,35.645,30.273,44.922,35.645,46.387,0
1508657924.744,41.016,37.109,60.547,41.504,41.504,0
1508657924.748,34.668,32.715,56.152,37.109,-1.953,0
1508657924.752,32.715,31.738,41.504,35.156,7.324,0
1508657924.755,37.598,35.645,42.969,41.016,52.246,0
1508657924.759,44.922,41.504,52.246,51.758,53.223,0
1508657924.763,42.969,39.062,48.828,50.781,35.156,0
1508657924.767,41.992,41.504,50.293,41.504,48.828,0
1508657924.771,49.316,52.734,57.129,40.039,52.246,0
1508657924.775,45.410,51.270,44.922,39.551,19.043,0
1508657924.779,41.504,50.781,45.410,37.109,11.719,0
1508657924.783,39.551,49.805,40.039,33.691,25.391,0
1508657924.787,40.039,44.434,26.855,30.273,53.711,0
1508657924.791,43.945,48.340,41.992,36.621,43.945,0
1508657924.795,46.875,49.316,49.805,39.551,15.137,0
1508657924.798,42.969,43.457,41.992,26.855,56.152,0
1508657924.802,38.574,40.039,33.203,23.438,56.641,0
1508657924.806,42.969,41.504,22.949,27.832,18.066,0
1508657924.810,45.410,42.480,24.414,31.250,31.738,0
1508657924.814,45.410,43.457,38.574,33.203,36.133,0
1508657924.818,46.875,44.922,43.457,34.180,53.711,0
1508657924.822,46.387,41.016,36.133,30.762,40.527,0
1508657924.826,46.387,33.203,24.414,24.902,30.273,0
1508657924.830,44.434,29.297,17.090,21.484,37.598,0
1508657924.834,43.945,29.785,17.578,28.320,32.715,0
1508657924.837,39.551,27.832,16.602,28.320,-0.488,0
1508657924.841,31.738,18.066,3.906,13.184,-8.789,0
1508657924.845,31.738,16.602,-1.953,7.324,49.805,0
1508657924.849,33.691,19.043,1.953,9.277,44.434,0
1508657924.853,28.809,15.137,-2.930,6.836,11.719,0
1508657924.857,25.391,12.207,4.883,11.719,23.926,0
1508657924.861,26.367,10.254,6.348,11.230,28.320,0
1508657924.865,26.855,10.254,3.418,2.930,18.555,0
1508657924.869,28.809,11.719,8.789,7.324,4.883,0
1508657924.873,35.156,17.578,13.184,22.461,35.156,0
1508657924.877,48.828,31.738,27.344,31.738,55.664,0
1508657924.880,62.012,41.504,33.203,31.250,21.973,0
1508657924.884,59.570,41.504,34.668,31.250,-8.301,0
1508657924.888,50.781,36.133,35.645,29.297,19.531,0
1508657924.892,50.293,37.109,33.691,35.645,51.270,0
1508657924.896,55.664,41.504,30.762,42.969,35.645,0
1508657924.900,54.688,43.945,41.016,44.434,4.883,0
1508657924.904,56.641,46.387,48.828,49.316,39.551,0
1508657924.908,60.059,49.316,43.457,63.965,42.480,0
1508657924.912,55.664,48.828,40.039,56.152,9.766,0
1508657924.916,53.223,42.480,31.738,39.551,17.090,0
1508657924.920,51.270,39.062,22.949,42.969,15.137,0
1508657924.923,45.410,38.086,26.367,44.434,17.090,0
1508657924.927,45.410,37.598,33.691,41.504,-7.812,0
1508657924.931,43.945,31.250,24.414,34.180,-5.371,0
1508657924.935,44.434,32.715,20.996,33.203,36.621,0
1508657924.939,44.434,35.156,22.461,39.062,6.348,0
1508657924.943,38.086,26.367,20.020,30.762,16.602,0
1508657924.947,29.297,15.625,13.672,14.160,34.180,0
1508657924.951,25.879,12.695,8.789,18.555,12.695,0
1508657924.955,34.180,19.531,9.277,23.438,-6.348,0
1508657924.959,39.062,27.344,12.207,28.809,-0.488,0
1508657924.962,41.504,29.297,17.090,36.621,1.465,0
1508657924.966,49.805,32.227,20.996,47.852,0.977,0
1508657924.970,61.523,40.527,34.668,55.664,15.625,0
1508657924.974,65.430,37.598,35.645,50.293,1.465,0
1508657924.978,57.129,32.227,22.949,43.945,23.438,0
1508657924.982,51.758,39.551,26.855,45.410,22.461,0
1508657924.986,55.176,41.992,34.180,51.758,-12.695,0
1508657924.990,59.570,44.922,31.738,52.246,20.508,0
1508657924.994,67.871,53.711,37.109,50.781,49.805,0
1508657924.998,73.730,57.129,41.992,50.781,69.824,0
1508657925.002,66.406,51.758,38.086,46.387,61.523,0
1508657925.005,57.617,46.387,39.551,50.293,29.297,0
1508657925.009,57.129,46.387,41.016,52.734,44.434,0
1508657925.013,57.617,41.992,34.180,43.457,32.715,0
1508657925.017,61.035,43.945,37.109,48.340,10.742,0
1508657925.021,60.547,43.945,40.039,46.387,18.066,0
1508657925.025,55.664,41.992,38.086,40.527,32.715,0
1508657925.029,57.129,46.387,39.551,52.734,44.922,0
1508657925.033,57.617,45.898,37.598,61.035,29.297,0
1508657925.037,47.852,36.621,31.250,54.688,20.508,0
1508657925.041,41.992,29.785,28.320,40.527,37.109,0
1508657925.045,53.223,38.574,36.621,41.016,46.875,0
1508657925.048,56.641,39.551,41.992,45.898,25.879,0
1508657925.052,49.805,29.785,36.133,49.316,34.180,0
1508657925.056,52.246,32.227,32.715,60.547,41.992,0
1508657925.060,56.641,38.574,36.133,62.012,-2.930,0
1508657925.064,54.199,37.598,40.039,51.270,-9.277,0
1508657925.068,51.758,32.227,38.086,40.527,33.203,0
1508657925.072,49.316,29.785,34.668,55.176,49.805,0
1508657925.076,46.875,31.738,33.691,55.176,39.062,0
1508657925.080,35.645,26.367,23.926,33.203,18.555,0
1508657925.084,32.227,19.043,20.508,34.180,15.137,0
1508657925.087,39.062,23.438,24.414,40.039,42.969,0
1508657925.091,43.945,32.227,31.738,40.039,38.086,0
1508657925.095,45.898,31.738,44.922,43.457,47.852,0
1508657925.099,41.992,25.391,44.434,42.480,62.500,0
1508657925.103,38.574,24.414,32.715,45.898,47.363,0
1508657925.107,39.551,22.949,27.832,46.875,20.020,0
1508657925.111,40.527,25.879,32.227,51.758,17.090,0
1508657925.115,41.016,27.344,33.691,47.363,40.527,0
1508657925.119,43.945,23.926,28.809,30.762,36.621,0
1508657925.123,39.062,21.484,23.926,30.762,9.277,0
1508657925.127,46.387,29.785,30.273,42.480,-8.789,0
1508657925.130,58.105,40.527,42.480,50.781,11.719,0
1508657925.134,65.918,46.875,44.922,61.523,46.875,0
1508657925.138,67.383,47.363,43.457,63.477,21.484,0
1508657925.142,57.617,40.527,41.016,56.152,17.090,0
1508657925.146,58.105,37.109,38.086,49.316,38.086,0
1508657925.150,58.594,35.645,37.598,48.828,25.391,0
1508657925.154,49.805,27.344,33.203,47.363,19.531,0
1508657925.158,53.223,24.902,42.969,50.781,20.020,0
1508657925.162,58.594,29.785,53.223,59.570,15.137,0
1508657925.166,55.664,29.785,51.270,51.270,26.855,0
1508657925.170,53.711,28.320,47.363,47.363,31.738,0
1508657925.173,52.734,28.320,41.016,44.434,50.293,0
1508657925.177,50.293,26.855,41.504,46.875,42.969,0
1508657925.181,45.410,20.020,39.551,36.133,21.484,0
1508657925.185,51.270,18.555,36.133,29.297,30.762,0
1508657925.189,58.105,26.367,39.551,40.527,44.922,0
1508657925.193,51.270,21.484,33.691,40.527,36.133,0
1508657925.197,38.086,13.672,19.531,35.645,37.598,0
1508657925.201,34.180,13.184,20.020,37.598,29.297,0
1508657925.205,43.457,16.602,31.250,23.926,25.879,0
1508657925.209,49.316,22.949,35.645,-4.883,41.504,0
1508657925.212,47.363,25.391,31.738,-8.301,7.812,0
1508657925.216,40.039,18.555,23.438,-13.184,13.184,0
1508657925.220,45.898,19.531,33.691,-7.324,32.715,0
1508657925.224,56.152,29.785,41.992,11.719,28.320,0
1508657925.228,56.641,31.738,40.039,15.625,33.203,0
1508657925.232,49.316,22.949,30.762,10.742,37.109,0
1508657925.236,39.062,16.602,21.484,3.906,38.574,0
1508657925.240,42.969,18.555,31.250,3.906,8.789,0
1508657925.244,46.875,16.113,35.156,2.441,6.348,0
1508657925.248,44.922,12.695,34.668,3.418,18.066,0
1508657925.252,45.410,18.066,39.062,13.184,50.781,0
1508657925.255,57.617,38.086,46.875,29.785,24.414,0
1508657925.259,61.523,42.969,47.852,41.504,-9.277,0
1508657925.263,53.223,31.250,38.086,36.621,31.738,0
1508657925.267,51.270,33.203,40.527,25.391,31.250,0
1508657925.271,52.246,33.203,36.621,22.461,35.645,0
1508657925.275,44.434,24.902,33.691,25.879,46.387,0
1508657925.279,42.969,26.855,41.016,28.809,52.246,0
1508657925.283,46.875,31.738,38.574,29.785,47.363,0
1508657925.287,46.387,32.227,39.551,28.809,34.180,0
1508657925.291,46.387,31.738,42.969,29.297,20.996,0
1508657925.295,45.898,27.832,38.086,32.227,3.906,0
1508657925.298,48.828,32.715,38.086,44.922,6.348,0
1508657925.302,48.828,38.086,44.434,49.805,0.977,0
1508657925.306,44.922,32.715,46.387,41.504,13.184,0
1508657925.310,40.527,27.344,44.434,27.832,48.828,0
1508657925.314,34.668,30.762,46.387,28.320,34.180,0
1508657925.318,36.133,31.250,40.527,41.992,4.883,0
1508657925.322,37.109,23.438,23.926,37.109,20.996,0
1508657925.326,32.227,17.578,18.555,25.879,38.574,0
1508657925.330,25.879,11.719,23.438,24.902,34.180,0
1508657925.334,21.484,7.812,33.203,24.414,24.414,0
1508657925.337,18.555,5.371,40.527,33.691,14.648,0
1508657925.341,11.230,0.488,32.227,34.668,32.715,0
1508657925.345,10.742,0.488,27.832,28.809,27.344,0
1508657925.349,11.719,0.000,25.879,25.391,-15.137,0
1508657925.353,16.602,3.906,25.391,23.926,3.418,0
1508657925.357,23.438,11.719,28.320,24.902,33.203,0
1508657925.361,25.879,14.648,29.297,27.344,15.137,0
1508657925.365,28.809,16.113,29.297,24.414,12.207,0
1508657925.369,35.645,23.926,35.156,28.809,33.691,0
1508657925.373,45.898,35.156,45.898,39.551,37.109,0
1508657925.377,43.945,33.203,43.945,39.062,30.273,0
1508657925.380,37.109,25.391,33.691,31.738,36.133,0
1508657925.384,38.574,26.855,31.250,25.391,22.949,0
1508657925.388,38.086,29.785,32.715,23.438,4.395,0
1508657925.392,32.227,24.414,29.297,18.066,-8.301,0
1508657925.396,31.250,26.367,32.715,22.949,-5.859,0
1508657925.400,41.016,33.691,38.086,25.391,23.438,0
1508657925.404,46.387,36.621,36.621,21.484,16.602,0
1508657925.408,42.969,39.551,35.156,23.438,8.301,0
1508657925.412,35.156,35.645,28.320,17.090,35.156,0
1508657925.416,27.344,30.273,21.484,6.348,36.133,0
1508657925.420,21.973,27.344,24.902,4.883,18.066,0
1508657925.423,16.602,22.949,24.902,1.953,14.648,0
1508657925.427,18.555,25.879,30.762,-0.488,23.926,0
1508657925.431,30.273,35.645,44.434,9.766,8.301,0
1508657925.435,27.832,31.738,38.086,7.812,0.977,0
1508657925.439,16.602,19.043,23.926,-6.836,-13.672,0
1508657925.443,12.207,10.742,14.160,-7.812,-0.488,0
1508657925.447,15.625,12.695,19.043,1.465,45.898,0
1508657925.451,22.949,19.043,26.855,4.883,52.734,0
1508657925.455,20.996,18.555,20.996,8.789,17.090,0
1508657925.459,12.695,9.766,15.137,-1.465,23.438,0
1508657925.462,7.812,5.371,16.113,-7.324,64.453,0
1508657925.466,10.254,5.859,18.066,6.348,36.621,0
1508657925.470,17.578,8.301,20.020,6.836,18.066,0
1508657925.474,17.090,9.277,23.926,7.324,47.363,0
1508657925.478,12.695,7.812,27.344,5.371,48.828,0
1508657925.482,21.484,16.113,34.180,15.625,20.020,0
1508657925.486,23.926,18.555,36.133,25.391,9.766,0
1508657925.490,20.020,12.207,33.203,29.297,42.969,0
1508657925.494,21.973,13.672,31.250,24.902,41.992,0
1508657925.498,28.320,17.090,33.203,19.043,2.441,0
1508657925.502,35.645,22.461,40.039,29.785,38.574,0
1508657925.505,41.504,32.227,46.875,41.504,62.988,0
1508657925.509,47.363,39.062,48.340,56.641,37.109,0
1508657925.513,45.898,38.574,44.922,51.270,18.555,0
1508657925.517,41.992,36.133,44.434,38.574,12.207,0
1508657925.521,40.527,33.691,43.945,37.109,9.277,0
1508657925.525,43.457,35.156,43.945,35.645,10.254,0
1508657925.529,40.527,33.691,40.039,37.109,12.695,0
1508657925.533,34.180,29.297,33.203,30.273,-9.766,0
1508657925.537,34.180,28.809,34.180,18.066,29.785,0
1508657925.541,35.156,34.180,49.316,26.367,46.875,0
1508657925.545,27.344,29.785,54.199,28.809,-0.977,0
1508657925.548,22.949,21.484,38.574,16.602,25.391,0
1508657925.552,28.809,24.414,40.039,28.809,24.902,0
1508657925.556,30.762,28.809,54.199,31.250,12.207,0
1508657925.560,29.785,26.367,53.223,12.695,18.555,0
1508657925.564,22.461,16.602,42.480,7.812,32.227,0
1508657925.568,14.160,9.277,27.832,5.859,62.500,0
1508657925.572,6.836,7.324,23.438,-1.465,39.551,0
1508657925.576,2.441,4.883,25.391,-10.742,5.859,0
1508657925.580,4.395,2.930,20.508,-9.766,29.785,0
1508657925.584,4.883,4.395,25.879,-6.836,33.691,0
1508657925.587,10.742,7.812,31.250,-4.395,-1.465,0
1508657925.591,21.484,8.789,24.902,1.465,0.488,0
1508657925.595,26.367,12.695,30.762,9.277,-2.441,0
1508657925.599,30.273,20.996,38.086,14.648,23.926,0
1508657925.603,36.133,26.367,35.645,14.160,55.176,0
1508657925.607,38.574,27.832,35.156,7.324,32.715,0
1508657925.611,31.250,23.438,33.691,8.301,27.344,0
1508657925.615,23.438,17.578,33.691,7.324,24.414,0
1508657925.619,23.926,21.484,28.809,8.301,23.926,0
1508657925.623,29.297,26.367,26.367,9.766,27.344,0
1508657925.627,35.156,27.344,35.156,16.602,26.367,0
1508657925.630,41.504,32.715,39.551,28.320,13.672,0
1508657925.634,40.527,29.785,34.180,26.855,6.348,0
1508657925.638,33.203,19.531,23.438,12.207,39.551,0
1508657925.642,38.086,25.391,25.879,15.137,51.758,0
1508657925.646,42.969,25.391,32.715,20.508,45.410,0
1508657925.650,42.480,26.367,39.062,22.461,36.133,0
1508657925.654,42.969,29.297,41.016,27.344,14.648,0
1508657925.658,38.574,25.391,38.086,22.949,4.395,0
1508657925.662,41.016,29.785,38.574,28.320,-9.766,0
1508657925.666,46.875,30.273,33.203,37.109,9.277,0
1508657925.670,47.852,31.250,32.715,32.227,29.785,0
1508657925.673,50.781,40.527,50.781,41.504,26.367,0
1508657925.677,62.012,51.270,64.941,61.523,0.000,0
1508657925.681,66.895,53.711,59.082,60.059,7.324,0
1508657925.685,64.941,53.711,53.223,53.223,34.180,0
1508657925.689,56.152,42.969,43.457,41.992,28.320,0
1508657925.693,44.434,30.273,32.227,38.086,42.969,0
1508657925.697,40.527,31.738,34.180,40.039,29.785,0
1508657925.701,44.434,34.668,38.086,38.574,25.879,0
1508657925.705,48.340,35.645,43.945,52.246,44.434,0
1508657925.709,44.434,33.203,42.969,49.805,25.391,0
1508657925.712,41.504,27.344,26.855,23.438,11.719,0
1508657925.716,43.945,20.996,13.672,16.113,63.477,0
1508657925.720,53.711,31.250,32.227,34.180,50.781,0
1508657925.724,42.480,29.785,42.969,30.762,-2.441,0
1508657925.728,31.738,23.438,37.598,16.113,3.906,0
1508657925.732,41.504,32.227,40.039,24.902,29.785,0
1508657925.736,46.387,39.551,40.527,34.668,18.066,0
1508657925.740,46.875,39.062,38.086,31.250,-3.906,0
1508657925.744,41.016,32.715,34.180,20.508,29.297,0
1508657925.748,41.016,35.645,37.109,26.855,31.738,0
1508657925.752,42.480,32.227,30.273,26.367,39.062,0
1508657925.755,40.527,27.344,34.180,24.902,33.203,0
1508657925.759,34.180,26.367,41.016,31.250,1.953,0
1508657925.763,32.227,26.367,26.855,24.414,8.789,0
1508657925.767,41.016,29.785,21.484,27.344,-12.207,0
1508657925.771,35.156,21.973,16.602,25.879,-21.484,0
1508657925.775,29.785,16.602,24.902,21.973,17.578,0
1508657925.779,36.133,22.461,47.363,27.832,17.578,0
1508657925.783,30.273,17.578,41.992,22.461,17.090,0
1508657925.787,18.066,3.906,24.902,7.812,41.504,0
1508657925.791,19.043,4.395,18.066,5.371,46.875,0
1508657925.795,23.438,12.207,16.113,12.207,10.254,0
1508657925.798,22.461,13.672,26.367,23.438,2.930,0
1508657925.802,19.043,14.160,32.715,19.043,33.203,0
1508657925.806,23.926,19.531,32.227,12.695,23.438,0
1508657925.810,28.809,21.973,35.156,15.137,15.625,0
1508657925.814,37.109,29.297,29.785,30.273,0.488,0
1508657925.818,39.062,30.762,23.926,39.062,22.461,0
1508657925.822,35.156,29.297,26.855,39.062,47.363,0
1508657925.826,35.156,24.902,32.227,37.598,19.531,0
1508657925.830,32.715,15.137,33.691,31.250,15.137,0
1508657925.834,37.598,21.973,35.645,36.621,33.691,0
1508657925.837,45.898,33.691,38.574,46.387,39.551,0
1508657925.841,44.922,32.227,34.180,46.387,19.043,0
1508657925.845,41.016,21.484,32.715,40.039,8.789,0
1508657925.849,39.551,19.043,34.180,31.250,36.621,0
1508657925.853,37.598,20.508,18.555,19.043,41.504,0
1508657925.857,41.992,23.438,22.461,31.738,-2.441,0
1508657925.861,50.781,30.762,41.504,47.852,-16.113,0
1508657925.865,53.223,34.668,35.156,48.340,20.996,0
1508657925.869,53.711,37.598,27.832,52.734,35.156,0
1508657925.873,57.129,41.016,38.086,49.805,27.344,0
1508657925.877,62.988,41.504,49.316,49.316,38.086,0
1508657925.880,67.871,43.945,55.176,56.641,37.598,0
1508657925.884,68.848,48.828,53.223,60.547,31.250,0
1508657925.888,63.965,46.875,49.316,58.594,41.016,0
1508657925.892,61.523,45.898,47.852,53.223,51.758,0
1508657925.896,61.035,42.480,44.434,48.340,41.504,0
1508657925.900,67.871,47.363,50.781,58.105,27.344,0
1508657925.904,69.336,50.781,43.457,58.594,24.414,0
1508657925.908,63.477,44.922,30.762,51.758,26.367,0
1508657925.912,64.453,44.922,38.086,53.711,23.438,0
1508657925.916,60.059,39.062,39.551,47.852,1.465,0
1508657925.920,45.898,26.367,31.250,40.527,0.000,0
1508657925.923,43.945,24.902,29.785,33.691,29.785,0
1508657925.927,53.711,34.668,34.180,37.598,40.039,0
1508657925.931,53.711,33.691,36.621,40.527,31.250,0
1508657925.935,49.805,29.297,36.621,35.645,15.137,0
1508657925.939,54.199,35.645,36.133,42.969,21.973,0
1508657925.943,63.477,44.434,44.434,57.129,54.199,0
1508657925.947,63.477,42.480,51.758,49.316,38.574,0
1508657925.951,58.594,37.109,44.434,46.875,4.395,0
1508657925.955,56.152,31.738,34.180,49.805,15.137,0
1508657925.959,51.270,28.809,32.715,42.480,10.254,0
1508657925.962,52.246,29.297,35.645,40.039,-8.301,0
1508657925.966,55.664,30.273,31.738,42.969,1.953,0
1508657925.970,52.734,30.762,33.203,41.504,37.598,0
1508657925.974,56.152,33.203,30.762,41.016,49.805,0
1508657925.978,49.805,25.391,14.160,36.133,39.551,0
1508657925.982,39.551,15.137,12.695,21.973,43.945,0
1508657925.986,48.340,21.484,30.273,26.367,45.410,0
1508657925.990,52.734,29.297,35.156,34.668,37.598,0
1508657925.994,51.270,32.715,39.062,41.504,27.344,0
1508657925.998,54.199,34.668,40.527,41.504,27.832,0
1508657926.002,63.477,42.969,46.387,41.992,30.762,0
1508657926.005,55.176,41.016,39.062,38.574,33.203,0
1508657926.009,38.574,28.809,25.879,32.227,40.527,0
1508657926.013,34.180,25.879,23.926,33.691,26.855,0
1508657926.017,36.133,27.832,22.461,28.809,27.832,0
1508657926.021,35.156,26.855,26.855,26.367,20.996,0
1508657926.025,31.738,19.531,24.414,17.578,-5.371,0
1508657926.029,30.762,14.160,20.020,14.648,16.113,0
1508657926.033,29.297,19.531,28.809,19.531,30.273,0
1508657926.037,29.785,23.438,34.180,11.230,23.926,0
1508657926.041,27.832,22.949,33.203,12.207,37.598,0
1508657926.045,35.156,29.785,28.809,21.973,11.230,0
1508657926.048,39.551,32.227,26.855,22.461,20.020,0
1508657926.052,44.434,36.133,36.621,28.320,16.113,0
1508657926.056,42.969,34.180,42.480,26.855,6.348,0
1508657926.060,38.086,29.785,41.504,26.367,42.969,0
1508657926.064,37.109,29.297,35.156,29.297,34.668,0
1508657926.068,30.273,23.438,22.949,21.484,26.855,0
1508657926.072,28.320,19.043,18.555,19.043,25.391,0
1508657926.076,29.785,19.531,20.020,29.297,33.691,0
1508657926.080,29.785,22.949,24.414,39.062,43.945,0
1508657926.084,28.809,24.414,25.391,28.320,8.301,0
1508657926.087,34.668,28.809,27.832,23.438,5.859,0
1508657926.091,42.969,33.203,33.691,32.227,41.504,0
1508657926.095,49.316,34.180,37.109,39.551,22.461,0
1508657926.099,51.758,37.109,38.086,40.039,-2.930,0
1508657926.103,49.316,38.574,30.762,34.668,19.531,0
1508657926.107,47.363,36.621,29.297,38.086,66.406,0
1508657926.111,41.504,32.227,35.156,27.832,60.059,0
1508657926.115,30.273,26.367,25.879,11.230,26.855,0
1508657926.119,22.949,18.555,14.160,4.883,49.805,0
1508657926.123,30.273,24.902,21.973,13.672,60.059,0
1508657926.127,31.250,27.832,22.461,13.672,27.344,0
1508657926.130,29.785,26.855,14.160,10.254,5.859,0
1508657926.134,31.738,27.832,14.648,17.090,10.254,0
1508657926.138,33.691,26.855,23.438,16.602,27.344,0
1508657926.142,39.062,32.227,33.691,20.996,4.883,0
1508657926.146,34.180,27.832,25.391,26.855,13.184,0
1508657926.150,32.715,23.926,22.949,28.320,61.523,0
1508657926.154,45.410,33.691,36.621,28.809,68.359,0
1508657926.158,52.734,37.598,37.598,28.809,62.988,0
1508657926.162,48.828,33.691,35.645,31.250,42.480,0
1508657926.166,50.781,29.297,34.180,33.691,34.180,0
1508657926.170,51.758,26.367,29.297,39.062,51.758,0
1508657926.173,50.293,30.273,35.156,36.621,47.852,0
1508657926.177,54.199,33.203,33.691,17.578,39.062,0
1508657926.181,58.594,32.227,33.691,7.324,36.621,0
1508657926.185,57.129,32.715,41.992,3.906,27.344,0
1508657926.189,46.875,27.832,40.527,-6.836,9.766,0
1508657926.193,45.898,22.461,35.156,-12.207,47.852,0
1508657926.197,56.152,29.297,33.691,-5.371,62.988,0
1508657926.201,51.270,30.273,32.715,-7.812,20.020,0
1508657926.205,36.133,20.020,23.926,-20.020,13.184,0
1508657926.209,21.973,13.184,11.719,-24.414,32.715,0
1508657926.212,19.531,12.695,11.230,-15.625,31.250,0
1508657926.216,26.855,20.996,22.949,-4.395,40.039,0
1508657926.220,32.715,29.297,28.809,-5.859,35.156,0
1508657926.224,32.227,32.227,22.461,-4.395,46.875,0
1508657926.228,35.156,39.551,28.809,8.789,60.547,0
1508657926.232,41.992,42.480,35.645,20.508,3.906,0
1508657926.236,34.668,29.297,28.320,15.137,-0.977,0
1508657926.240,27.344,21.973,28.320,5.859,41.504,0
1508657926.244,28.320,25.879,30.273,8.789,58.105,0
1508657926.248,27.344,25.879,26.367,9.277,25.391,0
1508657926.252,25.879,25.879,21.973,9.277,9.277,0
1508657926.255,27.344,29.297,30.273,19.531,30.273,0
1508657926.259,30.762,33.203,44.922,25.879,18.066,0
1508657926.263,34.668,36.133,49.805,27.832,15.137,0
1508657926.267,32.715,34.668,42.480,26.367,11.719,0
1508657926.271,26.367,29.297,28.809,20.020,10.742,0
1508657926.275,34.180,36.621,31.250,33.203,1.953,0
1508657926.279,40.039,41.992,40.039,40.527,-8.301,0
1508657926.283,40.039,38.574,41.992,39.551,32.227,0
1508657926.287,43.457,40.039,54.199,52.734,64.941,0
1508657926.291,38.574,33.691,49.316,60.059,36.621,0
1508657926.295,37.598,26.367,35.645,62.500,19.531,0
1508657926.298,40.039,28.320,29.785,67.871,40.527,0
1508657926.302,42.480,28.320,29.785,77.148,33.203,0
1508657926.306,41.504,22.461,26.855,89.355,18.555,0
1508657926.310,34.668,16.602,18.066,80.566,8.301,0
1508657926.314,39.062,23.438,24.414,78.125,-3.418,0
1508657926.318,50.781,35.156,38.086,98.145,17.090,0
1508657926.322,47.363,28.320,35.645,99.609,13.184,0
1508657926.326,41.504,20.020,26.367,83.008,-9.277,0
1508657926.330,42.480,21.973,29.785,78.613,15.625,0
1508657926.334,44.922,26.367,34.180,81.543,52.734,0
1508657926.337,47.363,27.832,35.645,82.520,20.020,0
1508657926.341,36.133,15.625,29.297,71.777,-14.648,0
1508657926.345,29.785,9.277,23.438,64.453,18.555,0
1508657926.349,30.273,9.277,28.320,65.918,28.809,0
1508657926.353,29.785,4.395,23.926,62.500,19.531,0
1508657926.357,36.133,7.324,16.602,59.570,38.574,0
1508657926.361,40.527,16.602,18.555,58.105,41.504,0
1508657926.365,41.016,18.066,23.438,60.059,25.879,0
1508657926.369,39.551,15.625,24.902,60.059,15.625,0
1508657926.373,40.039,16.113,31.738,56.641,25.879,0
1508657926.377,48.828,25.879,42.969,59.570,53.711,0
1508657926.380,55.176,36.133,50.293,66.406,39.551,0
1508657926.384,61.035,42.969,56.152,72.754,4.883,0
1508657926.388,54.688,36.621,47.363,67.871,19.531,0
1508657926.392,42.969,26.367,40.039,56.641,49.316,0
1508657926.396,50.293,32.227,46.875,62.988,31.738,0
1508657926.400,45.898,27.344,41.992,60.547,7.812,0
1508657926.404,40.039,20.020,34.180,50.293,32.715,0
1508657926.408,39.062,15.625,33.691,45.898,43.457,0
1508657926.412,37.109,11.719,26.855,47.363,39.551,0
1508657926.416,39.062,15.137,20.020,53.223,47.363,0
1508657926.420,32.227,15.137,22.461,41.992,31.250,0
1508657926.423,30.762,15.137,23.926,34.668,21.973,0
1508657926.427,45.410,29.297,34.668,49.316,-2.441,0
1508657926.431,48.828,34.668,40.039,44.922,-14.160,0
1508657926.435,44.922,29.785,40.527,33.691,10.254,0
1508657926.439,44.434,26.855,37.598,36.621,-3.418,0
1508657926.443,31.738,18.066,26.367,27.344,-14.160,0
1508657926.447,22.461,16.113,21.484,24.902,20.508,0
1508657926.451,22.949,20.020,27.344,32.227,36.133,0
1508657926.455,20.996,19.043,30.273,32.227,47.363,0
1508657926.459,25.391,22.461,33.203,33.203,45.898,0
1508657926.462,22.461,18.555,34.180,25.879,12.695,0
1508657926.466,16.602,11.719,24.414,18.555,19.531,0
1508657926.470,22.949,18.555,24.414,18.066,0.000,0
1508657926.474,28.809,25.391,35.645,20.020,-22.949,0
1508657926.478,20.996,17.578,30.762,17.090,-5.859,0
1508657926.482,18.066,14.648,26.367,14.160,3.418,0
1508657926.486,28.320,20.996,36.133,22.949,-0.488,0
1508657926.490,33.691,24.414,37.598,23.438,0.488,0
1508657926.494,37.109,29.297,36.621,23.438,14.160,0
1508657926.498,44.922,32.227,40.527,28.809,32.715,0
1508657926.502,43.945,27.832,31.738,29.297,25.879,0
1508657926.505,39.062,25.391,28.320,31.250,14.648,0
1508657926.509,40.039,29.297,29.785,28.320,30.762,0
1508657926.513,40.039,32.715,29.297,23.926,12.207,0
1508657926.517,41.016,37.598,39.551,29.785,-31.738,0
1508657926.521,36.621,37.109,38.574,23.438,-36.621,0
1508657926.525,30.273,31.250,31.738,17.090,7.324,0
1508657926.529,30.273,29.297,30.762,16.113,21.484,0
1508657926.533,36.133,30.762,37.109,20.996,38.574,0
1508657926.537,41.016,27.832,34.668,21.484,51.758,0
1508657926.541,41.992,21.484,31.738,25.391,30.273,0
1508657926.545,39.551,18.066,30.762,27.832,37.598,0
1508657926.548,29.785,9.766,16.602,13.672,28.320,0
1508657926.552,30.762,6.348,10.742,14.648,46.387,0
1508657926.556,40.039,12.207,18.555,22.949,53.223,0
1508657926.560,40.527,16.602,29.297,30.762,23.438,0
1508657926.564,41.016,16.602,33.203,25.391,26.367,0
1508657926.568,45.898,22.461,36.133,21.484,20.020,0
1508657926.572,51.270,28.809,34.668,38.574,23.926,0
1508657926.576,54.199,29.297,32.227,46.875,19.043,0
1508657926.580,50.781,26.367,39.062,44.922,12.207,0
1508657926.584,43.945,20.508,32.227,41.016,41.016,0
1508657926.587,45.410,24.902,33.203,43.457,61.035,0
1508657926.591,53.711,33.203,42.480,53.223,62.988,0
1508657926.595,50.781,33.691,45.410,47.363,52.246,0
1508657926.599,43.945,25.879,39.551,32.227,38.574,0
1508657926.603,47.852,21.973,25.879,33.691,32.227,0
1508657926.607,51.758,25.879,27.832,41.016,24.414,0
1508657926.611,46.875,16.113,31.738,37.109,20.508,0
1508657926.615,52.734,18.555,38.086,41.504,19.531,0
1508657926.619,58.594,32.227,45.898,58.105,19.531,0
1508657926.623,62.500,36.621,54.199,62.012,11.719,0
1508657926.627,65.430,38.086,63.965,56.152,26.367,0
1508657926.630,63.965,39.551,56.641,60.547,57.617,0
1508657926.634,64.941,41.992,46.875,59.082,52.246,0
1508657926.638,66.895,42.969,46.387,45.898,35.645,0
1508657926.642,68.359,44.922,45.898,46.875,29.297,0
1508657926.646,57.617,33.691,40.527,42.969,39.551,0
1508657926.650,53.711,29.297,40.039,39.062,24.902,0
1508657926.654,58.105,35.156,43.945,36.621,35.645,0
1508657926.658,54.688,36.133,43.457,28.809,38.086,0
1508657926.662,51.270,33.203,42.969,22.949,35.645,0
1508657926.666,53.223,36.621,41.504,26.367,24.902,0
1508657926.670,55.176,37.109,39.551,33.691,-0.488,0
1508657926.673,47.852,29.297,35.156,28.809,44.434,0
1508657926.677,51.758,32.715,32.715,29.785,56.152,0
1508657926.681,53.711,30.273,28.809,26.367,42.480,0
1508657926.685,46.875,21.484,20.508,24.414,53.711,0
1508657926.689,43.945,23.438,24.414,31.250,56.152,0
1508657926.693,48.828,32.715,35.645,32.227,41.992,0
1508657926.697,56.152,39.062,39.062,36.621,24.902,0
1508657926.701,61.035,42.969,37.598,42.480,28.809,0
1508657926.705,56.152,42.969,41.016,44.434,36.621,0
1508657926.709,44.434,38.086,44.922,41.504,37.598,0
1508657926.712,41.992,31.738,36.621,35.645,3.906,0
1508657926.716,43.945,25.391,28.809,30.273,-16.602,0
1508657926.720,36.621,14.648,15.137,26.367,14.160,0
1508657926.724,43.457,19.043,14.648,31.250,0.000,0
1508657926.728,52.246,25.879,26.855,31.250,-22.461,0
1508657926.732,41.504,14.160,25.391,21.484,21.973,0
1508657926.736,41.504,15.625,21.484,23.438,31.738,0
1508657926.740,52.246,24.902,22.461,30.273,6.348,0
1508657926.744,58.594,29.785,31.250,35.645,-5.859,0
1508657926.748,55.664,24.414,22.949,44.922,-0.488,0
1508657926.752,52.734,19.043,16.113,46.875,30.762,0
1508657926.755,56.152,26.855,24.414,46.387,8.301,0
1508657926.759,55.176,28.320,30.762,44.434,-13.184,0
1508657926.763,50.293,23.926,30.273,37.598,3.418,0
1508657926.767,47.852,24.902,31.738,36.621,16.602,0
1508657926.771,49.316,31.250,39.551,40.527,-4.883,0
1508657926.775,42.969,28.809,34.180,38.086,-5.371,0
1508657926.779,41.016,25.879,28.809,36.621,20.996,0
1508657926.783,52.734,32.227,32.227,48.340,2.441,0
1508657926.787,52.246,32.715,35.156,44.922,-4.883,0
1508657926.791,41.016,21.484,29.785,32.715,2.441,0
1508657926.795,37.109,17.578,26.855,35.156,8.789,0
1508657926.798,51.270,26.855,39.062,42.480,3.906,0
1508657926.802,68.848,40.039,53.711,52.734,-32.227,0
1508657926.806,66.895,41.992,52.734,54.688,-33.691,0
1508657926.810,62.500,38.086,39.062,51.758,6.348,0
1508657926.814,64.453,38.574,30.762,50.781,22.461,0
1508657926.818,55.176,29.785,26.855,38.574,6.836,0
1508657926.822,47.852,25.391,25.879,27.832,17.578,0
1508657926.826,48.828,26.855,27.832,25.879,21.484,0
1508657926.830,37.598,16.602,19.531,19.531,-0.977,0
1508657926.834,25.391,3.906,7.812,11.230,-8.301,0
1508657926.837,22.949,0.977,8.301,8.789,-7.812,0
1508657926.841,26.855,7.812,15.625,12.695,-10.742,0
1508657926.845,41.504,17.578,20.020,16.602,-11.230,0
1508657926.849,52.246,23.438,26.855,20.508,-14.648,0
1508657926.853,52.734,25.879,26.367,29.297,-10.742,0
1508657926.857,56.641,30.273,25.391,38.086,40.039,0
1508657926.861,58.594,31.250,25.391,36.621,24.414,0
1508657926.865,53.711,24.902,19.043,28.809,15.137,0
1508657926.869,57.617,25.879,13.184,32.715,51.270,0
1508657926.873,62.500,30.762,18.555,36.133,40.527,0
1508657926.877,60.547,31.250,17.090,40.527,13.184,0
1508657926.880,62.988,31.250,12.695,47.852,-0.977,0
1508657926.884,73.242,36.621,27.832,43.945,6.836,0
1508657926.888,79.102,42.969,41.992,42.480,27.344,0
1508657926.892,76.172,41.992,44.922,49.805,23.926,0
1508657926.896,69.336,33.203,30.762,45.410,10.742,0
1508657926.900,50.781,18.555,20.508,29.785,51.270,0
1508657926.904,51.270,17.090,27.344,41.992,51.270,0
1508657926.908,63.477,26.367,38.086,54.199,14.160,0
1508657926.912,55.176,18.066,30.273,41.016,7.324,0
1508657926.916,50.781,11.719,20.996,33.203,12.207,0
1508657926.920,48.828,15.137,22.461,31.250,16.602,0
1508657926.923,46.875,13.672,25.391,31.250,26.367,0
1508657926.927,45.410,12.207,25.879,32.715,24.414,1
1508657926.931,53.223,22.949,35.156,42.480,30.762,0
1508657926.935,66.895,39.062,49.316,56.152,31.250,0
1508657926.939,65.918,40.039,41.016,57.129,26.855,0
1508657926.943,61.035,38.086,33.691,48.340,31.738,0
1508657926.947,62.012,41.992,42.480,50.781,32.715,0
1508657926.951,64.453,44.922,47.363,57.129,14.160,0
1508657926.955,72.266,50.293,61.523,62.988,-3.906,0
1508657926.959,71.289,48.340,59.082,61.035,25.879,0
1508657926.962,58.594,39.551,43.945,53.223,47.363,0
1508657926.966,49.805,37.109,45.898,51.758,27.832,0
1508657926.970,47.852,35.156,47.852,51.758,9.277,0
1508657926.974,50.293,32.227,40.527,44.434,36.133,0
1508657926.978,51.758,32.227,38.086,41.504,37.109,0
1508657926.982,50.293,29.297,38.574,48.340,7.812,0
1508657926.986,46.387,28.320,38.086,49.805,17.090,0
1508657926.990,45.898,30.762,35.156,53.223,32.227,0
1508657926.994,54.199,38.086,40.527,59.082,54.199,0
1508657926.998,54.688,37.598,41.016,52.734,56.641,0
1508657927.002,45.898,27.344,33.203,43.945,35.156,0
1508657927.005,49.316,27.344,35.156,43.457,46.387,0
1508657927.009,51.758,31.738,32.715,46.875,39.551,0
1508657927.013,47.363,25.391,23.438,45.898,19.531,0
1508657927.017,47.852,21.973,24.902,46.387,15.625,0
1508657927.021,53.711,28.809,39.551,51.758,41.992,0
1508657927.025,58.594,36.621,45.898,58.105,43.945,0
1508657927.029,51.758,30.762,34.180,45.898,6.348,0
1508657927.033,42.969,21.973,30.273,39.551,38.086,0
1508657927.037,36.133,20.020,34.668,45.410,64.941,0
1508657927.041,38.574,20.996,34.180,42.480,15.625,0
1508657927.045,41.992,17.578,33.691,35.156,15.137,0
1508657927.048,40.039,11.719,26.855,31.250,39.062,0
1508657927.052,43.945,14.648,18.066,35.156,45.410,0
1508657927.056,43.945,19.531,25.391,40.527,49.316,0
1508657927.060,43.945,20.020,38.574,46.875,57.617,0
1508657927.064,49.805,20.508,37.109,44.434,40.039,0
1508657927.068,52.246,26.367,37.109,41.016,22.949,0
1508657927.072,48.340,27.832,37.598,39.062,12.695,0
1508657927.076,41.504,19.043,27.344,33.203,-28.320,0
1508657927.080,38.574,14.160,20.508,30.273,-3.906,0
1508657927.084,41.504,22.461,28.320,33.203,21.484,0
1508657927.087,46.875,27.832,35.156,31.738,-27.832,0
1508657927.091,45.410,20.020,27.344,30.762,-13.184,0
1508657927.095,50.781,22.949,25.391,36.621,34.668,0
1508657927.099,56.641,29.297,34.180,37.598,19.531,0
1508657927.103,48.828,23.438,36.621,36.133,9.766,0
1508657927.107,47.363,17.578,33.203,26.855,5.371,0
1508657927.111,48.828,19.043,30.273,31.250,-5.859,0
1508657927.115,45.898,22.949,26.855,33.203,2.441,0
1508657927.119,49.316,26.367,32.227,26.855,-14.648,0
1508657927.123,44.922,19.531,40.527,26.367,-4.395,0
1508657927.127,45.898,18.555,41.016,25.879,22.949,0
1508657927.130,61.035,34.668,46.387,32.715,-8.789,0
1508657927.134,58.105,36.133,44.922,32.227,-41.992,0
1508657927.138,42.969,22.461,26.855,22.949,-17.578,0
1508657927.142,44.434,21.973,20.508,25.391,25.879,0
1508657927.146,41.016,20.996,22.461,20.020,1.465,0
1508657927.150,29.785,12.695,20.020,3.906,13.184,0
1508657927.154,36.621,16.602,20.508,9.277,48.340,0
1508657927.158,50.293,26.367,21.484,25.879,8.301,0
1508657927.162,50.781,28.320,16.113,27.832,-4.883,0
1508657927.166,46.387,23.438,3.906,25.391,40.527,0
1508657927.170,50.293,26.855,-2.930,33.691,20.020,0
1508657927.173,54.688,29.297,-0.488,39.551,0.000,0
1508657927.177,54.199,28.809,0.977,34.668,10.254,0
1508657927.181,56.152,29.785,-5.371,34.668,-4.883,0
1508657927.185,62.012,31.250,-34.180,48.340,27.832,0
1508657927.189,72.754,38.574,-65.430,50.781,24.902,0
1508657927.193,75.195,39.062,-65.918,46.387,11.719,0
1508657927.197,72.754,33.691,-63.477,50.293,51.270,0
1508657927.201,76.660,35.156,-66.406,61.035,59.570,0
1508657927.205,69.824,29.785,-74.707,62.012,24.902,0
1508657927.209,64.941,22.461,-79.590,49.805,17.578,0
1508657927.212,74.707,27.344,-72.266,48.340,33.691,0
1508657927.216,74.707,28.809,-66.895,53.711,35.645,0
1508657927.220,82.520,37.598,-53.223,66.406,28.809,0
1508657927.224,82.031,35.645,-43.457,71.289,24.414,0
1508657927.228,68.359,25.879,-50.293,62.012,39.551,0
1508657927.232,68.848,32.227,-51.270,59.570,33.691,0
1508657927.236,73.242,36.621,-45.410,62.500,47.363,0
1508657927.240,73.730,35.156,-40.039,68.359,46.387,0
1508657927.244,77.637,38.574,-31.738,71.777,28.809,0
1508657927.248,78.125,39.062,-25.879,64.941,11.230,0
1508657927.252,66.895,31.738,-28.320,62.988,8.789,0
1508657927.255,59.570,27.344,-33.691,62.500,41.016,0
1508657927.259,52.734,17.578,-35.645,48.340,59.082,0
1508657927.263,42.480,10.254,-38.574,44.434,54.199,0
1508657927.267,42.480,12.207,-36.133,49.316,22.461,0
1508657927.271,41.016,9.277,-29.297,39.062,2.930,0
1508657927.275,29.297,0.488,-30.762,27.344,17.578,0
1508657927.279,24.414,0.000,-24.902,33.203,9.277,0
1508657927.283,35.156,11.719,-11.230,46.387,8.789,0
1508657927.287,39.551,14.648,-12.695,41.504,15.625,0
1508657927.291,33.691,8.301,-19.043,27.832,49.805,0
1508657927.295,37.109,9.766,-14.160,29.297,56.152,0
1508657927.298,44.434,17.578,-1.465,34.668,9.277,0
1508657927.302,41.504,18.555,4.395,35.156,34.668,0
1508657927.306,39.551,19.531,3.418,41.504,34.180,0
1508657927.310,46.387,25.879,9.766,55.176,3.906,0
1508657927.314,48.340,27.832,16.113,54.199,17.090,0
1508657927.318,45.898,26.855,14.160,46.387,34.668,0
1508657927.322,51.758,30.762,14.648,54.199,56.641,0
1508657927.326,56.152,29.297,10.742,57.129,28.809,0
1508657927.330,49.316,24.414,5.371,44.434,-13.672,0
1508657927.334,39.062,17.090,6.348,35.645,9.277,0
1508657927.337,39.062,12.695,2.441,33.203,54.199,0
1508657927.341,41.504,13.672,-1.953,26.367,47.363,0
1508657927.345,37.598,12.207,2.441,24.902,28.320,0
1508657927.349,41.504,16.602,12.695,31.738,54.199,0
1508657927.353,56.641,26.855,22.949,41.016,53.711,0
1508657927.357,59.570,28.809,19.043,53.711,16.602,0
1508657927.361,52.734,22.949,14.160,45.410,30.273,0
1508657927.365,48.828,21.973,16.602,37.109,47.363,0
1508657927.369,50.293,26.367,19.043,44.434,50.781,0
1508657927.373,59.570,32.715,23.438,49.805,41.992,0
1508657927.377,57.129,30.762,24.902,45.898,34.180,0
1508657927.380,60.547,30.273,29.297,46.387,55.176,0
1508657927.384,67.871,35.645,38.086,59.082,58.105,0
1508657927.388,62.988,33.691,40.039,62.012,66.895,0
1508657927.392,50.781,25.391,31.250,43.457,67.871,0
1508657927.396,44.922,20.020,25.391,38.574,60.547,0
1508657927.400,52.734,23.438,24.414,53.711,51.270,0
1508657927.404,51.758,18.066,20.996,48.340,28.320,0
1508657927.408,43.457,9.277,17.578,31.250,56.152,0
1508657927.412,41.992,12.695,17.090,40.527,65.918,0
1508657927.416,46.875,19.043,20.508,51.758,41.016,0
1508657927.420,44.434,20.996,28.320,41.016,48.340,0
1508657927.423,37.598,20.020,31.738,31.250,38.086,0
1508657927.427,35.645,16.113,35.645,36.621,12.695,0
1508657927.431,31.250,15.137,35.645,35.645,26.367,0
1508657927.435,29.297,17.090,34.668,22.461,20.508,0
1508657927.439,33.203,20.996,35.645,30.762,22.461,0
1508657927.443,34.668,23.438,37.109,41.504,52.246,0
1508657927.447,36.133,24.902,36.621,48.828,52.246,0
1508657927.451,34.180,20.996,23.438,53.223,41.504,0
1508657927.455,34.180,13.672,25.391,49.805,20.996,0
1508657927.459,40.527,20.508,38.574,59.570,29.785,0
1508657927.462,48.828,29.785,48.828,68.359,-5.371,0
1508657927.466,50.293,23.438,39.062,52.734,-12.207,0
1508657927.470,46.387,16.113,29.297,50.293,29.785,0
1508657927.474,44.434,14.648,30.273,51.270,31.738,0
1508657927.478,42.480,10.742,21.484,43.457,45.898,0
1508657927.482,37.598,10.254,18.066,47.363,30.273,0
1508657927.486,26.855,2.930,13.184,41.504,12.695,0
1508657927.490,25.391,1.953,13.672,40.039,13.672,0
1508657927.494,38.086,15.625,34.180,54.199,5.859,0
1508657927.498,44.922,22.949,47.363,56.641,16.602,0
1508657927.502,38.574,17.578,41.016,50.781,34.180,0
1508657927.505,34.668,16.113,32.227,43.945,13.184,0
1508657927.509,33.691,16.113,29.297,44.434,6.836,0
1508657927.513,33.691,8.301,30.273,43.945,52.734,0
1508657927.517,31.738,0.977,30.273,38.086,76.172,0
1508657927.521,24.414,-1.465,23.438,34.180,28.320,0
1508657927.525,23.438,4.883,18.555,33.203,24.414,0
1508657927.529,29.297,11.230,18.555,35.156,58.594,0
1508657927.533,35.645,17.090,25.391,41.016,45.898,0
1508657927.537,39.551,20.996,27.832,47.852,72.754,0
1508657927.541,36.133,20.996,24.414,45.410,87.891,0
1508657927.545,34.180,17.578,24.414,37.598,61.523,0
1508657927.548,31.250,13.184,22.461,31.738,58.594,0
1508657927.552,30.762,16.113,25.879,36.133,41.016,0
1508657927.556,29.297,15.625,28.809,38.574,42.480,0
1508657927.560,26.367,12.207,32.227,34.668,66.406,0
1508657927.564,38.086,21.484,41.504,44.922,58.594,0
1508657927.568,49.316,33.203,47.363,56.152,20.508,0
1508657927.572,44.434,34.668,40.527,58.105,37.109,0
1508657927.576,39.551,33.691,37.109,54.199,68.848,0
1508657927.580,50.781,43.457,47.852,59.082,41.992,0
1508657927.584,59.570,51.270,52.246,74.707,37.109,0
1508657927.587,55.176,44.922,47.852,75.195,33.691,0
1508657927.591,51.270,41.992,47.852,62.012,20.020,0
1508657927.595,50.293,41.016,41.504,53.711,18.066,0
1508657927.599,41.992,33.203,34.180,50.781,3.906,0
1508657927.603,37.598,25.391,32.227,52.734,19.531,0
1508657927.607,40.527,21.484,23.926,53.711,72.266,0
1508657927.611,47.363,20.508,22.949,50.781,66.406,0
1508657927.615,54.199,25.391,31.250,42.480,41.504,0
1508657927.619,56.152,26.855,24.902,37.109,61.523,0
1508657927.623,59.570,26.855,18.066,39.062,37.109,0
1508657927.627,58.105,27.344,26.367,41.016,3.906,0
1508657927.630,51.758,23.438,28.809,41.016,15.137,0
1508657927.634,48.340,23.926,25.391,41.016,46.875,0
1508657927.638,43.457,22.949,28.809,38.086,54.688,0
1508657927.642,44.922,29.297,35.645,34.668,11.230,0
1508657927.646,48.340,34.180,30.762,24.414,-5.859,0
1508657927.650,50.781,34.668,30.273,18.555,64.453,0
1508657927.654,52.734,37.109,35.645,27.344,60.059,0
1508657927.658,43.457,28.320,26.855,17.090,34.180,0
1508657927.662,39.551,22.461,17.090,4.395,34.180,0
1508657927.666,40.039,19.531,13.672,-0.977,48.828,0
1508657927.670,46.875,25.391,19.531,0.488,61.035,0
1508657927.673,43.945,25.391,22.461,-4.395,35.156,0
1508657927.677,33.691,17.090,19.043,-17.578,42.969,0
1508657927.681,30.273,13.672,19.531,-12.207,50.293,0
1508657927.685,33.691,20.020,26.855,-2.930,38.574,0
1508657927.689,31.250,21.484,26.367,-1.465,23.438,0
1508657927.693,26.855,16.602,19.531,-5.859,36.133,0
1508657927.697,29.785,19.043,13.672,0.488,48.340,0
1508657927.701,26.855,13.672,3.906,2.930,50.781,0
1508657927.705,35.645,20.020,11.230,12.695,72.266,0
1508657927.709,41.016,24.902,16.113,16.602,59.570,0
1508657927.712,39.551,22.461,20.020,25.391,42.480,0
1508657927.716,45.410,26.855,26.367,41.016,48.340,0
1508657927.720,46.875,28.809,20.020,38.086,41.504,0
1508657927.724,49.805,32.715,23.438,43.945,31.250,0
1508657927.728,50.781,33.203,33.203,52.734,22.461,0
1508657927.732,46.387,29.297,32.715,57.129,6.836,0
1508657927.736,45.410,31.250,32.227,62.988,13.672,0
1508657927.740,47.363,32.227,32.715,74.707,41.504,0
1508657927.744,42.480,28.320,30.762,81.543,34.180,0
1508657927.748,32.715,17.090,20.508,73.242,14.648,0
1508657927.752,32.227,11.230,15.137,70.312,41.016,0
1508657927.755,41.504,20.508,20.508,76.660,69.824,0
1508657927.759,46.387,25.391,29.297,85.938,45.898,0
1508657927.763,43.457,19.531,19.043,87.891,20.508,0
1508657927.767,38.574,15.137,7.324,86.426,10.742,0
1508657927.771,38.086,18.066,15.625,89.844,24.902,0
1508657927.775,46.875,26.367,21.973,98.145,34.180,0
1508657927.779,50.781,25.391,21.484,91.797,12.695,0
1508657927.783,48.340,21.484,21.973,81.055,29.297,0
1508657927.787,49.805,23.926,23.926,83.008,46.387,0
1508657927.791,54.199,23.926,25.879,86.426,2.930,0
1508657927.795,53.223,20.020,23.438,77.637,-24.414,0
1508657927.798,52.734,20.508,19.043,74.707,18.555,0
1508657927.802,58.105,27.344,26.367,86.914,56.641,0
1508657927.806,58.594,24.902,25.391,75.195,51.758,0
1508657927.810,62.012,27.832,20.508,63.965,44.922,0
1508657927.814,68.359,34.668,18.066,67.383,69.824,0
1508657927.818,79.590,42.969,23.926,72.754,67.871,0
1508657927.822,82.031,46.875,29.785,69.336,45.898,0
1508657927.826,75.195,41.504,30.762,60.547,41.504,0
1508657927.830,78.125,39.551,37.109,66.895,24.414,0
1508657927.834,73.730,40.527,41.016,66.895,51.270,0
1508657927.837,70.801,48.340,42.969,66.895,38.086,0
1508657927.841,67.383,47.852,37.109,65.918,9.277,0
1508657927.845,64.941,41.504,32.227,57.129,48.828,0
1508657927.849,71.777,45.410,40.527,63.965,41.016,0
1508657927.853,70.801,49.316,37.598,68.359,24.902,0
1508657927.857,68.359,45.898,22.461,54.688,46.875,0
1508657927.861,67.383,44.434,22.949,48.828,40.527,0
1508657927.865,61.523,43.945,35.645,43.457,25.391,0
1508657927.869,61.035,47.363,46.875,48.828,29.297,0
1508657927.873,57.617,41.992,37.598,50.781,32.715,0
1508657927.877,46.875,29.297,21.973,39.551,26.855,0
1508657927.880,48.828,32.715,23.438,42.480,14.160,0
1508657927.884,45.410,31.250,19.043,40.527,13.672,0
1508657927.888,30.762,20.020,5.859,24.902,20.020,0
1508657927.892,27.832,18.066,2.441,21.484,39.551,0
1508657927.896,29.785,15.625,3.906,22.949,55.664,0
1508657927.900,27.344,13.672,8.301,22.949,43.945,0
1508657927.904,25.879,16.113,12.695,19.531,52.734,0
1508657927.908,27.344,21.484,15.137,19.043,32.715,0
1508657927.912,26.367,22.461,16.113,20.996,0.488,0
1508657927.916,28.809,21.484,12.207,29.297,12.207,0
1508657927.920,32.715,23.926,18.066,35.156,44.922,0
1508657927.923,40.527,32.715,30.273,35.156,54.688,0
1508657927.927,32.715,26.855,22.949,23.438,58.594,0
1508657927.931,20.996,15.137,8.301,7.324,61.523,0
1508657927.935,31.250,20.508,18.555,16.113,29.785,0
1508657927.939,39.551,27.344,32.227,31.738,-6.348,0
1508657927.943,37.598,24.902,33.203,27.832,-9.766,0
1508657927.947,35.645,17.578,31.738,29.785,18.066,0
1508657927.951,34.180,16.602,26.855,23.438,34.668,0
1508657927.955,26.855,13.672,23.438,10.254,30.762,0
1508657927.959,22.949,10.742,27.344,10.254,30.762,0
1508657927.962,30.273,14.648,32.715,17.090,38.574,0
1508657927.966,35.156,19.043,32.227,29.785,28.809,0
1508657927.970,42.480,23.438,30.273,41.016,8.789,0
1508657927.974,42.480,18.555,22.461,41.992,-6.348,0
1508657927.978,35.156,8.789,13.184,31.250,3.418,0
1508657927.982,33.203,9.277,22.461,40.527,15.625,0
1508657927.986,26.367,9.277,25.879,33.203,26.367,0
1508657927.990,34.668,11.230,24.902,26.855,32.227,0
1508657927.994,43.457,19.043,33.691,35.156,43.945,0
1508657927.998,41.504,20.508,37.598,47.852,41.016,0
1508657928.002,38.086,14.160,37.109,49.805,20.020,0
1508657928.005,41.504,19.531,45.410,49.316,34.180,0
1508657928.009,47.852,24.902,48.340,51.270,17.578,0
1508657928.013,44.434,20.020,44.922,43.945,32.715,0
1508657928.017,47.852,22.949,46.875,55.664,41.016,0
1508657928.021,40.527,15.625,38.574,53.223,23.438,0
1508657928.025,30.273,9.277,33.203,41.992,40.527,0
1508657928.029,35.645,18.555,40.039,49.805,25.879,0
1508657928.033,35.645,18.555,32.227,50.293,30.762,0
1508657928.037,22.949,7.812,15.137,34.180,47.852,0
1508657928.041,23.926,13.672,20.996,16.602,41.992,0
1508657928.045,30.273,21.484,23.926,29.297,35.645,0
1508657928.048,29.785,21.484,24.902,54.199,41.016,0
1508657928.052,32.227,26.855,37.109,39.551,52.734,0
1508657928.056,35.645,32.715,41.504,23.438,46.387,0
1508657928.060,38.086,39.062,36.133,38.086,14.648,0
1508657928.064,34.180,42.480,31.738,43.945,-9.277,0
1508657928.068,39.551,42.480,34.668,37.109,5.371,0
1508657928.072,49.316,49.316,38.086,40.527,63.965,0
1508657928.076,43.945,48.828,35.645,49.316,47.852,0
1508657928.080,31.738,33.691,29.297,46.387,-8.301,0
1508657928.084,30.273,26.855,26.367,28.809,10.742,0
1508657928.087,33.203,30.762,24.414,23.438,35.645,0
1508657928.091,31.738,28.809,19.043,25.879,18.066,0
1508657928.095,35.645,32.715,22.461,33.691,-4.883,0
1508657928.099,38.086,39.551,30.762,41.504,6.836,0
1508657928.103,35.156,31.250,25.391,42.480,37.598,0
1508657928.107,43.457,34.180,23.926,60.059,-0.977,0
1508657928.111,45.410,33.691,19.531,60.059,-14.160,0
1508657928.115,34.668,25.879,15.625,44.434,10.742,0
1508657928.119,34.668,28.320,18.555,58.594,5.859,0
1508657928.123,34.668,24.414,9.277,55.664,23.926,0
