timestamps,TP9,AF7,AF8,TP10,Right AUX,Marker0
1508627239.422,1.953,39.062,24.414,0.000,64.453,0
1508627239.426,-2.930,39.551,18.066,-7.324,47.852,0
1508627239.430,0.000,45.410,26.367,-4.883,20.020,0
1508627239.434,0.488,41.016,30.273,-1.465,2.441,0
1508627239.438,0.977,40.527,29.785,0.488,23.926,0
1508627239.441,-1.953,33.691,29.297,-2.441,48.340,0
1508627239.445,-4.395,31.250,31.738,0.488,39.062,0
1508627239.449,2.930,39.551,32.227,4.883,13.672,0
1508627239.453,7.324,41.992,44.434,8.789,13.184,0
1508627239.457,6.836,41.992,55.176,10.254,19.043,0
1508627239.461,9.766,42.480,29.297,11.230,-6.836,0
1508627239.465,1.465,30.273,12.207,-6.836,-20.020,0
1508627239.469,1.465,32.227,27.832,-8.789,3.906,0
1508627239.473,8.301,42.969,35.156,6.348,7.812,0
1508627239.477,5.371,39.551,34.668,6.348,24.902,0
1508627239.481,8.301,36.621,38.574,2.441,35.645,0
1508627239.484,5.859,36.621,34.180,0.977,20.020,0
1508627239.488,1.465,29.297,33.691,8.301,2.441,0
1508627239.492,4.395,30.273,39.062,13.672,-8.789,0
1508627239.496,15.137,38.574,42.969,17.090,24.902,0
1508627239.500,18.555,34.668,45.410,18.555,41.504,0
1508627239.504,2.441,20.020,39.551,10.254,20.996,0
1508627239.508,-0.977,14.648,36.621,7.324,34.180,0
1508627239.512,13.184,30.762,40.527,15.137,75.684,0
1508627239.516,16.113,39.062,45.898,16.602,74.219,0
1508627239.520,9.766,29.785,38.086,14.648,76.660,0
1508627239.523,10.254,29.297,36.133,11.719,89.844,0
1508627239.527,7.324,29.297,41.016,12.695,97.656,0
1508627239.531,11.230,29.297,41.016,16.113,67.383,0
1508627239.535,20.996,39.062,51.758,15.137,50.781,0
1508627239.539,10.254,28.320,43.457,6.348,75.195,0
1508627239.543,6.836,24.414,40.039,2.441,64.941,0
1508627239.547,18.555,39.551,50.293,17.578,55.176,0
1508627239.551,14.160,38.086,44.922,19.043,51.270,0
1508627239.555,10.742,37.109,40.039,12.695,50.781,0
1508627239.559,11.719,36.621,44.434,13.184,77.148,0
1508627239.563,-1.465,25.879,38.574,4.395,79.102,0
1508627239.566,-11.230,20.996,33.691,-3.418,58.105,0
1508627239.570,-9.766,21.484,34.668,-2.930,65.430,0
1508627239.574,-6.836,20.508,32.715,-4.883,88.379,0
1508627239.578,-2.930,21.484,32.715,-2.441,84.961,0
1508627239.582,-1.465,27.344,41.992,3.906,91.309,0
1508627239.586,5.859,39.062,51.758,12.207,113.770,0
1508627239.590,5.859,40.039,53.223,11.719,97.168,0
1508627239.594,-6.836,30.273,43.457,-3.906,62.012,0
1508627239.598,-10.254,28.320,38.574,-7.812,42.480,0
1508627239.602,-5.859,31.250,42.480,-0.488,71.777,0
1508627239.606,1.953,31.738,43.945,5.371,81.543,0
1508627239.609,7.812,35.156,51.758,4.395,57.129,0
1508627239.613,1.465,30.762,48.340,-6.836,94.238,0
1508627239.617,-1.953,26.855,40.527,-9.766,83.496,0
1508627239.621,2.930,30.762,43.457,-2.441,68.359,0
1508627239.625,3.906,32.715,47.852,4.883,94.727,0
1508627239.629,6.836,35.645,50.293,5.371,66.895,0
1508627239.633,9.277,35.156,49.316,4.395,56.641,0
1508627239.637,1.465,27.344,44.434,2.930,50.781,0
1508627239.641,-6.348,17.090,36.133,-1.465,44.434,0
1508627239.645,0.488,27.832,39.062,-0.977,88.379,0
1508627239.648,5.859,36.621,46.875,4.395,98.633,0
1508627239.652,8.301,38.574,54.199,13.672,79.102,0
1508627239.656,-1.465,27.832,47.363,1.953,57.617,0
1508627239.660,-9.277,18.555,33.203,-8.301,54.688,0
1508627239.664,3.906,33.203,41.016,0.977,63.965,0
1508627239.668,8.789,39.062,51.758,6.836,36.621,0
1508627239.672,-0.977,29.297,52.734,9.766,41.992,0
1508627239.676,2.930,28.809,48.340,10.254,69.824,0
1508627239.680,11.719,35.156,49.316,12.695,46.875,0
1508627239.684,1.953,25.879,45.898,3.906,38.574,0
1508627239.688,-10.742,16.602,30.762,-7.812,59.570,0
1508627239.691,-4.883,23.926,28.320,-8.789,58.594,0
1508627239.695,6.836,26.855,38.574,-0.977,77.148,0
1508627239.699,10.254,28.809,45.898,10.254,57.617,0
1508627239.703,10.254,40.039,43.457,5.859,59.082,0
1508627239.707,0.977,36.621,35.645,-3.418,76.172,0
1508627239.711,-1.465,31.738,36.133,-4.395,30.273,0
1508627239.715,3.418,35.645,37.598,-3.906,2.930,0
1508627239.719,1.465,36.621,38.086,0.488,15.625,0
1508627239.723,-1.465,33.203,30.762,-3.418,13.672,0
1508627239.727,3.906,40.527,39.551,-5.859,21.484,0
1508627239.731,6.836,41.992,50.293,3.906,62.500,0
1508627239.734,6.348,33.203,37.109,1.953,29.785,0
1508627239.738,11.719,33.691,36.621,0.000,19.531,0
1508627239.742,12.695,37.109,41.504,4.883,34.668,0
1508627239.746,13.672,41.016,38.574,5.371,9.277,0
1508627239.750,11.230,37.598,36.621,-1.953,43.945,0
1508627239.754,6.836,34.668,38.086,-1.953,41.016,0
1508627239.758,13.184,38.086,48.340,7.812,-9.766,0
1508627239.762,21.973,49.805,54.688,16.113,11.230,0
1508627239.766,13.672,41.992,36.133,4.395,49.316,0
1508627239.770,6.836,36.133,32.227,-2.930,53.711,0
1508627239.773,5.371,37.598,43.457,0.488,57.617,0
1508627239.777,-5.371,22.949,32.715,-6.836,39.062,0
1508627239.781,-0.488,26.367,30.273,-0.488,41.016,0
1508627239.785,4.883,30.762,40.527,6.348,43.457,0
1508627239.789,6.836,30.273,46.875,6.348,53.223,0
1508627239.793,10.254,35.645,47.363,6.836,77.637,0
1508627239.797,1.953,28.809,43.457,6.836,99.121,0
1508627239.801,0.000,23.926,40.039,9.277,95.215,0
1508627239.805,10.742,34.668,44.922,18.066,58.594,0
1508627239.809,9.277,38.086,40.527,13.184,62.012,0
1508627239.813,0.488,30.273,45.410,0.488,101.562,0
1508627239.816,7.324,33.691,54.688,7.812,95.703,0
1508627239.820,1.953,30.762,41.016,13.184,66.895,0
1508627239.824,-6.836,19.043,35.645,1.953,76.660,0
1508627239.828,1.465,29.297,45.410,4.395,82.520,0
1508627239.832,5.371,32.227,49.805,10.254,83.984,0
1508627239.836,2.441,27.344,51.758,8.789,80.078,0
1508627239.840,4.395,31.738,54.199,13.184,75.684,0
1508627239.844,14.160,36.133,52.246,18.555,70.801,0
1508627239.848,17.578,40.527,57.617,20.508,57.129,0
1508627239.852,12.695,31.738,60.059,10.254,62.012,0
1508627239.856,6.836,28.320,54.688,6.836,88.379,0
1508627239.859,13.672,40.527,56.152,14.648,81.055,0
1508627239.863,22.949,47.363,61.523,19.043,57.129,0
1508627239.867,17.090,40.527,56.641,19.531,78.613,0
1508627239.871,12.695,33.691,43.945,15.625,92.285,0
1508627239.875,15.137,39.062,43.457,15.137,89.844,0
1508627239.879,19.531,42.969,49.805,17.578,69.824,0
1508627239.883,26.855,47.363,51.758,19.043,62.500,0
1508627239.887,29.785,51.270,48.828,17.090,89.844,0
1508627239.891,27.832,47.852,48.828,22.461,92.773,0
1508627239.895,23.926,51.270,44.434,25.391,69.336,0
1508627239.898,20.996,50.781,34.668,13.672,76.172,0
1508627239.902,23.438,47.363,38.086,18.555,99.121,0
1508627239.906,29.297,53.223,51.270,31.250,74.219,0
1508627239.910,26.855,48.828,48.340,23.926,73.242,0
1508627239.914,23.926,40.039,41.016,15.137,89.355,0
1508627239.918,29.785,47.363,47.363,21.484,76.172,0
1508627239.922,32.715,52.734,46.387,23.926,50.781,0
1508627239.926,22.461,42.969,40.039,19.043,56.641,0
1508627239.930,16.602,37.109,41.016,17.090,92.285,0
1508627239.934,21.973,41.504,44.434,19.043,96.680,0
1508627239.938,20.508,41.504,47.852,16.113,55.664,0
1508627239.941,14.648,37.109,47.363,8.301,66.895,0
1508627239.945,13.672,39.062,44.434,0.977,84.961,0
1508627239.949,6.836,36.133,38.086,-1.465,99.121,0
1508627239.953,1.465,35.156,38.574,-0.977,90.820,0
1508627239.957,-4.883,33.203,38.086,-6.836,63.965,0
1508627239.961,-15.137,22.461,33.203,-12.207,65.918,0
1508627239.965,-21.973,15.137,32.227,-17.578,79.590,0
1508627239.969,-21.484,19.531,31.738,-13.184,59.570,0
1508627239.973,-14.160,27.344,38.086,-7.324,52.734,0
1508627239.977,-9.277,32.227,44.434,-3.418,84.473,0
1508627239.981,-14.648,28.320,42.480,-5.859,99.121,0
1508627239.984,-12.207,30.273,37.109,-6.348,75.684,0
1508627239.988,-8.789,35.156,38.086,-0.488,79.590,0
1508627239.992,-13.672,35.156,35.156,-5.859,89.355,0
1508627239.996,-28.809,16.113,20.996,-15.625,57.617,0
1508627240.000,-27.832,13.184,23.926,-18.066,80.566,0
1508627240.004,-14.160,26.855,36.621,-7.812,111.328,0
1508627240.008,-21.484,18.555,37.109,-11.719,92.285,0
1508627240.012,-19.043,18.555,29.297,-21.973,62.012,0
1508627240.016,-12.695,27.344,28.809,-13.672,29.785,0
1508627240.020,-13.672,26.367,33.691,-15.137,41.016,0
1508627240.023,-8.301,23.926,28.809,-20.020,96.680,0
1508627240.027,-6.836,25.391,27.832,-21.484,88.379,0
1508627240.031,3.418,32.715,34.668,-12.695,44.922,0
1508627240.035,11.230,39.551,39.062,0.000,59.570,0
1508627240.039,15.625,45.898,44.922,7.324,54.688,0
1508627240.043,10.742,37.598,43.457,4.883,29.785,0
1508627240.047,4.883,28.320,33.203,-5.859,35.645,0
1508627240.051,9.277,32.227,32.227,-3.906,60.059,0
1508627240.055,4.883,28.320,31.738,-9.277,58.594,0
1508627240.059,10.742,31.250,30.762,-10.742,21.973,0
1508627240.063,16.602,36.133,38.574,-6.348,18.066,0
1508627240.066,15.137,37.598,41.016,-9.277,70.801,0
1508627240.070,13.672,36.621,38.086,-4.395,51.758,0
1508627240.074,17.090,37.598,40.527,2.930,18.555,0
1508627240.078,22.949,43.457,45.898,7.812,31.250,0
1508627240.082,18.555,41.504,44.922,5.371,56.152,0
1508627240.086,21.973,46.387,49.316,9.277,60.059,0
1508627240.090,20.996,42.480,44.922,6.348,45.410,0
1508627240.094,7.324,26.855,33.203,-5.859,32.227,0
1508627240.098,2.930,21.484,30.762,-5.859,25.391,0
1508627240.102,3.418,29.785,34.668,-7.812,24.414,0
1508627240.106,4.883,27.832,31.250,-8.789,10.742,0
1508627240.109,15.137,28.320,30.273,1.465,39.062,0
1508627240.113,19.043,35.645,42.480,4.395,36.621,0
1508627240.117,13.184,37.109,43.945,4.395,40.527,0
1508627240.121,18.555,40.039,40.039,15.625,71.289,0
1508627240.125,19.043,39.551,40.527,17.090,84.961,0
1508627240.129,13.184,37.598,41.016,18.555,100.586,0
1508627240.133,19.043,41.016,42.969,26.367,77.148,0
1508627240.137,17.090,37.109,41.504,16.602,73.730,0
1508627240.141,4.883,28.809,34.668,0.000,128.418,0
1508627240.145,1.953,28.320,32.227,-1.953,127.930,0
1508627240.148,0.977,27.832,29.785,0.488,68.359,0
1508627240.152,4.395,32.227,31.738,0.488,75.684,0
1508627240.156,13.184,42.969,37.109,1.465,129.395,0
1508627240.160,8.301,42.969,34.180,-1.465,129.395,0
1508627240.164,-1.465,35.156,30.762,-2.441,110.840,0
1508627240.168,-4.883,30.273,28.809,-5.859,100.098,0
1508627240.172,-5.371,34.180,27.344,-5.371,104.492,0
1508627240.176,-11.230,31.738,29.297,-9.277,97.656,0
1508627240.180,-9.277,34.180,40.527,-6.836,87.402,0
1508627240.184,1.465,40.039,39.062,-1.465,115.234,0
1508627240.188,-1.953,26.367,21.484,-12.207,127.930,0
1508627240.191,-8.789,23.438,20.996,-14.648,83.496,0
1508627240.195,-12.207,27.832,28.320,-5.859,67.871,0
1508627240.199,-12.207,28.320,24.902,-4.883,84.961,0
1508627240.203,-3.906,32.227,28.320,-9.277,89.844,0
1508627240.207,0.000,32.227,32.227,-9.766,60.059,0
1508627240.211,0.488,35.645,37.109,-2.930,47.363,0
1508627240.215,5.371,41.016,41.504,3.418,59.082,0
1508627240.219,5.371,37.109,39.551,-0.977,35.645,0
1508627240.223,0.977,32.227,35.156,-4.395,20.508,0
1508627240.227,0.488,35.156,40.527,-9.277,1.465,0
1508627240.231,6.348,37.598,58.105,-10.254,-12.207,0
1508627240.234,8.789,40.527,36.133,-3.418,9.277,0
1508627240.238,8.301,41.016,19.531,-1.953,4.395,0
1508627240.242,7.324,33.691,28.320,-3.906,-23.926,0
1508627240.246,6.836,33.691,35.156,-1.465,-12.695,0
1508627240.250,6.836,35.645,35.645,1.465,-13.184,0
1508627240.254,11.230,41.504,29.785,4.395,-56.152,0
1508627240.258,10.742,42.480,33.691,1.953,-70.312,0
1508627240.262,13.184,39.062,40.527,0.000,-24.414,0
1508627240.266,16.113,44.434,41.504,7.812,-10.254,0
1508627240.270,6.836,39.551,35.156,7.324,-30.762,0
1508627240.273,11.230,46.875,39.551,0.977,-50.781,0
1508627240.277,20.508,56.152,44.434,2.441,-58.105,0
1508627240.281,13.672,48.340,41.504,2.930,-58.594,0
1508627240.285,8.301,44.922,37.109,-1.953,-62.500,0
1508627240.289,3.418,38.574,27.832,-13.184,-52.734,0
1508627240.293,5.371,41.016,27.344,-11.719,-58.594,0
1508627240.297,12.207,45.410,35.156,-1.465,-67.383,0
1508627240.301,14.648,45.898,37.109,5.371,-87.891,0
1508627240.305,13.184,43.945,41.504,-0.488,-70.801,0
1508627240.309,12.695,42.969,43.457,0.977,-61.035,0
1508627240.313,11.230,42.969,31.738,6.348,-119.141,0
1508627240.316,15.137,45.898,41.016,6.348,-148.438,0
1508627240.320,25.879,52.734,51.270,13.672,-104.980,0
1508627240.324,17.090,40.527,30.762,10.254,-84.961,0
1508627240.328,16.113,41.016,32.715,14.160,-104.004,0
1508627240.332,21.973,48.340,46.387,20.508,-121.582,0
1508627240.336,8.301,34.180,32.227,5.371,-106.445,0
1508627240.340,8.789,37.598,30.273,0.488,-107.422,0
1508627240.344,15.137,43.457,38.086,7.812,-117.188,0
1508627240.348,11.719,38.086,37.109,4.395,-102.539,0
1508627240.352,7.812,34.180,35.645,1.953,-100.586,0
1508627240.356,2.441,31.250,31.250,-0.488,-77.148,0
1508627240.359,0.977,30.762,52.734,-2.441,-92.285,0
1508627240.363,6.348,38.574,46.875,3.418,-119.141,0
1508627240.367,1.953,27.344,4.883,-8.789,-83.984,0
1508627240.371,-2.441,18.555,13.184,-16.602,-87.402,0
1508627240.375,10.254,31.738,28.320,-2.441,-123.047,0
1508627240.379,15.625,32.715,30.762,1.465,-125.488,0
1508627240.383,12.207,31.250,25.879,-4.883,-115.234,0
1508627240.387,15.625,36.621,19.043,-8.789,-132.812,0
1508627240.391,16.602,34.180,21.484,-8.301,-159.180,0
1508627240.395,10.742,31.250,24.902,-6.836,-164.062,0
1508627240.398,6.836,31.250,23.438,-7.812,-125.000,0
1508627240.402,7.324,34.668,27.344,-10.742,-123.535,0
1508627240.406,7.324,34.668,26.367,-9.277,-141.113,0
1508627240.410,9.277,37.598,23.926,-6.348,-139.160,0
1508627240.414,5.371,37.109,20.508,-15.137,-131.836,0
1508627240.418,-3.906,27.832,15.625,-27.344,-127.930,0
1508627240.422,0.000,32.715,19.531,-19.531,-121.582,0
1508627240.426,4.395,39.551,26.367,-10.742,-123.047,0
1508627240.430,9.766,45.410,34.180,-0.977,-122.559,0
1508627240.434,8.789,43.457,31.250,0.977,-151.855,0
1508627240.438,3.906,40.527,26.367,-13.672,-159.668,0
1508627240.441,1.953,35.645,24.414,-11.719,-104.004,0
1508627240.445,5.371,41.016,29.297,-2.441,-113.281,0
1508627240.449,15.137,45.898,32.227,-1.465,-141.113,0
1508627240.453,7.812,37.109,20.996,-4.883,-146.973,0
1508627240.457,7.324,39.062,29.785,2.930,-109.375,0
1508627240.461,8.789,39.551,31.738,6.348,-78.125,0
1508627240.465,3.418,33.691,22.949,2.930,-87.402,0
1508627240.469,13.184,45.410,33.203,10.254,-117.188,0
1508627240.473,20.508,55.176,39.551,12.207,-95.703,0
1508627240.477,18.066,44.922,41.504,14.160,-62.988,0
1508627240.481,11.230,34.180,41.016,9.277,-104.004,0
1508627240.484,13.184,36.621,37.109,5.859,-97.168,0
1508627240.488,15.625,36.621,41.992,21.973,-95.703,0
1508627240.492,25.391,41.992,49.805,32.715,-122.070,0
1508627240.496,34.180,51.758,42.969,26.367,-93.262,0
1508627240.500,19.043,39.551,27.344,13.184,-83.984,0
1508627240.504,22.461,40.039,29.297,15.625,-62.988,0
1508627240.508,31.738,44.434,37.109,26.855,-78.613,0
1508627240.512,25.391,37.109,30.762,21.973,-62.988,0
1508627240.516,20.996,30.273,29.785,13.672,-21.484,0
1508627240.520,21.973,36.133,33.203,15.625,-31.250,0
1508627240.523,31.250,47.852,40.527,31.738,-31.250,0
1508627240.527,33.691,48.340,44.434,29.785,-17.090,0
1508627240.531,24.902,44.922,41.992,16.602,-21.973,0
1508627240.535,18.066,36.133,31.738,13.672,-21.973,0
1508627240.539,23.438,41.504,43.945,16.113,-11.230,0
1508627240.543,23.438,43.457,48.340,13.184,6.836,0
1508627240.547,11.719,32.715,31.738,9.277,31.250,0
1508627240.551,18.555,47.363,47.852,23.438,95.215,0
1508627240.555,16.602,47.852,46.387,18.555,115.723,0
1508627240.559,1.465,27.832,29.785,0.488,104.492,0
1508627240.563,8.789,34.180,33.203,5.859,115.234,0
1508627240.566,9.277,35.156,31.250,4.395,111.816,0
1508627240.570,4.395,31.250,30.273,-3.418,106.934,0
1508627240.574,16.602,42.969,40.527,4.395,119.141,0
1508627240.578,14.160,44.434,38.086,2.930,159.180,0
1508627240.582,2.930,34.668,31.738,-1.953,155.273,0
1508627240.586,8.789,37.109,38.086,7.812,130.859,0
1508627240.590,12.695,40.527,42.480,7.812,152.344,0
1508627240.594,5.371,35.156,33.203,0.000,163.086,0
1508627240.598,16.113,37.598,43.945,5.859,136.230,0
1508627240.602,23.926,41.504,50.781,13.672,160.645,0
1508627240.606,10.254,32.227,30.273,8.789,202.148,0
1508627240.609,17.090,31.738,32.715,4.395,190.430,0
1508627240.613,31.250,44.922,46.875,17.090,120.117,0
1508627240.617,29.785,46.875,53.711,35.156,117.188,0
1508627240.621,28.809,43.457,49.805,32.715,201.172,0
1508627240.625,29.297,44.434,46.387,24.414,190.430,0
1508627240.629,27.832,42.969,47.363,28.809,151.855,0
1508627240.633,22.461,36.621,43.945,19.043,183.105,0
1508627240.637,21.484,37.109,45.898,11.719,196.289,0
1508627240.641,24.902,43.457,45.898,21.973,166.504,0
1508627240.645,26.367,43.945,46.875,24.414,178.711,0
1508627240.648,23.926,36.133,44.434,21.484,187.988,0
1508627240.652,9.766,20.020,28.320,7.812,175.293,0
1508627240.656,15.137,28.809,32.227,9.766,190.430,0
1508627240.660,31.738,46.387,43.457,23.926,184.082,0
1508627240.664,30.762,44.922,39.062,21.484,158.203,0
1508627240.668,25.879,41.016,33.203,10.254,146.484,0
1508627240.672,20.996,35.645,39.551,7.324,123.535,0
1508627240.676,18.066,39.551,46.387,13.672,118.652,0
1508627240.680,21.973,48.340,44.434,21.484,140.625,0
1508627240.684,17.578,41.016,45.898,15.625,165.527,0
1508627240.688,8.789,36.133,39.551,0.488,125.000,0
1508627240.691,3.418,32.227,33.203,-3.418,81.055,0
1508627240.695,10.254,42.969,45.410,3.418,114.746,0
1508627240.699,7.324,41.016,41.016,-5.859,152.344,0
1508627240.703,1.953,31.738,25.879,-9.277,115.234,0
1508627240.707,1.465,35.156,27.344,-3.906,96.680,0
1508627240.711,1.465,37.598,35.156,-3.418,97.168,0
1508627240.715,4.883,43.945,37.109,-6.348,64.453,0
1508627240.719,9.277,46.387,35.645,-3.418,33.691,0
1508627240.723,13.184,46.387,40.039,-0.977,49.805,0
1508627240.727,3.418,40.039,37.598,-3.418,75.684,0
1508627240.731,-2.441,30.273,31.738,-10.254,83.008,0
1508627240.734,4.395,36.621,37.598,-6.836,52.246,0
1508627240.738,5.371,41.504,41.016,-4.395,70.312,0
1508627240.742,8.301,41.992,40.527,-5.371,95.703,0
1508627240.746,12.207,41.504,42.480,3.906,79.590,0
1508627240.750,2.930,29.297,35.645,-3.906,68.359,0
1508627240.754,2.930,33.691,35.645,-2.441,65.430,0
1508627240.758,10.254,43.945,39.062,9.766,89.355,0
1508627240.762,10.254,40.527,38.574,11.230,88.379,0
1508627240.766,13.672,42.480,46.387,15.625,59.082,0
1508627240.770,8.789,41.992,45.410,19.043,70.312,0
1508627240.773,7.324,40.527,41.992,17.090,83.496,0
1508627240.777,14.648,45.410,48.828,14.160,98.145,0
1508627240.781,20.996,52.246,56.641,25.391,113.281,0
1508627240.785,15.137,42.969,43.945,20.020,121.094,0
1508627240.789,3.418,30.273,27.832,6.348,142.578,0
1508627240.793,4.883,35.645,33.691,8.789,128.906,0
1508627240.797,17.578,43.945,37.598,23.926,156.738,0
1508627240.801,13.184,37.598,52.734,20.020,184.082,0
1508627240.805,10.254,37.109,45.410,12.207,165.039,0
1508627240.809,25.391,46.875,30.273,20.020,175.293,0
1508627240.813,31.250,54.688,38.086,27.832,190.918,0
1508627240.816,21.484,47.363,38.086,28.320,226.562,0
1508627240.820,17.578,41.016,34.180,19.043,254.395,0
1508627240.824,25.879,52.734,39.062,25.391,220.703,0
1508627240.828,24.902,54.688,44.434,24.902,213.867,0
1508627240.832,14.160,43.945,41.016,11.719,216.797,0
1508627240.836,15.625,40.527,41.992,10.742,211.426,0
1508627240.840,19.043,40.527,41.504,10.742,207.520,0
1508627240.844,11.719,35.645,40.527,7.812,186.035,0
1508627240.848,12.207,38.086,47.363,12.207,209.473,0
1508627240.852,16.113,37.109,45.410,8.789,189.941,0
1508627240.856,12.207,36.133,40.527,4.883,135.254,0
1508627240.859,15.625,45.898,49.805,17.090,141.602,0
1508627240.863,15.137,42.480,46.387,15.137,145.020,0
1508627240.867,9.277,41.016,41.504,2.441,117.188,0
1508627240.871,9.766,44.922,46.387,7.324,137.207,0
1508627240.875,8.301,40.527,35.645,6.836,165.527,0
1508627240.879,4.395,37.598,33.203,-5.859,145.508,0
1508627240.883,5.371,37.109,44.434,-8.301,102.051,0
1508627240.887,6.836,40.039,41.504,-1.465,91.797,0
1508627240.891,3.906,40.039,34.180,-2.930,97.168,0
1508627240.895,1.953,43.457,36.621,-3.418,84.473,0
1508627240.898,9.277,52.246,45.410,8.301,66.406,0
1508627240.902,4.395,39.062,38.574,5.859,23.438,0
1508627240.906,-0.488,31.250,36.133,0.488,40.527,0
1508627240.910,-0.488,32.227,36.621,8.301,52.246,0
1508627240.914,7.812,41.504,36.621,15.137,19.043,0
1508627240.918,23.438,53.223,45.898,23.926,4.395,0
1508627240.922,22.949,46.875,46.387,27.344,18.066,0
1508627240.926,23.438,43.457,40.527,29.785,20.020,0
1508627240.930,26.855,47.852,43.457,35.156,14.648,0
1508627240.934,29.297,51.270,47.852,39.062,1.465,0
1508627240.938,28.809,50.781,46.387,33.691,-4.883,0
1508627240.941,33.691,50.781,46.387,35.645,-14.648,0
1508627240.945,31.738,42.480,41.504,37.598,-25.391,0
1508627240.949,23.438,33.691,37.598,29.785,-9.277,0
1508627240.953,32.715,47.852,42.969,38.574,-5.859,0
1508627240.957,47.363,63.965,55.176,48.340,-5.371,0
1508627240.961,52.246,66.406,56.152,50.781,-29.785,0
1508627240.965,37.109,52.734,40.527,44.434,-25.391,0
1508627240.969,35.645,50.293,44.922,45.410,-24.902,0
1508627240.973,43.457,58.105,55.176,51.270,-57.617,0
1508627240.977,45.410,59.570,56.152,49.316,-55.664,0
1508627240.981,46.875,59.570,51.758,48.828,-77.637,0
1508627240.984,45.410,57.617,52.734,54.199,-87.891,0
1508627240.988,45.898,56.641,55.664,51.758,-80.566,0
1508627240.992,49.316,59.570,55.176,45.898,-79.102,0
1508627240.996,45.410,58.105,47.363,38.574,-52.734,0
1508627241.000,43.457,53.711,48.340,42.969,-59.082,0
1508627241.004,47.363,56.152,56.641,47.852,-91.797,0
1508627241.008,46.875,57.129,62.012,40.527,-103.516,0
1508627241.012,43.457,53.711,62.012,41.504,-87.402,0
1508627241.016,37.109,51.270,54.199,42.480,-84.961,0
1508627241.020,33.203,44.922,49.316,35.156,-107.422,0
1508627241.023,34.668,41.504,51.758,30.762,-128.906,0
1508627241.027,44.922,55.664,60.059,41.016,-88.867,0
1508627241.031,49.805,58.594,62.500,44.922,-94.238,0
1508627241.035,41.992,50.293,55.664,40.039,-163.574,0
1508627241.039,26.855,42.480,62.500,23.926,-135.742,0
1508627241.043,14.648,32.227,44.434,10.742,-73.242,0
1508627241.047,18.066,32.715,24.414,16.602,-91.797,0
1508627241.051,21.973,33.203,41.504,16.602,-125.000,0
1508627241.055,22.949,35.645,49.316,14.648,-95.215,0
1508627241.059,19.531,39.062,43.457,10.742,-64.941,0
1508627241.063,14.648,32.715,35.645,7.324,-80.566,0
1508627241.066,10.254,33.203,41.016,11.719,-90.820,0
1508627241.070,14.160,40.039,46.387,15.625,-78.613,0
1508627241.074,20.020,38.574,43.457,16.602,-85.938,0
1508627241.078,15.625,30.762,39.551,10.254,-128.418,0
1508627241.082,9.277,28.320,35.645,6.836,-174.316,0
1508627241.086,14.160,33.691,43.945,14.160,-196.777,0
1508627241.090,24.902,47.363,60.547,31.250,-218.262,0
1508627241.094,20.996,42.969,50.781,29.297,-229.004,0
1508627241.098,12.207,23.926,36.621,15.625,-229.980,0
1508627241.102,19.531,27.344,36.621,16.602,-204.102,0
1508627241.106,34.180,45.410,48.340,26.855,-207.520,0
1508627241.109,37.109,51.270,51.758,33.203,-235.840,0
1508627241.113,33.691,42.480,44.922,33.691,-221.191,0
1508627241.117,36.133,40.039,42.969,35.645,-236.816,0
1508627241.121,30.273,34.668,41.504,37.598,-281.250,0
1508627241.125,34.668,39.551,48.828,44.922,-252.930,0
1508627241.129,37.109,40.527,49.316,42.480,-186.035,0
1508627241.133,39.062,41.992,49.316,45.410,-156.250,0
1508627241.137,44.922,43.945,52.246,50.781,-173.340,0
1508627241.141,32.715,29.297,47.363,38.574,-182.129,0
1508627241.145,44.922,45.898,58.594,44.922,-139.160,0
1508627241.148,60.547,57.617,58.594,54.199,-88.379,0
1508627241.152,48.828,39.551,46.875,40.527,-48.828,0
1508627241.156,46.875,41.992,44.922,39.551,-42.969,0
1508627241.160,43.457,45.898,41.504,39.551,-23.926,0
1508627241.164,43.457,45.898,46.387,41.504,28.320,0
1508627241.168,52.246,57.617,48.340,46.875,35.156,0
1508627241.172,46.875,52.246,46.875,38.574,50.293,0
1508627241.176,37.598,45.410,44.434,30.273,98.145,0
1508627241.180,38.086,54.688,66.406,33.691,115.234,0
1508627241.184,44.922,65.430,63.477,41.016,142.578,0
1508627241.188,41.992,62.012,31.250,36.621,169.434,0
1508627241.191,38.574,62.012,40.039,26.855,215.820,0
1508627241.195,34.668,60.547,41.992,25.391,254.883,0
1508627241.199,22.461,47.852,31.250,17.578,233.887,0
1508627241.203,18.066,34.668,29.785,5.371,255.859,0
1508627241.207,25.391,40.527,36.133,5.859,296.875,0
1508627241.211,28.320,48.828,34.668,10.742,317.383,0
1508627241.215,23.926,44.922,44.922,15.137,344.727,0
1508627241.219,32.227,50.293,54.688,25.879,386.719,0
1508627241.223,34.180,50.293,42.480,20.508,436.035,0
1508627241.227,25.879,44.434,37.109,11.230,426.758,0
1508627241.231,26.855,45.898,44.434,17.578,417.480,0
1508627241.234,32.227,50.781,57.617,25.391,429.688,0
1508627241.238,31.250,46.387,55.664,23.438,450.684,0
1508627241.242,19.531,32.227,43.945,11.719,442.383,0
1508627241.246,15.137,28.320,40.527,8.301,456.543,0
1508627241.250,12.695,27.832,37.598,8.301,487.305,0
1508627241.254,13.672,26.367,38.574,11.719,467.285,0
1508627241.258,21.973,33.691,47.363,19.043,469.238,0
1508627241.262,30.273,37.598,49.316,19.043,465.820,0
1508627241.266,36.621,39.062,53.223,23.926,500.000,0
1508627241.270,39.551,35.156,51.270,23.438,510.254,0
1508627241.273,37.109,29.785,47.852,21.973,469.238,0
1508627241.277,39.062,37.109,46.875,32.227,462.402,0
1508627241.281,29.297,32.715,67.383,26.855,499.023,0
1508627241.285,26.855,29.297,64.941,26.367,521.973,0
1508627241.289,37.109,34.668,35.645,31.738,549.316,0
1508627241.293,36.133,32.227,41.016,24.902,558.105,0
1508627241.297,35.156,26.855,44.922,22.949,548.828,0
1508627241.301,30.762,25.879,43.457,26.855,556.152,0
1508627241.305,34.668,34.180,48.828,30.762,544.434,0
1508627241.309,39.551,37.598,49.316,25.391,555.664,0
1508627241.313,37.109,34.180,44.922,22.461,549.805,0
1508627241.316,33.203,32.715,44.922,22.949,516.113,0
1508627241.320,30.273,37.109,46.387,24.902,479.004,0
1508627241.324,29.785,39.062,43.945,21.484,454.102,0
1508627241.328,35.645,50.293,49.316,24.414,443.359,0
1508627241.332,39.551,56.641,54.199,22.949,412.109,0
1508627241.336,26.855,39.551,39.551,6.348,388.672,0
1508627241.340,16.602,26.367,23.438,-7.324,389.160,0
1508627241.344,29.785,40.039,30.273,0.488,382.324,0
1508627241.348,39.062,50.781,38.086,10.742,376.465,0
1508627241.352,34.180,42.480,28.320,8.789,374.023,0
1508627241.356,30.762,42.480,34.668,4.883,344.238,0
1508627241.359,28.809,48.828,37.598,12.207,316.895,0
1508627241.363,23.438,44.922,38.574,19.043,287.598,0
1508627241.367,23.438,43.457,45.410,20.996,285.645,0
1508627241.371,38.574,54.199,40.527,21.484,281.250,0
1508627241.375,34.668,47.363,36.133,10.254,264.160,0
1508627241.379,31.738,52.246,40.527,16.113,242.676,0
1508627241.383,35.156,61.035,46.387,23.438,214.355,0
1508627241.387,22.461,43.457,33.691,4.883,248.047,0
1508627241.391,22.949,45.410,32.227,5.859,234.863,0
1508627241.395,18.555,44.434,35.156,5.859,196.289,0
1508627241.398,14.160,39.062,31.738,-1.953,218.750,0
1508627241.402,19.531,47.852,36.133,0.488,218.262,0
1508627241.406,15.625,46.387,38.574,2.441,187.500,0
1508627241.410,19.531,43.457,35.156,3.418,191.406,0
1508627241.414,24.414,47.852,30.762,4.395,198.242,0
1508627241.418,20.996,46.387,33.691,8.789,187.988,0
1508627241.422,22.461,51.758,36.621,7.812,162.109,0
1508627241.426,21.973,52.734,37.109,9.277,104.980,0
1508627241.430,19.531,46.387,39.551,12.207,73.242,1
1508627241.434,20.996,41.992,32.715,10.254,43.945,0
1508627241.438,25.391,43.457,33.691,15.137,-13.184,0
1508627241.441,20.996,42.969,37.109,12.695,-30.273,0
1508627241.445,22.461,43.945,36.621,8.789,-51.758,0
1508627241.449,29.785,46.875,40.527,12.695,-124.023,0
1508627241.453,29.785,49.316,40.527,22.461,-206.543,0
1508627241.457,30.273,50.781,40.527,21.973,-282.227,0
1508627241.461,27.832,50.781,41.016,22.949,-336.426,0
1508627241.465,28.809,52.734,42.969,29.297,-378.906,0
1508627241.469,27.344,44.922,38.574,17.578,-443.848,0
1508627241.473,25.391,44.922,38.086,11.719,-518.066,0
1508627241.477,38.574,62.988,47.363,23.926,-527.832,0
1508627241.481,31.738,59.082,60.059,14.648,-546.875,0
1508627241.484,11.230,39.551,42.480,0.977,-596.191,0
1508627241.488,10.742,38.574,14.160,2.930,-612.793,0
1508627241.492,8.301,42.969,19.531,0.488,-629.395,0
1508627241.496,11.230,47.363,32.715,0.977,-648.438,0
1508627241.500,20.020,52.246,41.992,2.930,-673.340,0
1508627241.504,21.484,54.199,33.691,4.883,-670.410,0
1508627241.508,11.719,49.316,33.691,-1.465,-665.527,0
1508627241.512,2.930,46.387,31.250,-8.301,-706.543,0
1508627241.516,3.418,44.922,26.367,-12.207,-744.629,0
1508627241.520,4.395,42.480,27.832,-14.648,-732.422,0
1508627241.523,7.324,45.898,35.645,-12.207,-727.539,0
1508627241.527,11.230,51.758,44.922,-2.441,-772.461,0
1508627241.531,10.254,50.293,36.133,-5.371,-797.363,0
1508627241.535,10.254,45.410,23.438,-15.137,-806.641,0
1508627241.539,14.648,49.316,24.902,-15.625,-835.938,0
1508627241.543,13.184,45.898,27.832,-15.625,-867.676,0
1508627241.547,10.742,46.387,31.250,-19.043,-862.305,0
1508627241.551,10.742,53.711,30.762,-19.531,-826.660,0
1508627241.555,4.883,49.316,30.762,-20.020,-822.266,0
1508627241.559,-2.930,42.480,29.297,-26.855,-822.266,0
1508627241.563,-3.418,36.621,26.855,-28.809,-752.441,0
1508627241.566,3.906,39.062,31.250,-15.625,-651.855,0
1508627241.570,16.602,49.316,39.551,2.930,-621.094,0
1508627241.574,18.555,51.270,37.598,-6.348,-602.539,0
1508627241.578,11.230,48.828,27.344,-18.066,-543.457,0
1508627241.582,15.137,50.293,25.391,-15.137,-468.750,0
1508627241.586,20.020,50.293,30.273,-9.277,-398.438,0
1508627241.590,20.996,52.246,33.203,-1.465,-358.887,0
1508627241.594,20.020,50.781,36.133,5.371,-315.918,0
1508627241.598,23.438,48.340,36.133,9.277,-279.297,0
1508627241.602,18.066,46.875,31.738,3.418,-241.699,0
1508627241.606,13.672,46.875,35.156,0.488,-170.898,0
1508627241.609,20.508,55.664,41.992,14.648,-133.789,0
1508627241.613,30.762,62.012,43.457,24.414,-113.281,0
1508627241.617,30.273,56.641,50.781,12.695,-77.148,0
1508627241.621,29.785,56.152,51.758,15.137,-28.809,0
1508627241.625,25.879,52.246,41.992,19.043,28.320,0
1508627241.629,22.949,50.781,36.133,9.766,60.547,0
1508627241.633,21.973,52.734,28.809,6.348,54.688,0
1508627241.637,8.301,41.016,25.879,4.395,85.449,0
1508627241.641,13.672,41.016,32.715,10.254,143.066,0
1508627241.645,17.090,44.434,34.180,16.602,169.922,0
1508627241.648,14.648,42.969,52.734,17.578,154.785,0
1508627241.652,10.742,42.480,51.758,10.254,160.645,0
1508627241.656,4.883,42.480,21.973,10.742,193.359,0
1508627241.660,9.277,47.363,32.227,15.625,200.195,0
1508627241.664,13.672,44.922,40.039,11.230,210.938,0
1508627241.668,6.836,35.156,31.250,3.418,245.117,0
1508627241.672,3.418,36.133,31.250,3.906,251.953,0
1508627241.676,15.137,49.316,47.363,17.578,250.977,0
1508627241.680,14.648,48.340,41.016,16.113,271.484,0
1508627241.684,6.836,36.621,27.832,5.859,280.762,0
1508627241.688,11.719,39.062,35.645,9.277,304.688,0
1508627241.691,13.184,41.016,34.668,10.254,296.875,0
1508627241.695,7.812,36.621,32.227,13.184,309.570,0
1508627241.699,6.348,33.203,36.133,4.395,348.633,0
1508627241.703,14.648,42.480,36.621,1.953,346.680,0
1508627241.707,18.555,48.340,37.109,11.719,337.402,0
1508627241.711,14.160,43.457,38.086,11.230,324.219,0
1508627241.715,7.324,40.527,38.574,6.836,359.375,0
1508627241.719,10.254,41.504,36.621,6.836,402.344,0
1508627241.723,14.160,43.457,39.062,9.277,386.719,0
1508627241.727,8.301,37.598,40.039,8.789,406.250,0
1508627241.731,2.930,30.273,26.855,-2.930,465.332,0
1508627241.734,5.371,31.738,26.855,0.488,488.770,0
1508627241.738,10.742,34.668,29.785,4.883,492.676,0
1508627241.742,11.719,35.156,33.691,0.977,517.090,0
1508627241.746,13.184,37.598,33.203,-0.977,542.969,0
1508627241.750,19.043,44.922,27.344,4.883,550.781,0
1508627241.754,18.555,42.969,30.762,8.301,559.570,0
1508627241.758,18.066,41.992,39.551,13.672,596.680,0
1508627241.762,15.137,35.645,39.551,14.648,625.488,0
1508627241.766,12.207,31.738,38.086,13.184,644.043,0
1508627241.770,16.113,39.551,41.016,17.578,636.230,0
1508627241.773,20.996,41.016,47.363,17.578,628.906,0
1508627241.777,18.555,39.062,45.898,18.555,670.410,0
1508627241.781,0.000,21.973,52.734,8.301,676.270,0
1508627241.785,-6.836,14.648,42.480,-1.953,643.555,0
1508627241.789,2.441,23.926,20.508,3.418,645.996,0
1508627241.793,2.930,28.320,27.832,5.859,649.414,0
1508627241.797,-5.859,21.973,27.832,0.000,670.410,0
1508627241.801,-5.371,24.902,37.109,1.953,712.402,0
1508627241.805,1.465,29.297,43.945,2.930,800.293,0
1508627241.809,-1.953,22.461,44.434,0.977,937.988,0
1508627241.813,-7.324,19.043,39.551,2.441,-999.512,0
1508627241.816,-2.930,22.461,36.621,5.371,997.070,0
1508627241.820,-8.789,17.090,38.086,3.418,998.047,0
1508627241.824,-6.348,21.484,49.805,9.766,999.512,0
1508627241.828,0.977,24.414,53.711,20.020,999.512,0
1508627241.832,-1.953,12.695,39.551,18.555,999.512,0
1508627241.836,-5.371,9.277,42.969,13.184,999.512,0
1508627241.840,-0.977,13.672,46.387,14.160,999.512,0
1508627241.844,-3.418,5.859,39.551,13.184,999.512,0
1508627241.848,1.953,12.207,51.270,19.531,999.512,0
1508627241.852,13.672,26.367,56.152,27.344,999.512,0
1508627241.856,7.812,17.090,42.969,24.414,999.512,0
1508627241.859,3.418,11.719,41.504,22.461,999.512,0
1508627241.863,14.160,21.484,45.410,31.250,999.512,0
1508627241.867,18.066,27.832,47.363,37.109,999.512,0
1508627241.871,11.719,22.461,46.387,34.180,999.512,0
1508627241.875,7.324,18.555,47.852,29.297,999.512,0
1508627241.879,3.418,19.531,41.016,21.484,999.512,0
1508627241.883,0.000,14.160,39.062,23.438,999.512,0
1508627241.887,0.977,12.207,41.992,24.902,999.512,0
1508627241.891,0.977,16.602,41.016,18.555,999.512,0
1508627241.895,-4.395,13.672,39.062,15.625,999.512,0
1508627241.898,2.930,25.879,42.969,26.367,999.512,0
1508627241.902,13.184,34.668,44.434,28.320,999.512,0
1508627241.906,8.789,27.344,41.016,19.043,-1000.000,0
1508627241.910,-3.418,21.484,32.715,7.324,997.070,0
1508627241.914,-6.836,19.043,41.992,1.465,999.023,0
1508627241.918,-3.906,19.043,48.340,7.324,991.211,0
1508627241.922,-7.812,15.625,19.531,3.418,895.020,0
1508627241.926,-5.371,14.160,21.973,1.465,793.457,0
1508627241.930,-3.906,15.137,38.086,4.395,747.070,0
1508627241.934,0.000,20.996,40.039,9.277,679.199,0
1508627241.938,9.277,27.344,47.363,10.254,604.492,0
1508627241.941,0.977,16.602,42.969,0.488,540.039,0
1508627241.945,-1.465,15.625,35.645,7.324,464.355,0
1508627241.949,11.230,32.715,47.363,19.531,384.277,0
1508627241.953,10.742,30.273,43.945,9.766,309.082,0
1508627241.957,2.441,22.949,41.992,4.395,256.836,0
1508627241.961,1.953,25.879,41.016,11.230,209.473,0
1508627241.965,-1.465,20.996,39.551,8.789,117.188,0
1508627241.969,4.395,25.391,44.922,8.789,58.105,0
1508627241.973,8.301,32.227,46.387,11.719,8.789,0
1508627241.977,0.977,23.438,41.992,8.301,-81.055,0
1508627241.981,-7.812,19.043,40.527,6.836,-154.297,0
1508627241.984,-14.160,17.578,39.551,0.977,-154.297,0
1508627241.988,-9.277,23.438,49.316,5.859,-127.930,0
1508627241.992,-3.906,23.926,50.293,13.672,-166.992,0
1508627241.996,-5.371,20.020,39.062,6.836,-197.266,0
1508627242.000,11.719,41.992,54.199,18.555,-177.246,0
1508627242.004,15.137,42.480,56.152,25.879,-197.754,0
1508627242.008,-2.441,24.414,37.598,8.301,-225.098,0
1508627242.012,-0.488,26.367,38.086,5.371,-245.605,0
1508627242.016,4.395,29.297,38.086,9.766,-236.816,0
1508627242.020,3.906,27.832,33.203,5.859,-196.289,0
1508627242.023,2.441,26.367,38.086,10.742,-186.523,0
1508627242.027,7.812,32.227,62.988,19.531,-171.875,0
1508627242.031,19.043,41.016,59.570,26.367,-123.047,0
1508627242.035,21.484,45.410,40.527,29.785,-89.355,0
1508627242.039,14.160,41.016,37.109,17.090,-83.496,0
1508627242.043,7.324,32.715,21.484,9.766,-85.449,0
1508627242.047,4.883,30.762,29.297,7.812,-80.078,0
1508627242.051,14.160,39.062,36.621,15.137,-96.680,0
1508627242.055,15.625,37.598,26.855,20.508,-120.117,0
1508627242.059,15.625,35.156,22.949,8.789,-114.746,0
1508627242.063,21.973,38.086,32.227,5.859,-150.879,0
1508627242.066,17.578,37.598,34.180,9.766,-206.543,0
1508627242.070,17.090,39.551,35.156,12.207,-257.812,0
1508627242.074,19.531,41.992,41.992,14.160,-293.945,0
1508627242.078,21.484,45.898,39.062,10.254,-342.285,0
1508627242.082,26.855,52.734,38.086,10.742,-458.496,0
1508627242.086,27.832,57.617,42.480,9.766,-569.824,0
1508627242.090,15.137,46.387,33.691,1.465,-665.039,0
1508627242.094,-1.465,27.832,18.555,-8.789,-785.156,0
1508627242.098,2.930,34.180,21.484,-10.742,-910.645,0
1508627242.102,0.977,41.992,28.809,-5.859,-970.215,0
1508627242.106,-13.672,28.809,22.949,-13.184,-963.867,0
1508627242.109,-15.625,34.180,20.508,-25.879,-966.797,0
1508627242.113,-14.160,40.527,24.414,-26.367,-967.285,0
1508627242.117,-14.648,38.574,30.762,-27.344,-966.797,0
1508627242.121,-17.090,41.016,32.227,-25.391,-966.797,0
1508627242.125,-16.113,41.016,30.762,-21.973,-966.797,0
1508627242.129,-14.160,40.039,28.809,-26.367,-966.797,0
1508627242.133,-17.090,36.133,30.762,-29.785,-966.797,0
1508627242.137,-18.555,39.551,38.574,-25.879,-967.285,0
1508627242.141,-20.020,33.691,28.809,-29.785,-967.285,0
1508627242.145,-18.555,30.762,24.414,-26.855,-967.285,0
1508627242.148,-17.090,35.645,35.645,-20.020,-967.285,0
1508627242.152,-17.090,38.086,40.527,-15.625,-967.285,0
1508627242.156,-4.395,48.828,43.945,-10.254,-967.285,0
1508627242.160,-5.371,46.875,40.039,-15.625,-966.797,0
1508627242.164,-14.160,40.039,36.621,-17.578,-966.797,0
1508627242.168,-12.207,38.574,38.574,-20.020,-966.797,0
1508627242.172,-6.348,41.016,41.504,-14.648,-966.797,0
1508627242.176,-4.883,44.434,41.992,-11.230,-966.797,0
1508627242.180,-8.789,42.969,40.527,-19.043,-967.285,0
1508627242.184,-8.301,42.969,39.062,-18.066,-967.285,0
1508627242.188,-9.277,41.504,40.039,-16.602,-966.797,0
1508627242.191,-8.789,42.480,39.062,-20.996,-967.285,0
1508627242.195,-10.742,41.992,28.809,-27.832,-967.285,0
1508627242.199,-5.859,42.969,34.180,-20.996,-967.285,0
1508627242.203,0.977,52.246,47.852,-17.090,-963.379,0
1508627242.207,-5.859,50.293,33.691,-20.020,-973.145,0
1508627242.211,-0.977,51.758,33.203,-20.020,-932.617,0
1508627242.215,0.977,49.316,34.180,-27.832,-838.867,0
1508627242.219,-6.836,45.410,31.738,-30.762,-776.367,0
1508627242.223,-9.766,44.922,28.809,-36.621,-750.488,0
1508627242.227,-8.301,44.922,21.484,-43.945,-719.238,0
1508627242.231,-9.766,44.922,47.363,-44.922,-658.691,0
1508627242.234,-14.160,40.527,40.527,-40.527,-657.227,0
1508627242.238,-7.812,47.852,16.113,-34.668,-630.371,0
1508627242.242,0.488,58.594,31.738,-32.227,-558.594,0
1508627242.246,-9.766,53.711,25.879,-43.945,-542.969,0
1508627242.250,-25.879,41.504,17.578,-62.012,-602.051,0
1508627242.254,-22.461,43.457,23.438,-60.059,-562.012,0
1508627242.258,-12.695,54.199,29.785,-53.711,-541.016,0
1508627242.262,-13.184,52.246,23.926,-63.965,-591.797,0
1508627242.266,-27.344,37.109,16.113,-75.684,-498.047,0
1508627242.270,-26.367,39.062,21.484,-76.660,-457.031,0
1508627242.273,-22.461,45.410,26.367,-76.172,-434.082,0
1508627242.277,-23.926,43.945,29.785,-74.219,-356.934,0
1508627242.281,-19.043,43.945,25.391,-79.590,-342.773,0
1508627242.285,-15.625,45.898,31.250,-78.125,-297.852,0
1508627242.289,-18.555,42.480,38.086,-72.266,-291.992,0
1508627242.293,-23.438,36.621,25.391,-80.566,-306.152,0
1508627242.297,-17.578,43.457,28.320,-74.219,-288.574,0
1508627242.301,-10.254,49.316,40.527,-62.012,-288.574,0
1508627242.305,-7.812,52.246,43.945,-50.781,-209.961,0
1508627242.309,-7.812,53.223,39.062,-45.410,-97.656,0
1508627242.313,-10.742,41.504,33.203,-47.852,-96.191,0
1508627242.316,-8.789,34.668,38.574,-38.574,-104.492,0
1508627242.320,-13.672,35.156,39.551,-31.738,-85.449,0
1508627242.324,-13.184,39.551,38.574,-30.273,-16.602,0
1508627242.328,-8.301,38.574,41.016,-19.043,46.875,0
1508627242.332,-6.836,36.133,44.434,-0.977,52.734,0
1508627242.336,-6.836,31.250,43.945,0.000,83.008,0
1508627242.340,-6.836,33.691,43.945,3.418,87.402,0
1508627242.344,0.000,38.574,49.316,15.625,141.113,0
1508627242.348,7.324,37.109,48.828,18.066,124.023,0
1508627242.352,8.301,38.574,48.828,21.484,96.191,0
1508627242.356,13.672,39.551,52.734,27.832,188.477,0
1508627242.359,16.113,38.574,57.129,33.691,185.059,0
1508627242.363,10.742,34.668,50.781,33.691,176.758,0
1508627242.367,12.207,36.133,51.758,40.527,169.922,0
1508627242.371,0.977,23.438,44.922,32.715,113.770,0
1508627242.375,-9.766,16.113,36.621,19.043,125.000,0
1508627242.379,1.465,29.297,46.387,32.227,151.855,0
1508627242.383,3.418,31.738,51.270,42.480,162.109,0
1508627242.387,-0.488,30.273,51.270,45.410,114.258,0
1508627242.391,1.465,29.297,53.223,47.363,86.914,0
1508627242.395,9.766,34.180,57.617,50.781,109.863,0
1508627242.398,14.648,40.039,56.641,52.246,89.844,0
1508627242.402,14.648,38.574,59.082,51.270,38.574,0
1508627242.406,13.672,34.180,57.617,48.828,20.996,0
1508627242.410,5.371,27.832,51.758,46.875,42.969,0
1508627242.414,12.695,39.551,55.176,53.711,33.691,0
1508627242.418,15.137,43.457,54.688,47.363,55.176,0
1508627242.422,7.324,30.762,41.504,41.504,62.988,0
1508627242.426,5.371,32.715,31.738,47.852,56.152,0
1508627242.430,10.254,38.574,39.551,54.199,20.020,0
1508627242.434,17.578,37.109,45.898,48.828,42.480,0
1508627242.438,17.578,36.133,43.457,43.945,10.254,0
1508627242.441,21.484,42.480,45.898,51.758,-8.301,0
1508627242.445,25.391,43.457,49.316,56.152,59.082,0
1508627242.449,22.461,37.109,46.387,50.293,13.184,0
1508627242.453,25.391,33.691,40.039,52.734,-13.672,0
1508627242.457,29.785,35.645,47.852,61.035,-1.953,0
1508627242.461,30.273,42.480,49.316,58.105,-6.836,0
1508627242.465,23.438,39.062,42.969,47.852,-23.926,0
1508627242.469,34.180,50.293,56.152,54.199,-25.879,0
1508627242.473,34.668,50.293,52.246,51.270,35.156,0
1508627242.477,13.184,30.273,35.156,33.203,7.324,0
1508627242.481,18.066,32.715,38.574,33.203,-57.617,0
1508627242.484,27.832,43.945,50.781,37.598,-40.039,0
1508627242.488,22.461,41.504,44.434,32.227,4.395,0
1508627242.492,21.484,41.016,35.156,30.762,45.898,0
1508627242.496,23.438,46.387,41.504,30.273,16.602,0
1508627242.500,21.973,39.551,41.504,23.438,-48.828,0
1508627242.504,22.949,41.504,37.109,19.531,-40.527,0
1508627242.508,22.949,46.387,32.227,19.043,-44.922,0
1508627242.512,24.902,44.922,53.223,23.438,-76.660,0
1508627242.516,27.832,45.410,54.199,17.090,-60.059,0
1508627242.520,31.250,50.781,22.949,15.625,-50.781,0
1508627242.523,36.621,54.199,29.785,25.391,-46.875,0
1508627242.527,39.062,52.246,33.203,22.461,-48.340,0
1508627242.531,33.691,45.410,24.902,12.207,-20.020,0
1508627242.535,23.926,42.480,25.391,9.766,-68.848,0
1508627242.539,22.461,44.434,32.227,17.090,-101.562,0
1508627242.543,22.461,42.969,27.832,16.113,-12.207,0
1508627242.547,20.020,41.504,20.996,13.184,16.113,0
1508627242.551,17.578,40.039,26.855,11.230,43.945,0
1508627242.555,24.414,46.387,28.809,19.531,31.250,0
1508627242.559,30.762,51.758,36.621,37.109,39.551,0
1508627242.563,35.645,55.664,50.781,40.527,61.035,0
1508627242.566,41.504,56.641,51.270,38.086,21.973,0
1508627242.570,32.227,43.945,43.945,33.203,62.988,0
1508627242.574,24.414,32.715,37.109,30.762,47.852,0
1508627242.578,21.973,33.691,33.691,35.645,-5.371,0
1508627242.582,11.230,27.344,33.203,36.621,44.434,0
1508627242.586,12.695,29.785,36.133,35.645,40.039,0
1508627242.590,25.391,40.039,40.039,42.480,-15.625,0
1508627242.594,25.391,42.480,41.016,48.828,-4.395,0
1508627242.598,18.555,40.527,45.898,50.293,20.508,0
1508627242.602,28.809,50.293,54.199,58.594,20.996,0
1508627242.606,41.504,59.570,56.152,65.918,69.336,0
1508627242.609,37.109,50.781,61.523,67.871,79.590,0
1508627242.613,27.832,43.945,79.102,62.500,41.992,0
1508627242.617,23.438,39.551,61.523,58.105,53.711,0
1508627242.621,31.250,45.898,44.434,67.383,66.895,0
1508627242.625,27.832,44.922,51.270,64.453,78.125,0
1508627242.629,17.578,33.691,38.086,51.758,48.828,0
1508627242.633,9.277,26.367,32.227,45.898,24.902,0
1508627242.637,-1.953,21.484,36.133,46.875,32.227,0
1508627242.641,3.906,31.738,41.504,46.387,21.484,0
1508627242.645,20.996,45.410,50.781,59.570,22.461,0
1508627242.648,24.414,45.410,52.734,62.500,22.461,0
1508627242.652,9.277,37.598,47.363,44.434,-2.930,0
1508627242.656,-2.930,31.738,41.992,36.133,39.551,0
1508627242.660,0.000,33.203,40.527,32.227,56.641,0
1508627242.664,-2.441,31.250,41.992,25.391,24.902,0
1508627242.668,2.441,35.645,43.457,32.227,59.082,0
1508627242.672,-0.488,26.855,35.156,22.461,40.527,0
1508627242.676,-3.418,19.043,28.809,14.648,18.066,0
1508627242.680,13.672,37.109,38.574,31.738,4.395,0
1508627242.684,10.742,35.645,42.480,29.297,14.160,0
1508627242.688,1.465,30.762,44.922,22.461,-13.672,0
1508627242.691,0.488,31.738,46.875,22.461,-29.785,2
1508627242.695,4.395,31.738,41.992,22.949,1.465,0
1508627242.699,12.207,39.062,47.852,32.227,33.203,0
1508627242.703,15.137,43.457,51.758,35.645,-24.414,0
1508627242.707,11.230,38.574,41.504,24.414,-8.301,0
1508627242.711,8.789,29.785,40.039,10.742,21.484,0
1508627242.715,9.766,28.320,42.969,2.441,-41.992,0
1508627242.719,11.230,33.691,43.945,9.277,-62.988,0
1508627242.723,21.973,46.875,60.059,26.855,-5.859,0
1508627242.727,32.715,54.688,70.801,35.645,13.672,0
1508627242.731,19.043,40.039,78.125,22.461,-1.953,0
1508627242.734,9.277,33.203,57.617,13.184,0.977,0
1508627242.738,12.695,36.133,42.480,11.719,4.883,0
1508627242.742,12.695,33.691,49.316,8.301,15.137,0
1508627242.746,20.508,43.945,57.129,20.996,-13.672,0
1508627242.750,26.367,50.781,68.359,30.273,-29.297,0
1508627242.754,14.160,37.109,58.105,14.648,-21.484,0
1508627242.758,13.672,34.180,51.758,10.742,-65.918,0
1508627242.762,20.996,35.156,52.246,12.695,-100.098,0
1508627242.766,13.184,30.273,50.781,14.160,-25.391,0
1508627242.770,12.207,35.645,51.758,17.090,5.859,0
1508627242.773,19.531,41.504,62.012,22.949,-3.906,0
1508627242.777,17.090,41.504,59.570,22.949,53.711,0
1508627242.781,7.324,36.621,44.922,7.812,23.438,0
1508627242.785,-0.488,27.344,41.016,-0.977,-0.488,0
1508627242.789,-2.441,22.461,39.551,-1.953,12.695,0
1508627242.793,-6.836,21.484,31.738,-15.625,24.414,0
1508627242.797,-9.766,25.879,32.227,-13.184,69.824,0
1508627242.801,-7.324,27.344,39.062,3.418,6.836,0
1508627242.805,-5.859,23.926,38.574,5.859,6.836,0
1508627242.809,-6.836,24.414,35.645,1.465,-6.836,0
1508627242.813,-3.906,26.855,38.086,-6.348,-46.387,0
1508627242.816,-0.977,27.832,43.457,-7.812,27.832,0
1508627242.820,3.418,32.715,48.828,0.000,39.551,0
1508627242.824,5.859,34.180,45.898,5.371,23.438,0
1508627242.828,1.465,29.785,38.574,1.953,45.410,0
1508627242.832,-2.930,24.414,36.133,-3.906,38.086,0
1508627242.836,-1.465,28.809,41.504,-2.441,56.641,0
1508627242.840,0.000,36.133,41.992,1.953,78.125,0
1508627242.844,-1.953,32.715,29.785,-9.277,31.250,0
1508627242.848,2.930,34.668,26.855,-16.602,28.809,0
1508627242.852,5.371,38.574,31.738,-10.254,49.316,0
1508627242.856,1.465,36.621,31.250,-6.836,33.203,0
1508627242.859,-3.906,34.180,31.250,-9.766,40.527,0
1508627242.863,7.324,39.062,31.738,0.977,32.715,0
1508627242.867,13.672,44.434,29.785,1.953,52.734,0
1508627242.871,2.930,41.992,30.762,-9.277,42.969,0
1508627242.875,16.113,50.293,31.738,-5.371,49.805,0
1508627242.879,15.625,45.898,27.344,-2.441,74.707,0
1508627242.883,0.000,38.574,20.020,-2.930,31.250,0
1508627242.887,3.906,49.316,20.996,0.000,47.363,0
1508627242.891,10.254,49.805,28.809,3.906,63.477,0
1508627242.895,13.184,51.758,35.645,6.348,61.035,0
1508627242.898,12.695,54.688,33.691,2.441,75.684,0
1508627242.902,15.137,55.664,32.227,6.348,57.617,0
1508627242.906,17.578,58.594,34.180,14.160,3.418,0
1508627242.910,5.371,46.387,29.785,9.277,27.344,0
1508627242.914,9.277,46.387,29.785,16.113,52.246,0
1508627242.918,18.066,47.363,43.457,13.184,18.066,0
1508627242.922,10.254,40.527,52.734,2.930,40.039,0
1508627242.926,14.160,48.828,38.086,24.902,65.918,0
1508627242.930,6.348,38.574,26.367,19.043,36.133,0
1508627242.934,7.324,35.645,32.715,10.742,17.578,0
1508627242.938,15.625,39.062,34.668,14.160,59.570,0
1508627242.941,21.973,38.574,32.715,14.648,71.777,0
1508627242.945,23.926,39.551,41.016,27.344,44.922,0
1508627242.949,27.344,41.016,50.293,39.551,-2.930,0
1508627242.953,27.832,41.992,49.316,39.551,-32.227,0
1508627242.957,17.090,30.762,37.598,23.926,81.543,0
1508627242.961,11.230,24.414,31.250,17.578,53.711,0
1508627242.965,10.742,25.391,32.227,19.531,-19.531,0
1508627242.969,11.719,21.973,26.367,14.648,34.668,0
1508627242.973,15.625,27.344,28.809,18.066,64.453,0
1508627242.977,16.602,33.691,35.645,26.367,50.293,0
1508627242.981,14.648,31.738,34.668,25.879,72.266,0
1508627242.984,19.531,38.574,41.504,21.973,88.379,0
1508627242.988,20.508,38.574,41.016,24.902,32.715,0
1508627242.992,27.832,41.504,43.457,34.668,56.152,0
1508627242.996,33.203,49.805,49.805,32.715,79.102,0
1508627243.000,20.996,42.480,36.133,19.531,37.598,0
1508627243.004,16.113,38.574,29.785,19.531,25.391,0
1508627243.008,15.137,39.551,33.203,18.066,-12.695,0
1508627243.012,11.230,40.527,31.250,8.789,-12.207,0
1508627243.016,6.836,34.180,32.227,3.906,11.719,0
1508627243.020,4.395,26.855,28.320,-0.977,-9.277,0
1508627243.023,3.418,27.832,25.879,-1.953,-5.859,0
1508627243.027,15.625,42.480,37.109,11.719,9.766,0
1508627243.031,16.602,49.805,42.969,22.949,69.336,0
1508627243.035,19.043,48.828,52.246,24.902,94.238,0
1508627243.039,24.902,46.875,49.805,18.555,57.617,0
1508627243.043,10.254,32.715,31.738,5.371,63.965,0
1508627243.047,11.719,33.203,29.297,9.277,41.016,0
1508627243.051,15.137,38.574,35.156,17.090,62.988,0
1508627243.055,5.859,32.227,31.738,13.184,69.336,0
1508627243.059,10.254,35.645,54.199,14.160,59.082,0
1508627243.063,19.531,41.016,43.945,18.555,42.480,0
1508627243.066,19.531,40.527,14.160,12.695,16.113,0
1508627243.070,22.461,44.922,28.809,18.066,74.219,0
1508627243.074,16.113,38.574,29.785,16.602,90.820,0
1508627243.078,10.742,30.762,28.320,9.766,82.031,0
1508627243.082,16.602,35.645,33.691,18.066,60.059,0
1508627243.086,13.184,33.691,31.738,16.602,4.395,0
1508627243.090,18.066,42.480,38.574,18.066,29.297,0
1508627243.094,24.414,54.688,53.223,26.367,59.082,0
1508627243.098,10.254,40.039,45.898,16.602,74.219,0
1508627243.102,7.812,33.691,31.738,12.207,75.684,0
1508627243.106,10.254,38.574,36.621,12.207,75.684,0
1508627243.109,9.766,39.551,40.039,11.719,75.195,0
1508627243.113,11.230,39.062,30.273,18.555,49.805,0
1508627243.117,13.184,39.062,33.203,22.949,59.570,0
1508627243.121,17.578,39.062,39.551,18.066,56.152,0
1508627243.125,18.555,41.016,43.945,20.020,46.875,0
1508627243.129,18.555,44.922,49.316,35.645,60.547,0
1508627243.133,19.043,40.527,50.781,34.668,56.641,0
1508627243.137,20.996,42.480,41.016,28.809,39.551,0
1508627243.141,22.949,52.734,46.875,28.320,89.844,0
1508627243.145,18.555,50.293,56.152,20.508,424.805,0
1508627243.148,13.672,43.945,44.434,24.414,737.793,0
1508627243.152,7.812,40.039,28.809,19.531,745.605,0
1508627243.156,10.742,36.621,45.410,14.648,624.512,0
1508627243.160,18.555,37.109,47.852,23.438,497.070,0
1508627243.164,22.461,41.504,23.438,31.250,345.215,0
1508627243.168,21.484,43.945,33.691,33.691,214.355,0
1508627243.172,17.090,42.969,42.480,27.832,99.609,0
1508627243.176,16.113,41.504,44.922,20.996,20.508,0
1508627243.180,22.461,44.434,54.199,26.367,51.270,0
1508627243.184,34.668,54.199,63.965,33.691,87.402,0
1508627243.188,26.367,47.363,49.316,22.461,110.352,0
1508627243.191,9.277,31.250,40.039,15.625,94.727,3
1508627243.195,12.695,31.250,39.551,13.184,55.176,0
1508627243.199,25.879,45.898,43.457,18.555,30.273,0
1508627243.203,22.461,47.852,43.457,21.973,9.277,0
1508627243.207,13.672,38.574,37.598,11.230,-29.785,0
1508627243.211,16.113,39.062,35.645,6.348,-89.355,0
1508627243.215,10.742,37.598,41.504,5.371,-68.359,0
1508627243.219,17.578,41.992,41.504,10.254,-83.008,0
1508627243.223,22.949,46.387,33.691,8.789,-133.789,0
1508627243.227,20.020,45.410,39.551,11.230,-92.773,0
1508627243.231,31.738,57.129,49.316,29.785,-105.469,0
1508627243.234,26.855,54.199,35.645,16.113,-141.113,0
1508627243.238,12.207,41.016,21.973,-4.395,-124.023,0
1508627243.242,16.602,44.922,30.762,1.465,-130.371,0
1508627243.246,20.996,51.758,40.039,10.254,-114.258,0
1508627243.250,24.414,59.082,38.574,16.113,-103.027,0
1508627243.254,24.414,56.152,36.621,13.184,-91.309,0
1508627243.258,13.672,42.969,50.781,6.348,-72.266,0
1508627243.262,15.625,47.852,35.156,9.766,-116.211,0
1508627243.266,17.578,43.945,9.766,1.465,-81.055,0
1508627243.270,20.508,42.969,26.367,7.324,-35.645,0
1508627243.273,25.879,58.594,38.574,24.414,-74.219,0
1508627243.277,23.438,59.570,36.133,11.230,-145.508,0
1508627243.281,22.461,56.152,34.668,9.277,-130.371,0
1508627243.285,12.207,46.875,32.227,8.789,-51.270,0
1508627243.289,8.789,41.016,30.762,2.441,-20.996,0
1508627243.293,12.207,46.387,35.645,5.371,-57.129,0
1508627243.297,19.531,54.688,38.574,14.160,-24.902,0
1508627243.301,16.113,47.363,33.691,14.160,-19.531,0
1508627243.305,11.230,44.922,30.762,8.789,-71.289,0
1508627243.309,20.996,52.246,36.621,18.066,-82.031,0
1508627243.313,24.414,54.688,42.480,20.508,-16.113,0
1508627243.316,21.484,54.688,42.969,16.602,-8.789,0
1508627243.320,14.648,44.434,33.691,11.230,-22.949,0
1508627243.324,11.230,42.480,32.227,8.789,-31.250,0
1508627243.328,8.789,41.504,29.785,12.695,-30.273,0
1508627243.332,6.348,36.621,19.531,7.812,0.977,0
1508627243.336,17.578,46.387,29.785,5.371,-48.828,0
1508627243.340,17.578,45.898,29.785,0.977,-31.738,0
1508627243.344,12.695,40.527,22.949,-0.488,-37.109,0
1508627243.348,10.742,36.133,26.855,6.348,-26.367,0
1508627243.352,15.625,39.551,37.109,18.066,12.207,0
1508627243.356,24.902,48.340,37.109,21.484,7.324,0
1508627243.359,20.996,45.898,29.297,18.066,-17.578,0
1508627243.363,15.625,41.504,26.855,14.648,-32.715,0
1508627243.367,13.672,39.062,27.832,5.371,41.016,0
1508627243.371,20.508,46.387,37.598,16.113,23.438,0
1508627243.375,24.902,45.898,37.598,22.949,23.438,0
1508627243.379,16.602,33.691,23.926,10.742,34.668,0
1508627243.383,21.484,41.504,36.133,15.625,50.781,0
1508627243.387,27.832,47.852,40.527,22.461,66.406,0
1508627243.391,23.438,48.340,30.273,22.949,-19.043,0
1508627243.395,25.879,52.246,34.668,24.902,-13.672,0
1508627243.398,27.832,48.340,33.691,18.555,100.586,0
1508627243.402,25.391,47.852,29.297,11.230,77.148,0
1508627243.406,24.902,44.434,30.273,11.719,-7.812,0
1508627243.410,20.508,39.062,27.832,14.648,15.625,0
1508627243.414,22.461,43.945,29.297,19.043,10.254,0
1508627243.418,25.879,47.363,33.691,25.879,26.367,0
1508627243.422,27.832,49.316,27.832,25.391,-2.930,0
1508627243.426,21.973,44.922,45.898,17.090,-31.250,0
1508627243.430,21.484,48.340,48.340,18.555,34.668,0
1508627243.434,27.832,52.246,26.367,17.578,31.738,0
1508627243.438,19.043,44.922,34.180,14.160,3.418,0
1508627243.441,18.066,48.828,38.574,15.137,-33.203,0
1508627243.445,14.648,41.992,34.180,7.812,-4.395,0
1508627243.449,9.766,39.551,37.109,8.301,46.387,0
1508627243.453,11.230,44.922,41.992,13.184,35.645,0
1508627243.457,16.113,43.457,42.969,14.160,4.883,0
1508627243.461,20.508,45.410,40.039,21.484,6.836,0
1508627243.465,20.996,48.828,38.086,21.973,36.133,0
1508627243.469,17.578,44.434,41.016,7.812,8.301,0
1508627243.473,13.184,42.480,43.457,9.277,49.316,0
1508627243.477,19.043,49.805,40.527,20.508,66.895,0
1508627243.481,24.414,50.781,40.527,17.090,62.012,0
1508627243.484,22.461,42.480,39.062,13.184,36.621,0
1508627243.488,21.484,39.551,35.156,17.578,-8.301,0
1508627243.492,15.625,31.738,27.832,10.254,9.277,0
1508627243.496,10.254,31.738,28.809,8.301,38.086,0
1508627243.500,13.184,38.574,33.203,13.184,-14.160,0
1508627243.504,15.137,39.062,33.691,19.043,-23.438,0
1508627243.508,18.066,45.898,32.715,24.414,1.953,0
1508627243.512,20.996,44.922,32.715,16.602,32.227,0
1508627243.516,10.254,29.785,30.762,0.977,15.625,0
1508627243.520,11.230,36.133,40.527,8.789,-48.340,0
1508627243.523,24.902,55.176,52.246,23.438,11.230,0
1508627243.527,11.230,43.457,36.621,8.789,7.812,0
1508627243.531,1.953,32.715,24.414,-4.883,-15.625,0
1508627243.535,7.324,36.621,27.344,1.953,-6.348,0
1508627243.539,6.348,36.621,35.156,10.254,-17.578,0
1508627243.543,5.859,34.668,35.645,3.418,39.062,0
1508627243.547,7.324,36.133,35.156,2.441,24.902,0
1508627243.551,13.672,38.574,40.039,10.742,10.254,0
1508627243.555,19.531,45.898,48.340,21.484,54.688,0
1508627243.559,23.438,53.223,52.246,24.902,52.734,0
1508627243.563,22.949,47.852,45.898,16.602,-18.555,0
1508627243.566,22.949,49.805,42.969,20.020,24.902,0
1508627243.570,26.367,49.316,48.828,26.367,86.426,0
1508627243.574,23.438,46.875,47.852,20.996,91.309,0
1508627243.578,20.508,51.270,47.363,21.973,57.129,0
1508627243.582,23.438,51.758,44.922,28.320,23.926,0
1508627243.586,20.508,45.410,35.156,22.949,24.414,0
1508627243.590,20.996,42.969,29.785,20.020,55.176,0
1508627243.594,24.414,46.387,29.785,19.043,46.387,0
1508627243.598,24.902,50.293,36.621,25.879,44.922,0
1508627243.602,28.320,52.246,40.039,36.133,46.875,0
1508627243.606,30.273,50.781,39.551,41.992,5.371,0
1508627243.609,23.438,48.828,36.133,37.598,-2.930,0
1508627243.613,21.973,49.316,37.109,28.320,50.293,0
1508627243.617,34.180,57.617,50.781,32.715,77.637,0
1508627243.621,28.809,51.758,42.480,28.320,78.125,0
1508627243.625,12.695,36.621,22.949,14.160,60.059,0
1508627243.629,16.113,39.551,24.414,16.602,101.074,0
1508627243.633,14.160,42.969,28.809,20.020,147.461,0
1508627243.637,12.207,48.340,36.133,19.043,87.402,0
1508627243.641,20.996,56.152,40.039,20.508,45.410,0
1508627243.645,21.484,51.758,35.156,21.973,43.457,0
1508627243.648,16.113,45.410,29.785,20.020,63.477,0
1508627243.652,11.719,46.387,30.273,18.066,103.027,0
1508627243.656,12.695,45.898,34.180,14.648,156.250,0
1508627243.660,18.066,51.270,38.086,20.020,239.746,0
1508627243.664,22.949,56.152,41.504,25.879,349.609,0
1508627243.668,24.902,57.129,42.480,24.902,463.867,0
1508627243.672,17.578,50.293,40.527,21.973,560.547,0
1508627243.676,6.836,41.016,33.203,13.672,602.539,0
1508627243.680,-0.488,38.574,29.297,8.301,615.723,0
1508627243.684,5.859,39.062,42.969,7.324,665.527,0
1508627243.688,10.254,33.203,53.711,8.301,671.387,0
1508627243.691,10.742,35.645,56.641,13.184,605.469,4
1508627243.695,19.531,46.875,64.453,17.090,644.531,0
1508627243.699,15.625,45.410,62.012,12.207,624.512,0
1508627243.703,4.395,38.574,53.711,3.418,517.090,0
1508627243.707,1.953,33.691,51.270,-1.953,452.637,0
1508627243.711,4.883,38.574,52.246,-0.488,426.270,0
1508627243.715,5.371,37.598,55.176,6.836,458.496,0
1508627243.719,7.324,35.645,47.852,3.418,440.430,0
1508627243.723,10.742,41.992,45.410,-0.488,434.082,0
1508627243.727,17.578,46.387,55.664,9.766,493.164,0
1508627243.731,17.090,44.434,49.316,8.301,483.887,0
1508627243.734,10.254,36.621,31.738,-1.953,379.883,0
1508627243.738,10.742,34.180,38.574,0.000,296.875,0
1508627243.742,13.184,35.156,44.434,7.812,240.723,0
1508627243.746,14.648,34.668,37.598,7.812,134.277,0
1508627243.750,23.438,45.898,46.875,10.742,36.621,0
1508627243.754,36.133,60.059,58.105,27.344,-44.922,0
1508627243.758,41.016,59.082,57.129,34.668,-172.852,0
1508627243.762,33.203,47.852,43.945,27.344,-304.199,0
1508627243.766,18.555,33.203,36.621,9.277,-339.844,0
1508627243.770,17.578,32.715,39.062,5.859,-365.723,0
1508627243.773,21.973,41.016,41.016,16.113,-405.762,0
1508627243.777,20.996,43.945,50.781,19.043,-392.090,0
1508627243.781,15.137,37.109,41.016,12.695,-379.883,0
1508627243.785,16.113,38.574,36.621,10.254,-364.746,0
1508627243.789,17.578,41.504,38.086,11.230,-290.527,0
1508627243.793,21.484,40.039,40.527,13.672,-207.520,0
1508627243.797,25.391,41.992,48.828,18.066,-167.480,0
1508627243.801,23.438,41.016,55.176,19.531,-70.312,0
1508627243.805,27.344,43.457,58.105,21.484,62.988,0
1508627243.809,28.320,46.387,54.688,17.578,131.836,0
1508627243.813,16.113,35.156,44.434,7.812,235.840,0
1508627243.816,15.625,36.133,44.434,8.301,395.020,0
1508627243.820,8.301,28.809,34.668,0.977,475.586,0
1508627243.824,4.395,30.273,29.785,5.371,546.875,0
1508627243.828,13.184,43.457,42.480,10.742,637.207,0
1508627243.832,9.766,37.598,40.527,-1.465,714.844,0
1508627243.836,5.371,33.203,38.574,-2.441,704.102,0
1508627243.840,0.977,34.180,44.922,-8.301,653.320,0
1508627243.844,-1.465,34.668,48.828,-17.090,656.250,0
1508627243.848,2.930,33.691,46.387,-20.996,646.973,0
1508627243.852,3.418,34.668,49.316,-24.902,626.953,0
1508627243.856,0.488,35.645,51.270,-27.344,560.547,0
1508627243.859,-7.812,26.855,42.480,-45.898,524.902,0
1508627243.863,-19.043,18.066,40.527,-66.895,506.348,0
1508627243.867,-26.855,13.672,32.227,-76.660,461.914,0
1508627243.871,-26.367,13.672,24.414,-90.820,427.734,0
1508627243.875,-12.695,29.785,43.457,-87.891,390.137,0
1508627243.879,-9.277,35.156,55.176,-86.914,318.359,0
1508627243.883,-20.020,24.902,42.480,-106.934,293.945,0
1508627243.887,-28.320,22.461,35.645,-122.070,313.477,0
1508627243.891,-30.762,21.484,34.180,-131.348,298.340,0
1508627243.895,-24.414,24.902,36.133,-133.301,264.160,0
1508627243.898,-22.949,25.391,35.645,-136.719,207.520,0
1508627243.902,-27.832,23.438,32.227,-145.020,173.340,0
1508627243.906,-35.645,21.973,34.668,-152.832,186.523,0
1508627243.910,-33.203,27.832,33.691,-161.621,166.504,0
1508627243.914,-22.949,38.574,39.551,-160.156,77.148,0
1508627243.918,-22.461,44.434,46.875,-159.668,60.547,0
1508627243.922,-33.203,33.203,31.250,-174.805,108.887,0
1508627243.926,-28.809,31.738,23.926,-178.223,111.816,0
1508627243.930,-29.785,34.180,19.531,-180.176,111.328,0
1508627243.934,-40.527,24.902,8.789,-185.059,170.410,0
1508627243.938,-35.645,29.297,5.859,-182.129,237.305,0
1508627243.941,-34.180,32.715,3.418,-181.152,244.141,0
1508627243.945,-38.574,29.785,2.930,-181.152,253.906,0
1508627243.949,-42.969,29.297,-1.953,-184.082,316.895,0
1508627243.953,-39.551,34.668,-0.977,-185.059,364.746,0
1508627243.957,-42.969,32.227,-1.465,-191.895,370.117,0
1508627243.961,-57.617,23.926,-15.625,-203.613,373.535,0
1508627243.965,-55.176,30.762,-15.137,-199.707,393.066,0
1508627243.969,-50.293,41.016,-3.418,-188.965,404.785,0
1508627243.973,-48.828,41.992,12.695,-171.875,418.945,0
1508627243.977,-46.875,34.668,20.508,-167.969,429.199,0
1508627243.981,-50.293,28.809,16.602,-169.434,449.219,0
1508627243.984,-53.223,25.879,9.766,-165.039,475.098,0
1508627243.988,-49.316,25.879,11.719,-156.250,517.090,0
1508627243.992,-51.758,17.090,20.996,-156.738,533.691,0
1508627243.996,-57.617,12.207,33.203,-153.809,633.789,0
1508627244.000,-54.199,20.508,54.688,-139.648,732.910,0
1508627244.004,-52.734,20.996,103.027,-143.066,773.438,0
1508627244.008,-61.035,13.184,181.152,-149.902,810.059,0
1508627244.012,-70.801,5.859,310.059,-148.438,834.961,0
1508627244.016,-76.660,2.441,403.809,-154.297,835.938,0
1508627244.020,-77.148,8.301,416.992,-158.203,806.641,0
1508627244.023,-84.473,4.883,405.762,-172.852,768.555,0
1508627244.027,-89.355,0.977,385.254,-183.594,721.191,0
1508627244.031,-82.520,8.789,367.676,-184.570,621.582,0
1508627244.035,-90.332,4.883,341.309,-197.754,504.395,0
1508627244.039,-97.168,3.418,317.871,-202.148,411.133,0
1508627244.043,-112.793,-4.883,288.574,-219.727,312.988,0
1508627244.047,-122.559,-16.602,262.695,-227.051,214.355,0
1508627244.051,-121.582,-15.137,246.582,-221.680,70.312,0
1508627244.055,-125.977,-7.324,233.887,-220.703,4.883,0
1508627244.059,-131.836,-9.277,217.773,-222.168,-46.875,0
1508627244.063,-131.836,-11.719,199.219,-227.051,-152.832,0
1508627244.066,-135.742,-14.160,180.176,-241.699,-230.957,0
1508627244.070,-151.855,-21.484,165.039,-253.418,-335.938,0
1508627244.074,-151.367,-24.902,157.715,-247.559,-458.984,0
1508627244.078,-137.695,-25.391,156.250,-206.543,-561.523,0
1508627244.082,-132.812,-14.648,159.668,-203.613,-660.156,0
1508627244.086,-137.207,-10.742,142.578,-220.703,-759.277,0
1508627244.090,-133.789,-15.625,123.535,-210.938,-876.465,0
1508627244.094,-134.277,-12.207,123.047,-214.355,-955.078,0
1508627244.098,-128.418,-10.742,122.070,-212.891,-967.285,0
1508627244.102,-126.953,-15.625,115.234,-213.379,-965.332,0
1508627244.106,-128.906,-15.137,115.234,-190.430,-967.285,0
1508627244.109,-97.656,-0.488,122.070,-134.277,-967.285,0
1508627244.113,-76.660,5.859,125.000,-130.371,-966.797,0
1508627244.117,-83.496,0.000,118.164,-146.973,-967.285,0
1508627244.121,-78.613,6.348,121.094,-123.535,-966.797,0
1508627244.125,-49.316,22.461,138.184,-84.961,-966.797,0
1508627244.129,-40.527,29.297,147.461,-69.824,-966.797,0
1508627244.133,-45.898,28.320,132.812,-70.312,-966.797,0
1508627244.137,-38.574,32.715,131.836,-43.945,-967.285,0
1508627244.141,-30.762,37.598,142.090,-31.738,-964.844,0
1508627244.145,-18.066,41.504,143.066,-19.531,-970.703,0
1508627244.148,-16.113,47.852,142.578,-13.184,-946.777,0
1508627244.152,-23.926,45.410,142.578,-2.930,-905.273,0
1508627244.156,-26.367,33.691,143.066,0.977,-864.746,0
1508627244.160,-32.715,30.273,128.418,-3.906,-775.879,0
1508627244.164,-25.879,38.574,119.141,11.719,-684.570,0
1508627244.168,-5.371,52.246,127.930,30.273,-614.258,0
1508627244.172,-8.789,51.270,122.070,31.250,-566.406,0
1508627244.176,-12.695,40.527,70.312,21.973,-540.527,0
1508627244.180,-13.672,43.457,16.602,28.809,-487.793,0
1508627244.184,-13.672,49.316,-3.418,39.551,-409.180,0
1508627244.188,-8.789,41.992,-21.973,43.457,-324.707,0
1508627244.191,-5.371,40.527,-40.527,46.387,-246.582,5
1508627244.195,-2.441,43.457,-53.223,55.176,-209.473,0
1508627244.199,-4.395,43.945,-66.406,63.477,-172.363,0
1508627244.203,-7.812,38.086,-73.730,67.871,-133.301,0
1508627244.207,-6.348,33.691,-81.543,74.707,-51.758,0
1508627244.211,-9.766,28.320,-87.402,78.613,26.367,0
1508627244.215,-10.254,28.320,-93.262,83.008,78.613,0
1508627244.219,-7.324,29.785,-101.562,81.055,134.766,0
1508627244.223,-23.438,12.207,-118.652,62.988,149.902,0
1508627244.227,-29.297,5.859,-127.441,52.734,148.926,0
1508627244.231,-24.902,9.766,-123.047,61.035,148.926,0
1508627244.234,-32.227,3.906,-126.465,62.012,168.457,0
1508627244.238,-39.062,-2.441,-134.766,49.316,134.277,0
1508627244.242,-39.062,-4.395,-140.137,42.480,57.129,0
1508627244.246,-35.156,-3.906,-142.578,41.016,-45.410,0
1508627244.250,-35.156,-4.395,-138.672,36.621,-153.809,0
1508627244.254,-31.738,-6.836,-141.602,32.227,-244.629,0
1508627244.258,-30.273,-14.160,-149.902,30.273,-280.273,0
1508627244.262,-26.855,-10.742,-144.531,35.645,-323.242,0
1508627244.266,-24.414,-9.766,-142.578,37.109,-337.402,0
1508627244.270,-32.227,-20.020,-146.973,27.832,-312.500,0
1508627244.273,-32.227,-27.832,-148.438,26.855,-326.660,0
1508627244.277,-25.879,-27.344,-146.484,32.227,-321.777,0
1508627244.281,-14.160,-20.996,-139.160,45.410,-254.883,0
1508627244.285,-2.441,-11.230,-131.836,60.547,-173.340,0
1508627244.289,-0.977,-10.742,-129.395,65.918,-123.535,0
1508627244.293,2.441,-13.184,-125.488,69.824,-70.801,0
1508627244.297,4.883,-9.277,-117.676,75.684,-2.441,0
1508627244.301,-5.859,-17.578,-125.000,72.266,28.320,0
1508627244.305,-13.184,-30.273,-131.348,64.941,68.359,0
1508627244.309,-13.184,-33.691,-129.883,66.406,126.465,0
1508627244.313,-6.348,-24.902,-125.488,80.566,163.574,0
1508627244.316,0.000,-19.043,-116.699,88.867,147.461,0
1508627244.320,1.465,-17.578,-111.328,83.984,159.180,0
1508627244.324,-6.348,-21.973,-117.188,74.707,200.684,0
1508627244.328,-17.090,-33.691,-122.559,70.801,217.285,0
1508627244.332,-14.160,-28.809,-120.605,82.031,237.793,0
1508627244.336,-4.395,-15.625,-114.258,97.168,289.551,0
1508627244.340,-3.906,-12.695,-109.375,97.168,309.082,0
1508627244.344,-11.719,-20.996,-115.234,90.332,336.914,0
1508627244.348,-11.719,-25.391,-112.793,90.332,377.441,0
1508627244.352,-11.719,-22.949,-104.004,88.379,406.738,0
1508627244.356,-10.742,-22.461,-104.492,83.496,453.125,0
1508627244.359,-5.371,-17.090,-104.004,94.238,494.141,0
1508627244.363,-13.184,-15.137,-104.004,91.309,479.004,0
1508627244.367,-21.484,-20.508,-107.910,71.777,432.129,0
1508627244.371,-20.020,-23.926,-104.980,67.383,432.617,0
1508627244.375,-25.391,-25.879,-105.957,65.918,442.871,0
1508627244.379,-24.414,-15.625,-102.051,65.918,395.508,0
1508627244.383,-13.672,-7.812,-85.938,75.195,358.398,0
1508627244.387,-11.719,-14.160,-81.055,75.684,352.051,0
1508627244.391,-10.254,-7.812,-82.520,77.637,343.750,0
1508627244.395,-11.230,-6.836,-86.426,69.824,351.074,0
1508627244.398,-19.531,-14.160,-85.449,64.453,337.402,0
1508627244.402,-15.137,-6.836,-71.777,71.777,357.422,0
1508627244.406,-15.625,-4.395,-73.242,60.547,343.262,0
1508627244.410,-21.973,-4.395,-74.707,48.340,316.406,0
1508627244.414,-12.695,8.789,-57.617,51.270,311.523,0
1508627244.418,-18.555,8.301,-56.641,50.781,363.770,0
1508627244.422,-21.973,-2.441,-68.848,49.316,388.184,0
1508627244.426,-16.113,-3.418,-63.477,43.457,364.258,0
1508627244.430,-23.438,0.977,-58.105,33.203,346.191,0
1508627244.434,-18.066,7.324,-60.059,40.527,322.754,0
1508627244.438,-17.578,3.906,-57.129,39.062,276.367,0
1508627244.441,-18.555,3.418,-45.898,35.645,252.441,0
1508627244.445,0.977,16.602,-36.621,56.641,269.531,0
1508627244.449,5.859,18.066,-42.969,63.477,243.652,0
1508627244.453,-12.695,-1.953,-57.617,35.156,233.398,0
1508627244.457,-26.855,-16.602,-62.012,22.461,249.023,0
1508627244.461,-20.020,-14.648,-55.176,31.738,255.859,0
1508627244.465,-15.137,-11.719,-49.316,29.785,276.855,0
1508627244.469,-18.066,-10.742,-47.852,26.855,294.922,0
1508627244.473,-15.625,-11.719,-44.922,34.180,327.637,0
1508627244.477,-16.113,-12.695,-48.828,30.762,363.281,0
1508627244.481,-16.113,-8.301,-48.340,29.785,385.254,0
1508627244.484,-9.766,0.488,-37.109,36.621,404.297,0
1508627244.488,-6.836,3.906,-32.715,38.574,443.848,0
1508627244.492,-8.789,4.883,-36.133,42.969,496.094,0
1508627244.496,-11.719,0.488,-41.504,40.527,546.387,0
1508627244.500,-12.695,-1.465,-43.945,36.133,583.008,0
1508627244.504,-12.695,7.324,-39.551,36.133,593.750,0
1508627244.508,-10.742,12.207,-32.227,48.340,580.078,0
1508627244.512,-13.672,7.324,-30.762,45.898,610.840,0
1508627244.516,-10.254,10.742,-28.809,44.922,653.809,0
1508627244.520,0.000,18.066,-27.344,56.152,673.340,0
1508627244.523,-13.184,6.348,-41.504,40.527,679.688,0
1508627244.527,-18.555,1.953,-48.340,28.809,646.973,0
1508627244.531,-9.766,8.789,-36.621,33.203,646.484,0
1508627244.535,-16.602,4.395,-33.691,30.273,662.598,0
1508627244.539,-20.508,4.395,-34.180,30.762,698.730,0
1508627244.543,-15.137,1.953,-41.992,35.156,665.039,0
1508627244.547,-8.301,8.789,-38.574,39.062,628.418,0
1508627244.551,-13.672,13.672,-17.578,35.156,633.789,0
1508627244.555,-21.973,4.395,-32.715,23.438,609.375,0
1508627244.559,-18.555,1.953,-54.199,24.414,606.934,0
1508627244.563,-18.066,4.395,-41.016,29.785,600.586,0
1508627244.566,-22.461,9.766,-24.902,20.996,609.863,0
1508627244.570,-16.602,17.090,-33.691,27.344,614.258,0
1508627244.574,-4.883,21.484,-47.363,35.156,604.980,0
1508627244.578,-6.348,18.555,-39.062,29.785,584.961,0
1508627244.582,-14.648,10.742,-41.016,25.391,599.609,0
1508627244.586,-9.277,12.695,-43.945,28.320,587.402,0
1508627244.590,6.836,22.949,-32.715,41.016,542.969,0
1508627244.594,3.418,22.949,-27.344,43.457,551.758,0
1508627244.598,-4.395,20.996,-34.668,35.156,569.824,0
1508627244.602,-1.465,25.391,-41.992,37.109,529.297,0
1508627244.606,3.418,26.367,-44.922,41.504,481.445,0
1508627244.609,7.812,27.344,-37.598,41.016,482.422,0
1508627244.613,10.254,26.855,-40.039,42.480,472.168,0
1508627244.617,8.789,21.484,-47.363,37.109,435.059,0
1508627244.621,6.836,24.414,-30.762,30.273,444.824,0
1508627244.625,2.930,27.344,-20.996,29.297,415.039,0
1508627244.629,-1.953,25.391,-47.363,37.598,348.145,0
1508627244.633,-5.859,23.926,-48.340,30.762,291.992,0
1508627244.637,-6.348,20.996,-41.016,15.137,236.816,0
1508627244.641,-5.371,19.531,-48.340,24.902,247.559,0
1508627244.645,-0.488,26.367,-45.898,36.133,253.906,0
1508627244.648,-0.977,29.297,-44.434,23.438,228.516,0
1508627244.652,-4.883,28.809,-43.457,10.742,226.562,0
1508627244.656,-4.395,32.227,-44.922,11.719,291.016,0
1508627244.660,0.977,36.621,-39.062,23.926,351.562,0
1508627244.664,2.930,35.645,-35.156,31.250,363.281,0
1508627244.668,-8.789,27.344,-51.270,14.648,418.945,0
1508627244.672,-13.672,20.996,-59.082,0.977,506.348,0
1508627244.676,-9.277,17.578,-63.477,1.465,589.355,0
1508627244.680,-10.742,20.020,-62.012,0.000,617.676,0
1508627244.684,-14.648,20.996,-53.711,2.441,607.910,0
1508627244.688,-6.836,26.367,-41.992,3.906,648.438,0
1508627244.691,3.418,33.691,-31.738,-2.441,707.520,0
1508627244.695,0.000,30.762,-28.320,-3.418,711.914,0
1508627244.699,-7.812,25.391,-21.484,-2.441,770.996,0
1508627244.703,-13.184,24.902,-20.020,-8.301,841.309,0
1508627244.707,-18.555,24.902,-25.391,-14.648,879.883,0
1508627244.711,-21.484,22.949,-21.484,-17.090,929.688,0
1508627244.715,-17.578,22.949,-8.301,-10.254,986.328,0
1508627244.719,-5.859,28.809,5.859,2.441,-998.535,0
1508627244.723,-9.277,30.273,6.348,5.371,997.070,0
1508627244.727,-23.926,22.461,3.418,-0.488,999.512,0
1508627244.731,-23.438,18.555,2.930,-0.488,999.512,0
1508627244.734,-7.812,24.414,8.301,7.812,999.512,0
1508627244.738,-3.906,27.344,9.766,9.766,999.512,0
1508627244.742,-1.465,30.273,9.766,12.207,999.512,0
1508627244.746,2.930,32.715,13.672,15.137,999.512,0
1508627244.750,0.977,24.902,6.836,12.695,999.512,0
1508627244.754,3.418,22.461,3.418,16.113,999.512,0
1508627244.758,8.301,29.785,6.348,20.020,999.512,0
1508627244.762,6.836,29.785,-0.977,17.090,999.512,0
1508627244.766,0.488,25.879,-13.184,13.672,999.512,0
1508627244.770,0.000,24.414,-24.902,17.090,999.512,0
1508627244.773,7.324,29.297,-21.973,26.855,995.605,0
1508627244.777,19.531,40.527,-9.277,32.715,-994.629,0
1508627244.781,23.926,43.457,-11.719,38.574,957.031,0
1508627244.785,24.902,41.504,-27.832,47.852,856.445,0
1508627244.789,30.762,46.387,-31.250,45.410,764.648,0
1508627244.793,35.645,53.223,-30.762,40.527,662.109,0
1508627244.797,40.039,54.199,-36.133,45.410,548.340,0
1508627244.801,42.480,55.176,-44.434,48.828,436.035,0
1508627244.805,40.039,57.129,-60.547,49.316,339.844,0
1508627244.809,38.086,59.082,-74.219,57.617,247.070,0
1508627244.813,39.062,62.012,-95.215,58.594,166.016,0
1508627244.816,46.387,70.312,-122.070,47.363,104.492,0
1508627244.820,44.434,69.336,-145.020,36.133,22.949,0
1508627244.824,51.270,76.660,-160.156,41.992,-125.977,0
1508627244.828,62.988,82.520,-147.461,41.992,-261.230,0
1508627244.832,47.852,72.754,-111.328,14.648,-363.281,0
1508627244.836,41.016,69.824,-57.617,-0.488,-390.137,0
1508627244.840,45.898,74.219,21.484,0.977,-441.895,0
1508627244.844,49.316,83.984,67.871,-0.977,-541.016,0
1508627244.848,53.223,87.402,113.281,1.953,-628.418,0
1508627244.852,54.688,84.473,164.551,6.348,-693.359,0
1508627244.856,55.664,87.891,207.031,8.789,-819.824,0
1508627244.859,61.523,94.727,203.125,11.719,-958.984,0
1508627244.863,63.965,91.309,191.895,17.090,-967.773,0
1508627244.867,58.594,90.332,246.094,21.484,-963.379,0
1508627244.871,59.570,99.121,279.297,20.020,-967.773,0
1508627244.875,68.848,102.539,242.676,21.484,-967.285,0
1508627244.879,71.777,104.980,191.895,24.902,-966.797,0
1508627244.883,59.570,98.145,148.926,13.184,-966.797,0
1508627244.887,41.504,78.613,78.125,-4.395,-966.797,0
1508627244.891,35.156,73.730,16.602,-8.301,-966.797,0
1508627244.895,42.480,81.055,-71.777,-12.695,-966.797,0
1508627244.898,43.945,79.102,-230.957,-19.531,-966.797,0
1508627244.902,41.016,80.566,-363.281,-16.602,-967.285,0
1508627244.906,43.945,89.355,-436.523,-20.508,-966.797,0
1508627244.910,41.016,81.055,-564.941,-34.180,-966.797,0
1508627244.914,43.945,82.031,-664.551,-34.180,-967.285,0
1508627244.918,45.898,87.402,-684.082,-35.645,-966.797,0
1508627244.922,39.062,84.961,-642.090,-38.574,-967.285,0
1508627244.926,44.434,90.332,-663.574,-31.250,-964.844,0
1508627244.930,46.875,85.938,-747.070,-38.086,-970.703,0
1508627244.934,37.598,77.148,-739.746,-50.781,-942.383,0
1508627244.938,34.668,77.148,-684.082,-43.945,-893.555,0
1508627244.941,38.574,84.961,-624.512,-32.227,-840.332,0
1508627244.945,37.598,80.566,-658.691,-42.969,-769.043,0
1508627244.949,31.738,71.289,-708.008,-52.246,-709.473,0
1508627244.953,17.090,62.988,-749.512,-62.012,-718.750,0
1508627244.957,3.906,47.363,-762.695,-74.707,-699.219,0
1508627244.961,5.859,46.387,-778.320,-78.125,-639.160,0
1508627244.965,5.859,46.387,-734.375,-81.543,-689.453,0
1508627244.969,4.883,44.922,-570.801,-83.008,-740.234,0
1508627244.973,2.441,42.480,-533.203,-86.914,-700.684,0
1508627244.977,-3.418,35.156,-540.039,-89.844,-650.879,0
1508627244.981,-11.230,22.949,-273.926,-89.844,-647.949,0
1508627244.984,-15.137,18.555,62.988,-89.844,-665.039,0
1508627244.988,-20.996,14.648,204.590,-92.773,-625.977,0
1508627244.992,-15.137,15.625,242.676,-79.102,-486.328,0
1508627244.996,6.836,34.668,355.957,-52.246,-489.746,0
1508627245.000,-0.488,29.297,480.469,-53.223,-546.387,0
1508627245.004,-14.160,9.766,398.926,-55.664,-398.926,0
1508627245.008,-12.207,8.301,270.996,-42.969,-357.422,0
1508627245.012,-2.930,15.137,170.410,-36.133,-346.191,0
1508627245.016,0.488,14.160,-32.227,-23.438,-264.648,0
1508627245.020,3.906,19.043,-578.125,-3.418,-300.293,0
1508627245.023,5.371,17.578,-969.238,-1.953,-272.949,0
1508627245.027,-0.488,8.789,-958.496,-13.672,-295.898,0
1508627245.031,0.000,17.090,-959.961,-16.113,-326.660,0
1508627245.035,4.395,28.320,-969.238,-16.602,-234.375,0
1508627245.039,15.625,34.180,-967.285,-13.672,-238.281,0
1508627245.043,13.184,27.832,-966.797,-18.555,-328.125,0
1508627245.047,8.789,27.344,-966.797,-25.879,-335.938,0
1508627245.051,21.973,42.969,-967.773,-22.461,-317.383,0
1508627245.055,34.668,49.805,-967.773,-19.531,-264.648,0
1508627245.059,38.574,50.293,-945.801,-8.301,-204.590,0
1508627245.063,43.457,58.594,-979.004,1.953,-209.961,0
1508627245.066,46.875,62.500,-735.352,0.488,-149.902,0
1508627245.070,41.016,57.129,124.512,-4.883,-195.801,0
1508627245.074,31.738,49.316,859.863,-7.324,-236.328,0
1508627245.078,25.879,39.062,-999.023,-6.348,-193.359,0
1508627245.082,15.625,28.809,982.910,-11.230,-174.805,0
1508627245.086,8.789,26.855,-999.023,-12.207,-177.734,0
1508627245.090,18.066,37.109,-999.512,2.930,-163.086,0
1508627245.094,21.973,40.039,-998.047,16.113,-115.723,0
1508627245.098,18.555,36.621,954.102,21.973,-49.805,0
1508627245.102,18.555,33.691,-931.152,24.902,-62.012,0
1508627245.106,25.391,41.016,560.059,24.414,-115.723,0
1508627245.109,25.391,42.480,-661.621,21.484,-79.590,0
1508627245.113,17.090,34.180,-1000.000,11.719,-70.312,0
1508627245.117,9.277,20.996,-930.176,-1.465,-99.609,0
1508627245.121,4.883,13.672,-969.238,-16.602,-97.168,0
1508627245.125,-1.465,16.602,-967.773,-26.367,-105.957,0
1508627245.129,-11.230,13.672,-969.238,-39.551,-121.094,0
1508627245.133,-14.160,9.766,-961.914,-53.223,-193.848,0
1508627245.137,-14.160,11.719,-929.199,-58.594,-212.891,0
1508627245.141,-12.695,15.137,-1000.000,-51.270,-182.129,0
1508627245.145,-11.230,14.160,-277.832,-47.363,-192.383,0
1508627245.148,-6.348,18.555,877.930,-37.598,-149.902,0
1508627245.152,1.465,28.320,-986.816,-24.414,-107.910,0
1508627245.156,2.441,32.715,968.750,-26.367,-129.883,0
1508627245.160,3.418,30.762,-995.605,-20.996,-126.953,0
1508627245.164,1.465,26.367,999.512,-12.695,-144.531,0
1508627245.168,1.953,24.414,999.512,-5.371,-120.605,0
1508627245.172,3.906,22.461,999.512,-0.488,-66.895,0
1508627245.176,2.441,15.625,999.512,5.371,-81.543,0
1508627245.180,5.371,15.625,999.512,17.578,-80.566,0
1508627245.184,2.441,12.207,999.512,25.391,-0.977,0
1508627245.188,-4.395,0.488,999.512,28.320,38.086,0
1508627245.191,-6.348,-10.254,999.512,28.320,34.668,0
1508627245.195,-2.930,-4.883,999.512,34.668,29.785,0
1508627245.199,-10.254,-1.953,999.512,40.039,41.504,0
1508627245.203,-19.043,-7.812,999.512,38.574,88.379,0
1508627245.207,-13.184,-6.836,999.512,30.273,36.621,0
1508627245.211,-22.461,-14.160,-998.535,17.578,14.648,0
1508627245.215,-46.875,-28.320,982.910,-0.977,24.902,0
1508627245.219,-47.852,-24.902,-973.633,-1.953,10.742,0
1508627245.223,-51.758,-29.297,867.188,-3.418,36.621,0
1508627245.227,-68.359,-43.457,499.512,-19.531,55.176,0
1508627245.231,-64.941,-37.109,339.355,-17.090,44.922,0
1508627245.234,-58.105,-31.250,205.566,-9.277,41.504,0
1508627245.238,-46.875,-20.996,-132.812,-0.488,30.762,0
1508627245.242,-49.805,-23.438,-687.988,-7.324,45.898,0
1508627245.246,-63.965,-38.574,-949.219,-22.949,98.633,0
1508627245.250,-63.477,-39.062,-958.008,-27.344,73.242,0
1508627245.254,-61.035,-40.527,-963.867,-27.344,54.688,0
1508627245.258,-59.082,-38.574,-967.773,-25.391,91.797,0
1508627245.262,-57.129,-38.574,-966.797,-23.438,93.750,0
1508627245.266,-62.500,-39.062,-966.797,-27.832,46.387,0
1508627245.270,-66.406,-36.621,-971.191,-30.273,36.621,0
1508627245.273,-61.035,-34.668,-950.195,-29.785,53.223,0
1508627245.277,-64.453,-35.645,-941.895,-36.133,57.129,0
1508627245.281,-64.453,-32.227,-1000.000,-36.133,6.348,0
1508627245.285,-69.336,-38.086,63.965,-40.039,8.301,0
1508627245.289,-86.914,-47.363,-917.480,-57.129,53.711,0
1508627245.293,-77.637,-33.691,966.797,-53.223,-19.531,0
1508627245.297,-66.406,-24.902,987.305,-53.223,-13.184,0
1508627245.301,-79.102,-29.297,987.793,-58.594,39.062,0
1508627245.305,-87.402,-26.367,-992.676,-58.594,49.805,0
1508627245.309,-83.496,-29.785,901.855,-56.641,41.992,0
1508627245.313,-74.219,-32.715,304.199,-54.688,59.082,0
1508627245.316,-73.730,-32.227,-371.094,-58.594,47.852,0
1508627245.320,-74.707,-33.691,-832.031,-56.152,48.340,0
1508627245.324,-70.801,-28.320,-988.281,-49.805,66.406,0
1508627245.328,-69.824,-30.762,-922.363,-49.805,52.246,0
1508627245.332,-79.590,-44.922,-722.656,-59.082,78.125,0
1508627245.336,-83.984,-51.270,-821.777,-62.500,96.191,0
1508627245.340,-78.613,-45.410,-824.707,-58.105,82.031,0
1508627245.344,-77.637,-41.504,-323.730,-51.270,74.219,0
1508627245.348,-76.172,-42.969,-417.480,-45.410,121.582,0
1508627245.352,-76.172,-41.016,-181.152,-40.527,172.852,0
1508627245.356,-71.777,-36.621,207.031,-29.785,145.996,0
1508627245.359,-64.941,-37.109,-584.473,-18.555,156.738,0
1508627245.363,-74.219,-48.340,-1000.000,-23.926,168.945,0
1508627245.367,-84.961,-62.500,-972.168,-32.227,169.922,0
1508627245.371,-86.426,-64.453,-813.965,-33.203,186.035,0
1508627245.375,-83.496,-59.082,-660.645,-29.785,182.129,0
1508627245.379,-87.891,-65.430,-626.953,-36.133,187.988,0
1508627245.383,-98.145,-73.730,-544.922,-39.062,151.855,0
1508627245.387,-102.051,-74.219,-491.211,-38.574,124.512,0
1508627245.391,-104.004,-76.172,-49.316,-48.340,131.836,0
1508627245.395,-97.168,-72.754,-42.480,-39.062,205.566,0
1508627245.398,-82.031,-57.129,-365.234,-27.344,201.660,0
1508627245.402,-81.543,-54.199,-108.398,-31.250,166.992,0
1508627245.406,-76.660,-48.828,25.879,-32.227,194.824,0
1508627245.410,-61.523,-37.598,-444.336,-23.926,191.406,0
1508627245.414,-67.383,-44.922,-756.836,-30.273,163.086,0
1508627245.418,-70.801,-42.969,-514.160,-32.227,145.020,0
1508627245.422,-50.781,-30.762,-385.254,-20.020,168.945,0
1508627245.426,-34.668,-38.574,-583.984,-26.367,166.504,0
1508627245.430,-15.625,-55.176,-681.641,-39.551,148.926,0
1508627245.434,41.504,-52.734,-834.961,-33.691,103.027,0
1508627245.438,124.512,-44.922,-874.512,-25.879,93.262,0
1508627245.441,238.770,-41.992,-650.879,-20.508,142.090,0
1508627245.445,375.000,-41.504,-268.066,-20.020,108.887,0
1508627245.449,513.184,-44.434,392.090,-26.855,71.777,0
1508627245.453,699.707,-41.016,904.785,-32.227,52.734,0
1508627245.457,917.969,-35.156,984.863,-38.086,26.855,0
1508627245.461,-995.605,-28.320,-992.676,-42.969,-21.973,0
1508627245.465,994.141,-23.438,893.555,-49.316,-5.859,0
1508627245.469,999.023,-20.996,441.895,-59.082,57.617,0
1508627245.473,999.512,-14.160,-331.543,-58.105,36.621,0
1508627245.477,999.512,-3.418,-991.699,-55.664,3.906,0
1508627245.481,999.512,9.277,-957.520,-55.176,-41.992,0
1508627245.484,999.512,0.000,-953.125,-69.824,-47.852,0
1508627245.488,999.512,-9.277,-970.215,-89.844,-70.312,0
1508627245.492,999.512,-9.277,-967.285,-93.750,-95.215,0
1508627245.496,999.512,2.441,-966.797,-91.309,-83.984,0
1508627245.500,999.512,5.859,-967.285,-97.656,-78.125,0
1508627245.504,-1000.000,0.977,-967.285,-106.445,-103.516,0
1508627245.508,994.141,0.977,-967.285,-113.281,-76.660,0
1508627245.512,-998.535,3.418,-967.285,-118.164,-78.125,0
1508627245.516,960.449,3.906,-967.285,-118.652,-81.055,0
1508627245.520,747.559,-2.930,-967.285,-124.512,-62.012,0
1508627245.523,457.520,-7.324,-967.285,-135.742,-108.887,0
1508627245.527,243.652,-14.648,-967.285,-155.762,-136.230,0
1508627245.531,113.281,-17.578,-967.285,-171.387,-194.336,0
1508627245.535,3.418,-9.766,-967.285,-179.688,-212.891,0
1508627245.539,-86.914,-3.906,-967.285,-193.848,-221.680,0
1508627245.543,-175.293,-16.602,-967.285,-219.727,-185.547,0
1508627245.547,-256.348,-12.695,-967.285,-242.188,-185.059,0
1508627245.551,-317.383,11.719,-966.797,-255.371,-248.047,0
1508627245.555,-370.117,9.766,-967.285,-275.879,-261.719,0
1508627245.559,-417.480,2.441,-967.285,-307.617,-220.703,0
1508627245.563,-455.566,6.348,-967.285,-330.078,-231.445,0
1508627245.566,-484.863,13.184,-966.797,-343.750,-296.875,0
1508627245.570,-511.719,13.672,-967.285,-370.117,-455.566,0
1508627245.574,-538.574,10.742,-967.285,-388.672,-455.566,0
1508627245.578,-548.828,14.160,-967.285,-398.438,-375.977,0
1508627245.582,-539.062,22.949,-967.285,-405.762,-430.664,0
1508627245.586,-554.199,24.414,-966.797,-428.711,-512.207,0
1508627245.590,-582.520,32.715,-966.797,-463.379,-539.551,0
1508627245.594,-594.727,42.480,-966.797,-478.027,-516.602,0
1508627245.598,-607.910,43.945,-967.285,-489.258,-547.852,0
1508627245.602,-636.719,40.039,-966.797,-527.344,-550.293,0
1508627245.606,-668.457,25.391,-967.285,-571.289,-548.828,0
1508627245.609,-688.965,16.602,-967.285,-612.793,-608.887,0
1508627245.613,-702.637,23.438,-966.797,-659.668,-665.039,0
1508627245.617,-723.633,33.203,-966.797,-703.125,-654.785,0
1508627245.621,-749.023,43.457,-967.285,-744.141,-584.473,0
1508627245.625,-770.508,52.734,-967.285,-779.297,-387.695,0
1508627245.629,-789.551,49.316,-966.797,-808.105,-141.602,0
1508627245.633,-803.223,33.691,-967.285,-822.754,37.598,0
1508627245.637,-804.199,24.902,-969.727,-818.359,161.133,0
1508627245.641,-789.062,10.742,-953.613,-791.504,218.750,0
1508627245.645,-838.867,37.109,-926.270,-822.266,565.918,0
1508627245.648,-843.262,33.203,-1000.000,-807.129,899.902,0
1508627245.652,-756.836,-13.672,44.922,-713.379,923.340,0
1508627245.656,-721.191,-16.602,-915.039,-659.180,981.445,0
1508627245.660,-682.617,-18.555,959.473,-604.004,-999.023,0
1508627245.664,-640.625,-11.230,975.098,-544.434,998.047,0
1508627245.668,-615.723,-16.602,-271.973,-496.582,999.512,0
1508627245.672,-584.473,-24.414,-1000.000,-452.637,999.512,0
1508627245.676,-555.664,-23.438,-859.375,-406.738,999.512,0
1508627245.680,-534.668,-18.066,-1000.000,-354.980,999.512,0
1508627245.684,-508.789,-15.137,-842.773,-306.152,999.512,0
1508627245.688,-477.051,-8.301,491.211,-263.184,999.512,0
1508627245.691,-445.312,-2.441,-872.559,-216.309,999.512,0
1508627245.695,-418.945,1.953,969.727,-168.945,999.512,0
1508627245.699,-391.113,12.695,-497.559,-123.047,999.512,0
1508627245.703,-367.188,12.695,-314.453,-87.891,999.512,0
1508627245.707,-350.586,8.789,-862.793,-54.199,999.512,0
1508627245.711,-331.055,10.742,975.586,-17.090,-1000.000,0
1508627245.715,-315.430,9.766,972.168,16.113,997.070,0
1508627245.719,-309.082,9.277,-994.141,34.668,997.559,0
1508627245.723,-278.320,16.113,999.512,69.824,996.094,0
1508627245.727,-238.281,22.949,999.512,101.074,891.602,0
1508627245.731,-223.145,16.602,999.512,114.746,738.770,0
1508627245.734,-219.238,5.859,999.512,137.207,679.199,0
1508627245.738,-199.219,5.371,999.512,163.086,646.484,0
1508627245.742,-181.641,7.812,999.512,185.059,577.148,0
1508627245.746,-165.039,15.137,999.512,214.844,531.250,0
1508627245.750,-145.020,29.785,999.512,251.465,492.676,0
1508627245.754,-138.672,30.273,999.512,271.973,424.316,0
1508627245.758,-114.258,22.949,999.512,288.574,342.285,0
1508627245.762,-160.645,26.367,-998.535,316.406,231.934,0
1508627245.766,-246.094,22.949,987.793,338.867,198.730,0
1508627245.770,-157.715,22.949,955.566,356.445,162.109,0
1508627245.773,-14.648,37.598,-884.766,382.812,-9.766,0
1508627245.777,41.504,24.414,28.809,389.648,-212.402,0
1508627245.781,15.137,11.719,-1000.000,386.230,-345.703,0
1508627245.785,-12.207,10.742,-933.105,395.020,-406.738,0
1508627245.789,-20.508,10.254,-925.293,396.973,-473.633,0
1508627245.793,-20.996,23.438,-958.008,378.418,-495.117,0
1508627245.797,-10.742,27.344,-1000.000,361.328,-482.910,0
1508627245.801,6.836,34.180,235.352,357.910,-498.535,0
1508627245.805,10.742,38.086,-868.164,346.191,-564.453,0
1508627245.809,-3.418,23.926,938.477,324.707,-681.152,0
1508627245.813,2.930,20.508,-999.023,306.641,-824.707,0
1508627245.816,19.531,24.414,991.211,295.898,-941.895,0
1508627245.820,25.391,28.809,944.336,277.832,-968.262,0
1508627245.824,24.902,27.344,-809.082,256.348,-964.355,0
1508627245.828,20.020,24.414,-62.012,249.023,-967.285,0
1508627245.832,20.508,26.367,-404.297,236.328,-967.285,0
1508627245.836,17.090,35.645,-942.383,228.027,-966.797,0
1508627245.840,7.812,41.016,-980.957,217.773,-966.797,0
1508627245.844,-9.277,30.762,959.961,198.730,-967.285,0
1508627245.848,-28.809,19.043,-991.211,170.898,-967.285,0
1508627245.852,-41.992,9.766,999.512,141.602,-966.309,0
1508627245.856,-53.711,1.953,999.512,123.047,-966.309,0
1508627245.859,-57.617,2.930,999.512,108.398,-968.750,0
1508627245.863,-65.918,2.441,999.512,93.262,-934.570,0
1508627245.867,-72.266,-1.953,999.512,87.402,-897.461,0
1508627245.871,-78.613,-13.184,999.512,76.172,-854.980,0
1508627245.875,-90.332,-17.578,999.512,55.664,-739.258,0
1508627245.879,-93.262,-17.578,999.512,49.316,-651.367,0
1508627245.883,-96.191,-19.043,999.512,39.551,-708.984,0
1508627245.887,-104.004,-22.949,999.512,27.344,-710.938,0
1508627245.891,-112.793,-31.250,999.512,22.949,-610.352,0
1508627245.895,-98.145,-16.113,999.512,37.109,-549.805,0
1508627245.898,-87.891,-8.789,-997.070,31.250,-492.676,0
1508627245.902,-121.582,-27.344,975.098,-4.395,-524.414,0
1508627245.906,-145.020,-27.344,-964.844,-13.184,-541.016,0
1508627245.910,-133.301,-13.184,961.426,-0.977,-473.145,0
1508627245.914,-114.746,7.324,598.633,16.602,-452.148,0
1508627245.918,-114.746,11.230,899.902,18.555,-407.715,0
1508627245.922,-110.840,12.695,-945.801,23.926,-371.582,0
1508627245.926,-112.305,7.324,969.727,22.461,-400.391,0
1508627245.930,-122.070,-8.789,-992.188,11.719,-395.508,0
1508627245.934,-120.605,-16.113,999.512,11.230,-372.070,0
1508627245.938,-118.652,-16.602,999.512,24.414,-354.492,0
1508627245.941,-108.398,-16.113,999.512,41.992,-345.215,0
1508627245.945,-104.492,-10.742,999.512,36.133,-357.422,0
1508627245.949,-118.164,1.465,999.512,27.832,-312.012,0
1508627245.953,-123.047,9.277,999.512,32.715,-287.598,0
1508627245.957,-115.723,24.902,999.512,38.086,-234.863,0
1508627245.961,-107.910,29.297,999.512,41.504,-207.031,0
1508627245.965,-108.398,17.090,-986.328,37.109,-218.750,0
1508627245.969,-111.328,-1.465,939.453,40.527,-199.707,0
1508627245.973,-105.469,-3.906,-931.152,49.805,-187.988,0
1508627245.977,-99.609,0.977,799.805,60.547,-190.918,0
1508627245.981,-79.590,1.953,-623.047,86.914,-126.953,0
1508627245.984,-47.852,10.254,-1000.000,116.211,-72.754,0
1508627245.988,-27.832,12.695,-901.367,137.207,-134.766,0
1508627245.992,-48.828,4.395,-980.469,133.301,-150.879,0
1508627245.996,-67.871,-4.883,-967.285,107.910,-101.074,0
1508627246.000,-52.734,3.418,-967.285,92.773,-113.770,0
1508627246.004,-62.988,21.973,-967.285,80.078,-100.098,0
1508627246.008,-62.988,34.180,-966.797,81.543,-104.492,0
1508627246.012,-44.922,34.668,-967.285,83.984,-132.812,0
1508627246.016,-82.520,11.719,-966.797,41.504,-91.309,0
1508627246.020,-148.438,8.301,-967.285,36.621,-80.566,0
1508627246.023,-202.637,14.648,-967.285,47.852,-92.285,0
1508627246.027,-163.086,11.719,-967.285,33.691,-85.938,0
1508627246.031,-100.586,14.160,-967.285,35.645,-64.941,0
1508627246.035,-116.211,27.832,-966.797,25.391,-75.195,0
1508627246.039,-125.000,27.344,-966.797,21.973,-90.332,0
1508627246.043,-73.242,25.879,-967.285,34.180,-52.734,0
1508627246.047,-66.895,21.973,-967.285,14.160,-10.742,0
1508627246.051,-63.477,10.742,-967.285,5.859,-31.738,0
1508627246.055,-48.828,10.742,-967.285,14.648,-85.449,0
1508627246.059,-58.594,4.883,-967.285,1.953,-45.898,0
1508627246.063,-58.105,9.766,-967.285,-3.418,-47.363,0
1508627246.066,-48.340,21.973,-966.797,-0.488,-31.250,0
1508627246.070,-50.781,24.902,-967.285,-13.184,-18.555,0
1508627246.074,-41.992,32.227,-966.797,-12.695,-68.359,0
1508627246.078,-36.621,35.156,-966.797,-14.648,-51.758,0
1508627246.082,-37.598,39.551,-966.797,-24.414,-82.520,0
1508627246.086,-48.340,41.504,-967.285,-25.391,-66.406,0
1508627246.090,-43.945,43.945,-967.285,-26.367,-37.598,0
1508627246.094,-28.320,51.758,-966.797,-19.043,-30.762,0
1508627246.098,-27.832,52.246,-967.285,-8.301,-29.297,0
1508627246.102,-35.645,47.363,-967.285,-8.789,-59.570,0
1508627246.106,-36.621,47.852,-967.285,-13.184,-89.844,0
1508627246.109,-37.109,46.875,-967.285,-10.742,-86.914,0
1508627246.113,-45.898,40.527,-967.285,-9.277,-67.871,0
1508627246.117,-40.039,43.457,-966.797,-0.488,-89.844,0
1508627246.121,-40.039,43.945,-967.285,3.418,-65.430,0
1508627246.125,-41.504,41.992,-967.285,6.836,-111.816,0
1508627246.129,-39.062,39.551,-966.797,18.066,-102.539,0
1508627246.133,-48.340,37.109,-967.285,17.090,-31.738,0
1508627246.137,-51.758,33.691,-967.285,11.230,-43.457,0
1508627246.141,-44.434,34.668,-967.285,15.625,-32.715,0
1508627246.145,-40.039,48.828,-967.285,23.926,-29.297,0
1508627246.148,-42.969,46.875,-967.285,19.043,-17.090,0
1508627246.152,-45.898,44.434,-966.797,20.020,5.371,0
1508627246.156,-62.012,39.551,-967.285,13.672,27.344,0
1508627246.160,-59.082,31.250,-966.797,8.301,26.367,0
1508627246.164,-50.781,30.762,-967.285,7.812,9.766,0
1508627246.168,-63.477,28.809,-967.285,2.930,21.973,0
1508627246.172,-61.523,31.738,-967.285,11.230,38.086,0
1508627246.176,-62.500,36.133,-967.285,16.113,39.551,0
1508627246.180,-65.918,38.086,-966.797,19.043,40.527,0
1508627246.184,-37.109,40.527,-966.797,22.461,17.578,0
1508627246.188,-10.742,41.504,-967.285,19.043,12.695,0
1508627246.191,5.859,39.551,-967.285,9.277,57.129,0
1508627246.195,10.742,40.039,-967.285,7.324,-8.301,0
1508627246.199,-19.043,31.738,-966.797,1.465,-15.625,0
1508627246.203,-38.574,30.273,-967.285,-2.441,54.688,0
1508627246.207,-38.574,39.062,-967.285,8.301,72.266,0
1508627246.211,-55.664,33.203,-967.285,5.371,10.254,0
1508627246.215,-55.664,32.227,-967.285,-0.488,-13.672,0
1508627246.219,-42.969,37.598,-966.797,-4.883,12.207,0
1508627246.223,-47.363,30.762,-966.797,-11.230,-18.066,0
1508627246.227,-44.434,28.809,-966.797,-9.766,-34.668,0
1508627246.231,-42.969,31.738,-967.285,-14.160,-12.695,0
1508627246.234,-46.875,29.297,-967.285,-13.672,1.465,0
1508627246.238,-41.016,30.273,-967.285,-4.395,14.648,0
1508627246.242,-28.809,44.434,-967.285,6.348,-12.695,0
1508627246.246,-25.879,44.922,-967.285,2.441,-45.898,0
1508627246.250,-36.621,33.691,-967.285,-9.277,-27.344,0
1508627246.254,-41.016,32.227,-967.285,-6.836,43.457,0
1508627246.258,-25.879,37.598,-966.797,3.906,50.781,0
1508627246.262,-10.742,44.922,-966.797,11.230,40.527,0
1508627246.266,-17.090,41.016,-966.797,2.441,38.086,0
1508627246.270,-26.367,37.109,-967.285,-3.906,-14.160,0
1508627246.273,-23.438,38.086,-966.797,0.488,-37.109,0
1508627246.277,-13.672,40.039,-966.797,7.324,-8.301,0
1508627246.281,-10.742,41.016,-966.797,6.836,-8.789,0
1508627246.285,-15.625,43.457,-967.285,2.441,-49.316,0
1508627246.289,-12.207,46.875,-967.285,11.719,-21.484,0
1508627246.293,-14.160,42.480,-967.285,12.207,-18.066,0
1508627246.297,-15.137,40.039,-967.285,17.090,8.789,0
1508627246.301,-14.648,43.945,-966.797,17.578,59.570,0
1508627246.305,-20.020,41.504,-967.285,9.277,57.617,0
1508627246.309,-20.996,38.086,-966.797,18.066,29.785,0
1508627246.313,-23.926,35.645,-966.797,20.996,38.574,0
1508627246.316,-20.508,34.180,-966.797,20.020,70.801,0
1508627246.320,-17.578,35.645,-966.797,25.879,9.277,0
1508627246.324,-13.672,38.086,-967.285,30.762,-5.371,0
1508627246.328,-14.648,34.668,-967.285,25.391,3.906,0
1508627246.332,-17.090,32.715,-966.797,29.297,29.785,0
1508627246.336,-18.066,38.086,-966.797,30.273,16.602,0
1508627246.340,-28.809,30.273,-966.797,10.742,15.137,0
1508627246.344,-29.297,28.809,-967.285,11.230,13.672,0
1508627246.348,-29.785,33.203,-966.797,5.371,-26.855,0
1508627246.352,-31.250,34.180,-967.285,-2.441,-3.418,0
1508627246.356,-30.762,30.273,-966.797,3.906,12.207,0
1508627246.359,-27.832,35.156,-967.285,9.766,7.812,0
1508627246.363,-26.855,38.574,-967.285,13.672,-2.441,0
1508627246.367,-24.414,43.457,-966.797,18.555,14.160,0
1508627246.371,-19.043,51.758,-966.797,21.973,25.391,0
1508627246.375,-19.043,45.898,-967.285,23.438,35.156,0
1508627246.379,-18.066,45.898,-966.797,23.926,29.297,0
1508627246.383,-17.578,47.363,-966.797,13.672,13.184,0
1508627246.387,-17.578,45.898,-967.285,10.254,5.859,0
1508627246.391,-18.555,47.363,-967.285,12.207,69.336,0
1508627246.395,-20.996,51.270,-964.355,13.672,92.285,0
1508627246.398,-17.578,54.688,-970.215,18.555,11.230,0
1508627246.402,-11.719,60.059,-948.242,12.695,16.602,0
1508627246.406,5.859,74.219,-886.230,27.344,50.781,0
1508627246.410,6.836,76.660,-847.168,41.016,27.344,0
1508627246.414,-0.488,65.430,-813.965,32.227,48.340,0
1508627246.418,3.906,65.918,-780.762,28.809,48.828,0
1508627246.422,-0.977,64.453,-759.277,25.879,-0.488,0
1508627246.426,1.465,69.336,-734.863,35.645,32.227,0
1508627246.430,-0.977,70.312,-717.285,36.133,65.918,0
1508627246.434,-4.395,64.941,-689.453,29.785,14.160,0
1508627246.438,0.000,68.359,-645.996,30.273,-13.672,0
1508627246.441,5.371,71.777,-617.188,33.691,31.250,0
1508627246.445,-3.418,63.965,-604.980,32.715,84.473,0
1508627246.449,-12.695,58.105,-591.309,24.902,86.426,0
1508627246.453,-9.766,61.523,-574.707,25.879,48.828,0
1508627246.457,-10.742,60.059,-545.410,29.297,2.930,0
1508627246.461,-11.230,57.129,-528.809,27.344,20.508,0
1508627246.465,-3.418,62.500,-541.016,26.855,23.926,0
1508627246.469,-8.301,61.035,-553.223,25.391,12.207,0
1508627246.473,-11.719,56.641,-525.879,24.902,45.898,0
1508627246.477,-9.766,57.129,-448.730,24.414,50.781,0
1508627246.481,-8.301,58.105,-352.539,25.391,46.387,0
1508627246.484,-5.371,58.105,-322.754,28.320,4.883,0
1508627246.488,1.465,62.988,-339.355,33.203,16.113,0
1508627246.492,-7.324,54.688,-361.328,20.996,68.359,0
1508627246.496,-27.344,40.039,-376.953,0.977,83.008,0
1508627246.500,-28.320,38.574,-373.047,-3.418,19.531,0
1508627246.504,-24.414,41.504,-363.770,2.441,-7.324,0
1508627246.508,-15.625,51.270,-368.164,14.648,15.625,0
1508627246.512,-9.766,55.664,-363.281,17.090,63.477,0
1508627246.516,-17.578,47.852,-357.422,6.836,89.355,0
1508627246.520,-23.438,46.387,-341.309,5.859,36.133,0
1508627246.523,-20.508,50.781,-324.707,10.254,34.668,0
1508627246.527,-17.578,49.316,-308.594,8.789,60.547,0
1508627246.531,-17.578,47.363,-303.223,12.695,15.625,0
1508627246.535,-8.301,58.594,-305.664,20.020,12.695,0
1508627246.539,0.000,63.965,-329.102,23.926,26.855,0
1508627246.543,0.488,60.547,-332.520,23.926,28.809,0
1508627246.547,-6.348,53.711,-278.320,18.555,58.594,0
1508627246.551,-4.395,55.176,-263.184,20.996,87.402,0
1508627246.555,0.977,60.547,-263.672,29.297,73.730,0
1508627246.559,5.859,68.848,-241.699,36.133,5.371,0
1508627246.563,4.883,69.336,-235.352,30.273,-41.504,0
1508627246.566,-4.395,58.594,-233.887,23.438,62.988,0
1508627246.570,-2.441,59.570,-210.449,26.367,105.469,0
1508627246.574,-6.348,59.570,-204.590,24.414,62.988,0
1508627246.578,-13.184,59.082,-203.125,20.020,44.434,0
1508627246.582,-14.160,56.152,-199.707,17.578,78.125,0
1508627246.586,-14.160,58.105,-202.637,16.113,80.566,0
1508627246.590,-9.277,62.500,-179.199,20.508,54.199,0
1508627246.594,-8.789,58.594,-192.383,28.809,48.340,0
1508627246.598,-12.695,56.641,-216.309,21.484,48.828,0
1508627246.602,-17.090,53.223,-196.777,15.625,73.730,0
1508627246.606,-16.602,51.270,-178.223,25.391,41.992,0
1508627246.609,-13.184,51.758,-174.805,34.180,58.105,0
1508627246.613,-11.230,55.176,-175.781,35.156,83.008,0
1508627246.617,-14.648,53.223,-173.828,31.738,64.453,0
1508627246.621,-7.812,62.988,-153.809,37.598,53.711,0
1508627246.625,-6.348,61.523,-148.926,32.715,93.262,0
1508627246.629,-26.855,37.598,-167.969,18.066,79.590,0
1508627246.633,-30.762,34.668,-145.996,19.043,71.777,0
1508627246.637,-20.508,41.504,-135.742,20.020,65.430,0
1508627246.641,-19.043,41.992,-138.184,18.555,32.227,0
1508627246.645,-22.949,41.992,-133.789,21.484,55.664,0
1508627246.648,-21.484,43.457,-114.746,19.043,53.223,0
1508627246.652,-18.555,44.434,-108.887,18.066,66.406,0
1508627246.656,-18.066,41.992,-106.445,17.090,79.102,0
1508627246.660,-10.254,48.340,-107.910,24.902,33.203,0
1508627246.664,-14.648,47.852,-114.746,20.508,51.758,0
1508627246.668,-19.043,46.875,-124.512,11.719,69.336,0
1508627246.672,-17.578,45.410,-135.742,13.184,36.133,0
1508627246.676,-13.672,45.898,-121.582,13.672,32.715,0
1508627246.680,-1.953,57.617,-100.098,28.809,20.996,0
1508627246.684,-3.906,54.688,-107.422,31.738,59.570,0
1508627246.688,-11.719,48.340,-107.910,24.414,96.191,0
1508627246.691,-5.859,58.594,-101.562,31.738,56.641,0
1508627246.695,1.465,61.523,-90.820,36.621,20.020,0
1508627246.699,1.465,57.129,-82.031,34.668,82.031,0
1508627246.703,2.441,60.547,-81.055,40.039,116.211,0
1508627246.707,0.488,56.152,-83.496,32.227,55.664,0
1508627246.711,3.418,57.129,-75.195,30.273,48.828,0
1508627246.715,7.324,60.059,-73.730,41.504,37.598,0
1508627246.719,12.695,62.012,-78.125,45.898,11.230,0
1508627246.723,16.113,64.941,-69.824,44.434,-13.672,0
1508627246.727,14.648,62.988,-69.336,46.875,20.020,0
1508627246.731,20.508,66.406,-54.199,52.734,62.012,0
1508627246.734,20.508,66.895,-54.688,48.340,83.496,0
1508627246.738,17.090,62.988,-83.496,42.969,92.773,0
1508627246.742,20.996,66.406,-104.980,40.527,63.965,0
1508627246.746,20.020,69.824,-109.375,43.457,21.484,0
1508627246.750,15.625,68.848,-87.402,47.852,-5.859,0
1508627246.754,17.090,67.383,-84.473,44.434,28.809,0
1508627246.758,15.137,63.477,-87.891,39.551,50.781,0
1508627246.762,10.254,61.523,-100.586,34.668,31.738,0
1508627246.766,8.301,62.012,-93.750,30.762,1.953,0
1508627246.770,13.672,64.453,-73.242,36.621,41.992,0
1508627246.773,5.371,53.711,-73.730,31.738,62.012,0
1508627246.777,-0.977,45.898,-79.590,23.926,66.406,0
1508627246.781,3.418,55.176,-68.848,28.809,62.500,0
1508627246.785,-11.719,46.387,-70.801,14.648,27.344,0
1508627246.789,-16.602,43.457,-74.707,8.789,62.012,0
1508627246.793,-11.230,49.316,-72.266,16.602,2.930,0
1508627246.797,-10.742,46.875,-58.594,21.484,-9.766,0
1508627246.801,-12.695,46.875,-54.199,22.461,31.250,0
1508627246.805,-20.508,45.898,-53.711,16.113,33.691,0
1508627246.809,-17.578,45.898,-47.852,16.602,38.086,0
1508627246.813,-13.672,45.898,-45.410,25.391,0.977,0
1508627246.816,-16.602,47.363,-43.945,27.832,-0.488,0
1508627246.820,-12.207,51.270,-45.410,20.508,2.441,0
1508627246.824,-14.160,47.852,-42.969,15.137,21.484,0
1508627246.828,-23.926,40.039,-47.852,13.184,42.969,0
1508627246.832,-25.879,40.527,-50.781,13.672,1.953,0
1508627246.836,-26.855,37.598,-57.129,14.160,3.906,0
1508627246.840,-22.461,36.621,-54.199,16.113,26.855,0
1508627246.844,-12.207,44.922,-41.504,20.020,-47.363,0
1508627246.848,-7.812,50.781,-42.480,22.949,32.227,0
1508627246.852,-6.836,55.176,-41.992,22.461,103.516,0
1508627246.856,-6.836,55.664,-35.645,23.926,59.570,0
1508627246.859,-0.977,57.617,-29.785,29.785,1.953,0
1508627246.863,3.906,65.918,-29.297,36.133,33.691,0
1508627246.867,12.695,71.777,-44.922,37.598,62.500,0
1508627246.871,18.555,71.289,-26.855,36.133,17.090,0
1508627246.875,7.812,61.035,32.715,25.391,8.301,0
1508627246.879,2.441,56.152,6.836,18.555,33.203,0
1508627246.883,10.254,60.059,-18.555,26.855,45.410,0
1508627246.887,11.230,58.105,-18.066,30.273,62.012,0
1508627246.891,14.160,59.082,-26.367,34.180,48.828,0
1508627246.895,16.113,61.523,-20.996,33.691,-5.859,0
1508627246.898,12.695,61.035,-29.785,33.691,-6.348,0
1508627246.902,16.113,60.547,-39.062,38.086,3.418,0
1508627246.906,20.996,65.918,-21.973,40.527,8.789,0
1508627246.910,24.414,71.777,-17.578,43.945,19.043,0
1508627246.914,20.020,63.965,-21.973,41.016,3.906,0
1508627246.918,18.066,69.824,-14.648,34.180,-13.184,0
1508627246.922,14.648,71.777,-24.414,26.367,-19.043,0
1508627246.926,11.230,64.453,-41.992,24.414,-0.488,0
1508627246.930,9.277,64.941,-41.016,26.367,0.977,0
1508627246.934,5.371,63.477,-27.832,28.320,-5.371,0
1508627246.938,8.301,63.965,-25.391,27.344,-8.789,0
1508627246.941,13.184,65.918,-39.062,28.320,10.742,0
1508627246.945,14.648,68.359,-19.043,34.180,17.578,0
1508627246.949,16.602,69.824,-10.254,37.598,3.906,0
1508627246.953,14.160,64.941,-36.133,33.691,-20.996,0
1508627246.957,9.277,62.988,-28.809,28.320,-0.488,0
1508627246.961,9.766,64.941,-9.277,31.250,51.270,0
1508627246.965,5.859,61.035,0.488,31.738,29.785,0
1508627246.969,11.719,65.430,-11.230,40.039,-7.324,0
1508627246.973,26.855,76.660,-6.348,52.734,-0.488,0
1508627246.977,17.090,65.918,-8.301,41.992,34.668,0
1508627246.981,6.348,50.781,-24.902,30.273,23.438,0
1508627246.984,7.812,50.293,-31.250,31.250,-7.324,0
1508627246.988,7.324,50.293,-36.621,30.273,-54.688,0
1508627246.992,16.113,56.641,-15.625,38.574,-35.645,0
1508627246.996,18.555,58.105,-3.418,41.992,21.484,0
1508627247.000,9.766,53.711,-21.484,35.156,45.898,0
1508627247.004,13.184,58.594,-20.020,41.992,97.168,0
1508627247.008,12.695,59.570,-1.953,39.551,38.574,0
1508627247.012,11.230,61.035,-5.371,39.551,-2.930,0
1508627247.016,12.207,62.012,-27.832,47.363,76.660,0
1508627247.020,16.113,62.988,-19.531,47.852,122.559,0
1508627247.023,27.344,72.266,5.371,55.664,83.496,0
1508627247.027,20.020,64.941,-4.883,46.387,18.066,0
1508627247.031,4.883,50.781,-35.156,32.227,1.465,0
1508627247.035,6.836,52.734,-27.832,39.062,-16.113,0
1508627247.039,9.766,52.734,-4.395,36.133,28.320,0
1508627247.043,12.207,53.223,-9.277,36.133,35.645,0
1508627247.047,10.742,54.688,-19.531,43.457,38.574,0
1508627247.051,10.742,56.641,-6.348,41.504,38.086,0
1508627247.055,13.672,57.129,-4.395,40.039,-47.363,0
1508627247.059,12.207,53.711,-17.578,39.551,-19.531,0
1508627247.063,13.184,54.199,-12.695,35.645,41.016,0
1508627247.066,14.648,55.176,-2.930,41.992,45.898,0
1508627247.070,15.625,59.082,10.254,47.852,21.484,0
1508627247.074,21.973,67.383,7.324,49.316,73.242,0
1508627247.078,21.484,67.383,0.977,50.293,68.848,0
1508627247.082,10.254,58.594,0.977,40.039,15.137,0
1508627247.086,2.930,46.875,-14.648,24.414,37.598,0
1508627247.090,0.488,38.574,-17.090,23.438,11.719,0
1508627247.094,-3.418,40.527,-15.625,26.855,-11.719,0
1508627247.098,9.277,50.781,-10.254,36.621,33.203,0
1508627247.102,16.113,45.410,-3.906,39.551,18.555,0
1508627247.106,7.324,33.691,-10.742,30.273,-0.977,0
1508627247.109,2.930,34.180,-9.277,25.391,22.949,0
1508627247.113,1.953,37.598,-1.953,25.391,52.734,0
1508627247.117,0.000,37.598,-1.953,25.391,41.016,0
1508627247.121,3.418,40.527,-13.184,23.438,70.312,0
1508627247.125,-0.488,40.527,-17.578,21.973,47.852,0
1508627247.129,-5.371,39.062,-18.066,24.414,-6.348,0
1508627247.133,-4.395,36.621,-21.484,20.508,-34.180,0
1508627247.137,-6.836,32.227,-19.043,18.066,2.930,0
1508627247.141,-3.906,36.133,-4.395,26.367,8.789,0
1508627247.145,-2.441,37.598,-7.812,24.902,6.836,0
1508627247.148,-7.324,33.203,6.836,16.602,-13.184,0
1508627247.152,1.953,43.945,4.883,25.879,-33.691,0
1508627247.156,16.113,54.688,-8.301,39.551,-27.344,0
1508627247.160,6.836,47.363,-9.766,34.668,11.230,0
1508627247.164,-3.906,36.621,-13.672,23.438,38.086,0
1508627247.168,7.812,43.457,-11.230,28.809,43.945,0
1508627247.172,10.742,48.340,-14.160,31.250,45.410,0
1508627247.176,4.395,43.945,-11.230,24.414,-18.555,0
1508627247.180,6.348,44.434,-15.137,26.855,-15.137,0
1508627247.184,2.441,39.551,-9.766,31.738,41.504,0
1508627247.188,6.836,45.898,-3.418,33.203,16.113,0
1508627247.191,12.207,53.223,-7.324,39.551,1.953,0
1508627247.195,13.672,54.199,-8.789,44.922,34.668,0
1508627247.199,15.625,55.176,-7.324,37.109,20.996,0
1508627247.203,16.113,56.641,-5.859,34.668,7.812,0
1508627247.207,20.020,60.547,-8.301,43.457,-13.672,0
1508627247.211,10.742,54.688,-10.254,36.133,5.371,0
1508627247.215,5.859,52.734,-6.348,28.320,43.457,0
1508627247.219,12.207,58.594,-15.625,35.156,-4.395,0
1508627247.223,12.695,62.500,-9.277,36.621,-9.766,0
1508627247.227,11.230,61.523,-17.578,34.668,41.992,0
1508627247.231,7.812,57.129,-23.926,32.715,16.113,0
1508627247.234,10.254,58.105,-7.812,33.691,5.859,0
1508627247.238,12.695,61.523,-16.602,37.109,42.969,0
1508627247.242,11.719,66.895,-21.484,36.133,60.059,0
1508627247.246,12.695,68.359,-17.090,36.621,27.832,0
1508627247.250,12.207,68.848,-35.645,43.945,47.852,0
1508627247.254,2.441,61.035,-43.945,34.668,47.852,0
1508627247.258,-5.859,53.223,-22.949,26.367,25.391,0
1508627247.262,-9.277,57.617,-13.672,27.344,46.875,0
1508627247.266,-5.859,65.918,-9.766,31.738,6.348,0
1508627247.270,-5.859,64.453,-0.977,33.691,23.438,0
1508627247.273,-11.719,61.523,-2.441,28.320,37.109,0
1508627247.277,-4.883,71.289,3.906,31.738,0.488,0
1508627247.281,-6.836,75.195,10.742,29.297,24.902,0
1508627247.285,-10.742,67.871,0.488,18.066,47.363,0
1508627247.289,-12.695,62.988,-3.418,18.066,23.926,0
1508627247.293,-11.719,64.453,0.977,22.461,-4.883,0
1508627247.297,-8.789,68.848,-0.977,21.484,-5.371,0
1508627247.301,-13.672,66.406,-6.348,24.902,7.812,0
1508627247.305,-28.809,49.805,-11.230,8.301,12.207,0
1508627247.309,-31.250,48.828,-12.695,7.324,-19.043,0
1508627247.313,-12.207,64.941,-4.883,21.973,0.000,0
1508627247.316,-8.789,67.871,-4.883,22.949,50.293,0
1508627247.320,-10.254,63.965,3.906,24.902,29.785,0
1508627247.324,-13.672,61.523,13.184,21.973,1.953,0
1508627247.328,-12.695,61.523,1.953,22.461,22.461,0
1508627247.332,-7.812,65.430,6.348,26.367,77.637,0
1508627247.336,1.953,72.754,10.254,35.156,55.176,0
1508627247.340,7.812,73.242,26.855,37.598,19.043,0
1508627247.344,-1.465,65.918,33.203,25.879,45.410,0
1508627247.348,-8.301,53.711,-5.859,17.578,41.992,0
1508627247.352,-4.883,51.270,-10.742,20.020,25.391,0
1508627247.356,1.953,58.105,4.883,29.785,15.625,0
1508627247.359,0.977,58.105,23.926,37.109,21.973,0
1508627247.363,6.348,59.082,-48.340,36.133,29.785,0
1508627247.367,11.230,63.477,-103.027,34.668,7.812,0
1508627247.371,14.648,66.406,-35.645,36.133,35.645,0
1508627247.375,7.812,58.105,-11.230,30.762,65.430,0
1508627247.379,5.859,59.082,-8.789,30.273,43.945,0
1508627247.383,20.508,73.730,6.348,36.133,-15.137,0
1508627247.387,15.625,65.430,-2.441,30.273,-33.203,0
1508627247.391,12.207,60.059,1.465,33.203,20.996,0
1508627247.395,20.508,70.312,12.695,41.504,24.414,0
1508627247.398,10.254,62.012,-0.488,32.227,-6.348,0
1508627247.402,9.766,61.035,-17.090,29.785,0.000,0
1508627247.406,9.766,65.430,-33.203,30.762,72.266,0
1508627247.410,14.160,67.383,-9.766,34.668,114.258,0
1508627247.414,17.578,67.383,-205.566,35.645,36.133,0
1508627247.418,12.695,62.012,-388.184,29.785,5.371,0
1508627247.422,12.207,61.035,-208.008,29.785,64.453,0
1508627247.426,14.648,62.500,-83.008,28.809,59.570,0
1508627247.430,13.184,63.477,-6.348,29.785,30.273,0
1508627247.434,12.695,63.965,31.250,29.297,31.250,0
1508627247.438,9.766,54.199,44.922,24.414,7.812,0
1508627247.441,12.207,59.082,65.918,27.832,-17.090,0
1508627247.445,19.531,73.242,73.242,39.551,-2.930,0
1508627247.449,10.742,63.477,54.199,24.902,41.016,0
1508627247.453,7.812,58.105,42.969,17.090,29.785,0
1508627247.457,9.277,57.617,53.711,24.902,-7.324,0
1508627247.461,5.859,59.082,65.430,22.949,24.902,0
1508627247.465,7.324,60.059,62.500,20.508,83.008,0
1508627247.469,4.883,52.246,62.500,20.020,53.223,0
1508627247.473,1.465,46.875,84.961,17.578,32.227,0
1508627247.477,3.418,47.363,102.051,18.066,27.832,0
1508627247.481,5.371,50.781,80.078,17.578,28.809,0
1508627247.484,12.207,61.523,67.871,27.344,44.434,0
1508627247.488,15.625,65.918,84.473,30.762,19.043,0
1508627247.492,12.207,62.012,76.172,20.996,58.105,0
1508627247.496,8.301,52.246,57.129,15.137,120.605,0
1508627247.500,7.812,50.781,62.500,20.508,62.988,0
1508627247.504,5.371,55.176,62.012,20.996,-18.066,0
1508627247.508,5.859,50.293,55.176,11.230,15.137,0
1508627247.512,8.301,48.828,45.898,17.090,54.688,0
1508627247.516,5.371,49.805,48.340,25.391,62.988,0
1508627247.520,12.207,55.664,64.453,33.203,39.551,0
1508627247.523,16.602,56.641,57.129,34.180,39.551,0
1508627247.527,19.531,60.547,45.898,36.621,62.500,0
1508627247.531,22.461,63.965,60.547,42.480,50.781,0
1508627247.535,24.902,65.918,69.336,40.039,41.016,0
1508627247.539,26.855,69.336,61.035,47.852,59.082,0
1508627247.543,12.695,59.082,72.266,41.016,22.949,0
1508627247.547,18.066,59.082,66.895,41.016,39.551,0
1508627247.551,24.414,64.941,40.039,48.340,72.266,0
1508627247.555,9.766,51.270,36.133,36.133,33.691,0
1508627247.559,14.160,52.734,45.898,37.109,33.691,0
1508627247.563,23.438,61.035,55.176,44.434,45.410,0
1508627247.566,25.879,60.547,54.688,47.363,108.887,0
1508627247.570,30.762,63.965,44.434,50.293,115.723,0
1508627247.574,28.320,59.570,40.039,48.340,71.777,0
1508627247.578,28.320,52.246,44.922,44.922,73.242,0
1508627247.582,37.598,59.570,50.293,47.852,62.012,0
1508627247.586,43.945,68.848,46.387,59.082,77.148,0
1508627247.590,46.387,72.754,49.316,63.477,51.270,0
1508627247.594,43.457,66.406,60.547,50.781,52.246,0
1508627247.598,38.086,61.523,53.711,45.898,66.895,0
1508627247.602,27.832,54.199,28.809,40.039,46.387,0
1508627247.606,22.949,50.293,29.297,29.785,83.496,0
1508627247.609,22.461,52.734,49.316,30.273,85.938,0
1508627247.613,20.508,54.688,36.133,32.715,67.383,0
1508627247.617,12.207,50.293,21.973,30.273,117.188,0
1508627247.621,8.789,47.852,38.574,26.367,95.703,0
1508627247.625,6.836,49.316,36.621,19.043,34.180,0
1508627247.629,1.465,48.340,31.250,16.602,28.809,0
1508627247.633,3.418,51.758,42.480,20.508,71.777,0
1508627247.637,13.184,58.105,17.578,20.020,58.594,0
1508627247.641,16.113,65.430,18.066,23.438,18.066,0
1508627247.645,6.836,61.035,25.879,26.367,5.859,0
1508627247.648,-1.465,47.363,13.672,15.625,30.273,0
1508627247.652,-3.906,47.363,30.273,15.137,58.105,0
1508627247.656,-9.277,43.457,30.762,14.648,93.262,0
1508627247.660,-6.836,39.551,5.859,10.742,61.523,0
1508627247.664,-3.418,42.969,14.648,19.043,46.875,0
1508627247.668,-2.441,48.340,23.926,27.832,52.734,0
1508627247.672,-3.418,49.316,21.973,22.461,25.879,0
1508627247.676,2.930,49.805,21.973,18.555,30.273,0
1508627247.680,6.836,54.688,20.996,28.809,78.125,0
1508627247.684,-0.488,53.223,25.391,30.762,117.188,0
1508627247.688,-3.906,47.852,22.949,32.715,121.094,0
1508627247.691,5.371,50.781,20.996,43.457,135.742,0
1508627247.695,17.578,60.547,34.668,47.363,153.809,0
1508627247.699,11.719,55.664,33.203,44.434,119.629,0
1508627247.703,0.000,41.992,15.137,31.738,126.465,0
1508627247.707,0.977,37.598,8.789,30.762,136.719,0
1508627247.711,4.883,43.945,22.461,36.621,108.398,0
1508627247.715,7.324,44.434,34.668,33.203,160.156,0
1508627247.719,9.766,40.039,23.438,31.250,220.215,0
1508627247.723,7.324,40.527,37.598,31.250,206.055,0
1508627247.727,8.789,50.293,38.574,35.645,192.871,0
1508627247.731,18.555,59.082,20.996,42.480,224.121,0
1508627247.734,18.066,61.523,27.832,47.852,222.168,0
1508627247.738,19.531,65.430,28.320,51.270,225.586,0
1508627247.742,22.461,61.523,41.504,48.340,233.887,0
1508627247.746,19.531,57.617,43.945,41.504,252.930,0
1508627247.750,15.625,54.688,20.020,41.992,265.625,0
1508627247.754,9.277,50.293,16.602,37.598,249.023,0
1508627247.758,3.418,48.828,22.461,30.762,240.234,0
1508627247.762,4.395,52.246,20.020,28.809,253.906,0
1508627247.766,10.742,55.664,10.254,21.973,249.023,0
1508627247.770,6.348,51.758,16.602,17.090,230.469,0
1508627247.773,8.789,57.129,25.879,30.762,229.980,0
1508627247.777,12.207,60.547,25.879,35.645,246.582,0
1508627247.781,6.836,58.105,18.066,30.762,278.320,0
1508627247.785,8.301,61.035,16.113,32.227,244.629,0
1508627247.789,15.137,65.430,29.785,34.180,223.145,0
1508627247.793,10.742,63.965,17.578,29.785,225.098,0
1508627247.797,2.441,54.199,12.207,21.484,188.965,0
1508627247.801,-2.441,45.898,21.484,19.043,175.781,0
1508627247.805,1.953,49.805,28.809,30.273,186.523,0
1508627247.809,5.859,51.758,37.109,28.320,189.941,0
1508627247.813,3.906,46.875,17.578,16.113,168.945,0
1508627247.816,4.395,48.828,14.160,16.113,159.180,0
1508627247.820,6.348,54.199,29.785,22.461,152.344,0
1508627247.824,7.812,53.223,24.902,31.250,140.625,0
1508627247.828,9.766,53.223,25.391,34.668,130.859,0
1508627247.832,16.602,54.688,29.297,34.668,88.867,0
1508627247.836,16.602,55.664,43.457,42.969,59.082,0
1508627247.840,16.113,54.688,42.969,48.828,41.016,0
1508627247.844,16.113,50.293,32.715,41.504,11.719,0
1508627247.848,21.973,56.641,36.621,47.852,-16.113,0
1508627247.852,19.531,53.711,50.293,48.828,-42.480,0
1508627247.856,11.230,45.410,45.410,38.086,-54.199,0
1508627247.859,17.578,51.270,23.438,46.387,-95.215,0
1508627247.863,24.902,62.988,39.551,61.035,-102.051,0
1508627247.867,23.438,60.059,46.875,58.594,-62.500,0
1508627247.871,15.137,48.340,34.180,52.246,-57.129,0
1508627247.875,15.137,49.316,26.855,51.270,-53.223,0
1508627247.879,18.555,49.805,41.016,43.457,-21.484,0
1508627247.883,19.531,55.176,44.922,43.457,14.648,0
1508627247.887,16.113,55.176,34.668,41.992,33.203,0
1508627247.891,9.766,51.270,40.039,39.062,37.598,0
1508627247.895,11.719,59.082,47.363,47.852,81.543,0
1508627247.898,16.113,61.523,51.270,44.922,127.930,0
1508627247.902,11.230,55.176,40.527,35.645,145.508,0
1508627247.906,-1.953,49.805,37.109,26.855,146.973,0
1508627247.910,-1.953,51.270,47.852,23.438,207.031,0
1508627247.914,6.836,57.617,47.363,32.227,270.996,0
1508627247.918,4.883,57.129,41.992,33.203,272.461,0
1508627247.922,0.000,52.734,38.574,30.762,282.715,0
1508627247.926,2.930,50.781,37.598,31.250,329.590,0
1508627247.930,-0.488,44.434,29.785,24.902,363.281,0
1508627247.934,-2.441,46.875,39.551,21.973,371.094,0
1508627247.938,2.441,54.199,47.363,26.367,421.875,0
1508627247.941,1.465,52.246,39.551,26.855,426.270,0
1508627247.945,-3.418,48.828,47.852,25.391,422.852,0
1508627247.949,0.977,53.223,51.758,35.156,456.543,0
1508627247.953,3.418,55.664,65.430,33.691,476.074,0
1508627247.957,-3.418,53.223,70.801,26.855,481.445,0
1508627247.961,1.953,52.246,47.363,36.621,477.539,0
1508627247.965,1.953,44.922,53.711,35.156,452.148,0
1508627247.969,4.395,46.875,61.523,32.715,433.105,0
1508627247.973,14.160,53.223,52.734,39.551,462.402,0
1508627247.977,12.207,51.270,44.434,41.016,482.422,0
1508627247.981,8.789,48.340,40.039,35.645,431.641,0
1508627247.984,12.207,51.758,54.688,33.203,423.340,0
1508627247.988,14.160,56.152,48.828,34.668,446.777,0
1508627247.992,20.508,62.500,39.551,40.039,409.180,0
1508627247.996,22.461,65.918,47.363,42.969,362.793,0
1508627248.000,13.184,60.547,43.457,37.109,351.562,0
1508627248.004,11.719,58.105,31.738,34.180,355.957,0
1508627248.008,10.742,55.176,26.367,31.738,339.355,0
1508627248.012,11.719,57.129,21.484,34.668,292.969,0
1508627248.016,14.160,55.664,33.203,28.809,293.457,0
1508627248.020,11.230,48.340,29.297,24.414,299.316,0
1508627248.023,22.461,60.547,19.531,43.457,258.301,0
1508627248.027,35.156,69.824,24.414,44.434,208.496,0
1508627248.031,29.297,64.941,16.602,29.297,182.129,0
1508627248.035,20.020,59.082,2.441,26.855,198.242,0
1508627248.039,20.996,62.012,-11.230,26.367,185.059,0
1508627248.043,15.137,56.152,-2.930,18.555,147.461,0
1508627248.047,21.484,59.570,15.137,18.066,164.062,0
1508627248.051,29.297,71.289,3.906,21.973,172.363,0
1508627248.055,28.320,71.777,6.836,30.762,161.133,0
1508627248.059,24.414,64.453,21.973,30.762,148.926,0
1508627248.063,14.160,53.711,-2.930,16.602,161.621,0
1508627248.066,13.672,59.570,-14.648,13.672,166.992,0
1508627248.070,15.137,66.895,5.859,18.066,131.836,0
1508627248.074,14.160,62.012,21.484,20.508,102.051,0
1508627248.078,16.113,58.594,16.602,21.484,133.301,0
1508627248.082,21.973,68.359,25.879,28.320,161.621,0
1508627248.086,13.672,62.500,35.156,21.973,152.344,0
1508627248.090,6.836,57.617,21.973,16.602,155.762,0
1508627248.094,9.277,58.594,32.227,22.461,193.848,0
1508627248.098,8.789,55.176,48.340,21.484,214.844,0
1508627248.102,19.531,62.500,65.918,36.133,210.938,0
1508627248.106,19.043,59.570,66.895,41.992,204.590,0
1508627248.109,5.859,45.410,54.199,25.879,217.285,0
1508627248.113,9.277,44.434,61.035,28.809,243.164,0
1508627248.117,11.230,39.062,76.660,34.180,239.746,0
1508627248.121,12.695,41.504,96.680,39.062,263.184,0
1508627248.125,17.578,55.664,95.703,44.434,278.809,0
1508627248.129,20.508,55.664,95.215,50.293,276.855,0
1508627248.133,26.855,54.688,123.535,57.129,272.461,0
1508627248.137,25.879,56.152,119.629,52.734,301.270,0
1508627248.141,32.227,63.477,109.863,61.523,317.383,0
1508627248.145,35.645,64.941,113.281,63.965,318.848,0
1508627248.148,34.668,64.453,114.746,60.059,343.262,0
1508627248.152,43.945,74.707,124.023,69.336,361.328,0
1508627248.156,28.809,64.453,94.727,58.105,348.145,0
1508627248.160,13.184,52.246,82.520,51.270,265.625,0
1508627248.164,21.484,54.688,95.703,58.594,267.578,0
1508627248.168,27.832,59.082,90.820,58.594,306.641,0
1508627248.172,23.926,56.641,76.660,56.152,279.297,0
1508627248.176,20.020,54.688,79.102,54.199,276.855,0
